* Sea-Bird SBE19plus  Data File:
* FileName = C:\R\Reservoirs\Data\DataNotYetUploadedToEDI\Raw_CTD\RawDownloads\07302024_BVR50_FCR10_20_30_40_0004.hex
* Software version 2.8.0.119
* Temperature SN = 7809
* Conductivity SN = 7809
* System UpLoad Time = Jul 30 2024 12:55:06
* <ApplicationData>
* <Seaterm232>
* <SoftwareVersion>2.8.0.119</SoftwareVersion>
* <BuildDate>07-Nov-2018</BuildDate>
* </Seaterm232>
* </ApplicationData>
* <InstrumentState>
* <HardwareData DeviceType='SBE19plus' SerialNumber='01907809'>
*
*    <Manufacturer>Sea-Bird Electronics, Inc.</Manufacturer>
*
*    <FirmwareVersion>3.1.8</FirmwareVersion>
*
*    <FirmwareDate>Mar  9 2016 16:22:29</FirmwareDate>
*
*    <CommandSetVersion>1.4</CommandSetVersion>
*
*    <PCBAssembly PCBSerialNum='120721' AssemblyNum='41054J'/>
*
*    <PCBAssembly PCBSerialNum='120715' AssemblyNum='41967A'/>
*
*    <PCBAssembly PCBSerialNum='116699' AssemblyNum='41606'/>
*
*    <PCBAssembly PCBSerialNum='120719' AssemblyNum='41059D'/>
*
*    <MfgDate>28-Apr-2017</MfgDate>
*
*    <InternalSensors>
*
*       <Sensor id='Main Temperature'>
*
*          <type>temperature0</type>
*
*          <SerialNumber>01907809</SerialNumber>
*
*       </Sensor>
*
*       <Sensor id='Main Conductivity'>
*
*          <type>conductivity-0</type>
*
*          <SerialNumber>01907809</SerialNumber>
*
*       </Sensor>
*
*       <Sensor id='Main Pressure'>
*
*          <type>strain-0</type>
*
*          <SerialNumber>10586018</SerialNumber>
*
*       </Sensor>
*
*    </InternalSensors>
*
*    <ExternalSensors>
*
*       <Sensor id='volt 0'>
*
*          <type>pH</type>
*
*          <SerialNumber>27-0363</SerialNumber>
*
*       </Sensor>
*
*       <Sensor id='volt 1'>
*
*          <type>ORP</type>
*
*          <SerialNumber>27-0363</SerialNumber>
*
*       </Sensor>
*
*       <Sensor id='volt 2'>
*
*          <type>OXY</type>
*
*          <SerialNumber>43-0434</SerialNumber>
*
*       </Sensor>
*
*       <Sensor id='volt 3'>
*
*          <type>PAR</type>
*
*          <SerialNumber>1122</SerialNumber>
*
*       </Sensor>
*
*       <Sensor id='volt 4'>
*
*          <type>ECO AFL/FL</type>
*
*          <SerialNumber>FLNTURT-2496</SerialNumber>
*
*       </Sensor>
*
*       <Sensor id='volt 5'>
*
*          <type>ECO-NTU</type>
*
*          <SerialNumber>FLNTURT-2496</SerialNumber>
*
*       </Sensor>
*
*       <Sensor id='serial'>
*
*          <type>not assigned</type>
*
*          <SerialNumber>not assigned</SerialNumber>
*
*       </Sensor>
*
*    </ExternalSensors>
*
* </HardwareData>
* <StatusData DeviceType='SBE19plus' SerialNumber='01907809'>
*
*    <DateTime>2024-07-30T12:52:39</DateTime>
*
*    <LoggingState>not logging</LoggingState>
*
*    <EventSummary numEvents='0'/>
*
*    <Power>
*
*       <vMain>12.5</vMain>
*
*       <vLith>8.3</vLith>
*
*       <iMain>63.1</iMain>
*
*       <iPump>140.7</iPump>
*
*       <iExt01>18.5</iExt01>
*
*       <iExt2345>39.3</iExt2345>
*
*    </Power>
*
*    <MemorySummary>
*
*       <Bytes>189796</Bytes>
*
*       <Samples>8252</Samples>
*
*       <SamplesFree>2852536</SamplesFree>
*
*       <SampleLength>23</SampleLength>
*
*       <Profiles>8</Profiles>
*
*    </MemorySummary>
*
* </StatusData>
* <ConfigurationData DeviceType='SBE19plus' SerialNumber='01907809'>
*
*    <ProfileMode>
*
*       <ScansToAverage>1</ScansToAverage>
*
*       <MinimumCondFreq>0</MinimumCondFreq>
*
*       <PumpDelay>45</PumpDelay>
*
*       <AutoRun>no</AutoRun>
*
*       <IgnoreSwitch>no</IgnoreSwitch>
*
*    </ProfileMode>
*
*    <Battery>
*
*       <Type>alkaline</Type>
*
*       <CutOff>7.5</CutOff>
*
*    </Battery>
*
*    <DataChannels>
*
*       <ExtVolt0>yes</ExtVolt0>
*
*       <ExtVolt1>yes</ExtVolt1>
*
*       <ExtVolt2>yes</ExtVolt2>
*
*       <ExtVolt3>yes</ExtVolt3>
*
*       <ExtVolt4>yes</ExtVolt4>
*
*       <ExtVolt5>yes</ExtVolt5>
*
*       <SBE38>no</SBE38>
*
*       <WETLABS>no</WETLABS>
*
*       <OPTODE>no</OPTODE>
*
*       <SBE63>no</SBE63>
*
*       <SeaFET>no</SeaFET>
*
*       <GTD>no</GTD>
*
*    </DataChannels>
*
*    <EchoCharacters>yes</EchoCharacters>
*
*    <OutputExecutedTag>yes</OutputExecutedTag>
*
*    <OutputFormat>raw HEX</OutputFormat>
*
* </ConfigurationData>
* <CalibrationCoefficients DeviceType='SBE19plus' SerialNumber='01907809'>
*
*    <Calibration format='TEMP1' id='Main Temperature'>
*
*       <SerialNum>01907809</SerialNum>
*
*       <CalDate>31-Jan-23</CalDate>
*
*       <TA0>1.218232e-03</TA0>
*
*       <TA1>2.815090e-04</TA1>
*
*       <TA2>-1.578887e-06</TA2>
*
*       <TA3>1.972343e-07</TA3>
*
*       <TOFFSET>0.000000e+00</TOFFSET>
*
*    </Calibration>
*
*    <Calibration format='WBCOND0' id='Main Conductivity'>
*
*       <SerialNum>01907809</SerialNum>
*
*       <CalDate>31-Jan-23</CalDate>
*
*       <G>-1.005652e+00</G>
*
*       <H>1.267963e-01</H>
*
*       <I>-1.561708e-04</I>
*
*       <J>2.645944e-05</J>
*
*       <CPCOR>-9.570000e-08</CPCOR>
*
*       <CTCOR>3.250000e-06</CTCOR>
*
*       <CSLOPE>1.000000e+00</CSLOPE>
*
*    </Calibration>
*
*    <Calibration format='STRAIN0' id='Main Pressure'>
*
*       <SerialNum>10586018</SerialNum>
*
*       <CalDate>20-Jan-23</CalDate>
*
*       <PA0>4.416439e-02</PA0>
*
*       <PA1>4.850502e-04</PA1>
*
*       <PA2>-3.090426e-12</PA2>
*
*       <PTCA0>5.254757e+05</PTCA0>
*
*       <PTCA1>1.050255e+01</PTCA1>
*
*       <PTCA2>-2.922435e-01</PTCA2>
*
*       <PTCB0>2.516687e+01</PTCB0>
*
*       <PTCB1>3.750000e-04</PTCB1>
*
*       <PTCB2>0.000000e+00</PTCB2>
*
*       <PTEMPA0>-5.470820e+01</PTEMPA0>
*
*       <PTEMPA1>5.485421e+01</PTEMPA1>
*
*       <PTEMPA2>-3.446578e-01</PTEMPA2>
*
*       <POFFSET>8.500000e-01</POFFSET>
*
*       <PRANGE>1.600000e+02</PRANGE>
*
*    </Calibration>
*
*    <Calibration format='VOLT0' id='Volt 0'>
*
*       <OFFSET>-4.920000e-02</OFFSET>
*
*       <SLOPE>1.248122e+00</SLOPE>
*
*    </Calibration>
*
*    <Calibration format='VOLT0' id='Volt 1'>
*
*       <OFFSET>-4.784000e-02</OFFSET>
*
*       <SLOPE>1.248871e+00</SLOPE>
*
*    </Calibration>
*
*    <Calibration format='VOLT0' id='Volt 2'>
*
*       <OFFSET>-4.864632e-02</OFFSET>
*
*       <SLOPE>1.248714e+00</SLOPE>
*
*    </Calibration>
*
*    <Calibration format='VOLT0' id='Volt 3'>
*
*       <OFFSET>-4.743790e-02</OFFSET>
*
*       <SLOPE>1.248571e+00</SLOPE>
*
*    </Calibration>
*
*    <Calibration format='VOLT0' id='Volt 4'>
*
*       <OFFSET>-4.671263e-02</OFFSET>
*
*       <SLOPE>1.248951e+00</SLOPE>
*
*    </Calibration>
*
*    <Calibration format='VOLT0' id='Volt 5'>
*
*       <OFFSET>-4.871053e-02</OFFSET>
*
*       <SLOPE>1.249136e+00</SLOPE>
*
*    </Calibration>
*
*    <Calibration format='FREQ0' id='external frequency channel'>
*
*       <EXTFREQSF>1.000014e+00</EXTFREQSF>
*
*    </Calibration>
*
* </CalibrationCoefficients>
* <EventCounters DeviceType='SBE19plus' SerialNumber='01907809'>
*
*    <EventSummary numEvents='0'/>
*
* </EventCounters></InstrumentState>
* <Headers>
*
* cast   4 29 Jul 2024 12:47:00 samples 3506 to 4351, avg = 1, stop = mag switch
*
# nquan = 15
# nvalues = 639                         
# units = specified
# name 0 = depFM: Depth [fresh water, m]
# name 1 = dz/dtM: Descent Rate [m/s]
# name 2 = sbeox0Mg/L: Oxygen, SBE 43 [mg/l]
# name 3 = sbeox0PS: Oxygen, SBE 43 [% saturation]
# name 4 = specc: Specific Conductance [uS/cm]
# name 5 = c0uS/cm: Conductivity [uS/cm]
# name 6 = flECO-AFL: Fluorescence, WET Labs ECO-AFL/FL [mg/m^3]
# name 7 = ph: pH
# name 8 = orp: Oxidation Reduction Potential [mV]
# name 9 = par/sat/log: PAR/Logarithmic, Satlantic
# name 10 = turbWETntu0: Turbidity, WET Labs ECO [NTU]
# name 11 = prdM: Pressure, Strain Gauge [db]
# name 12 = prdE: Pressure, Strain Gauge [psi]
# name 13 = tv290C: Temperature [ITS-90, deg C]
# name 14 = flag:  0.000e+00
# span 0 =     -0.638,      5.429       
# span 1 =     -0.011,      0.172       
# span 2 =     0.1291,     9.2625       
# span 3 =      1.350,    114.061       
# span 4 =      0.790,     79.949       
# span 5 =   0.759556,  63.150594       
# span 6 =    -0.1071,    22.0321       
# span 7 =      7.058,      7.399       
# span 8 =    74.0598,   480.8565       
# span 9 = 1.2364e-01, 3.9656e+02       
# span 10 =     0.6993,    69.3853      
# span 11 =     -0.626,      5.325      
# span 12 =     -0.908,      7.724      
# span 13 =    12.1587,    26.1752      
# span 14 = 0.0000e+00, 0.0000e+00      
# interval = seconds: 0.25
# start_time = Jul 29 2024 12:47:00 [Instrument's time stamp, header]
# bad_flag = -9.990e-29
# <Sensors count="9" >
#   <sensor Channel="1" >
#     <!-- Count, Temperature -->
#     <TemperatureSensor SensorID="58" >
#       <SerialNumber>7809</SerialNumber>
#       <CalibrationDate>31-Jan-23</CalibrationDate>
#       <A0>1.21823180e-003</A0>
#       <A1>2.81508993e-004</A1>
#       <A2>-1.57888696e-006</A2>
#       <A3>1.97234302e-007</A3>
#       <Slope>1.00000000</Slope>
#       <Offset>0.0000</Offset>
#     </TemperatureSensor>
#   </sensor>
#   <sensor Channel="2" >
#     <!-- Frequency 0, Conductivity -->
#     <ConductivitySensor SensorID="3" >
#       <SerialNumber>7809</SerialNumber>
#       <CalibrationDate>31-Jan-23</CalibrationDate>
#       <UseG_J>1</UseG_J>
#       <!-- Cell const and series R are applicable only for wide range sensors. -->
#       <SeriesR>0.0000</SeriesR>
#       <CellConst>2000.0000</CellConst>
#       <ConductivityType>0</ConductivityType>
#       <Coefficients equation="0" >
#         <A>0.00000000e+000</A>
#         <B>0.00000000e+000</B>
#         <C>0.00000000e+000</C>
#         <D>0.00000000e+000</D>
#         <M>0.0</M>
#         <CPcor>-9.57000000e-008</CPcor>
#       </Coefficients>
#       <Coefficients equation="1" >
#         <G>-1.00565232e+000</G>
#         <H>1.26796307e-001</H>
#         <I>-1.56170788e-004</I>
#         <J>2.64594368e-005</J>
#         <CPcor>-9.57000000e-008</CPcor>
#         <CTcor>3.2500e-006</CTcor>
#         <!-- WBOTC not applicable unless ConductivityType = 1. -->
#         <WBOTC>0.00000000e+000</WBOTC>
#       </Coefficients>
#       <Slope>1.00000000</Slope>
#       <Offset>0.00000</Offset>
#     </ConductivitySensor>
#   </sensor>
#   <sensor Channel="3" >
#     <!-- Count, Pressure, Strain Gauge -->
#     <PressureSensor SensorID="46" >
#       <SerialNumber>7809</SerialNumber>
#       <CalibrationDate>20-Jan-23</CalibrationDate>
#       <PA0>4.41643944e-002</PA0>
#       <PA1>4.85050239e-004</PA1>
#       <PA2>-3.09042623e-012</PA2>
#       <PTEMPA0>-5.47081996e+001</PTEMPA0>
#       <PTEMPA1>5.48542136e+001</PTEMPA1>
#       <PTEMPA2>-3.44657813e-001</PTEMPA2>
#       <PTCA0>5.25475731e+005</PTCA0>
#       <PTCA1>1.05025484e+001</PTCA1>
#       <PTCA2>-2.92243463e-001</PTCA2>
#       <PTCB0>2.51668750e+001</PTCB0>
#       <PTCB1>3.75000000e-004</PTCB1>
#       <PTCB2>0.00000000e+000</PTCB2>
#       <Offset>0.000000</Offset>
#     </PressureSensor>
#   </sensor>
#   <sensor Channel="4" >
#     <!-- A/D voltage 0, Oxygen, SBE 43 -->
#     <OxygenSensor SensorID="38" >
#       <SerialNumber>0434</SerialNumber>
#       <CalibrationDate>18-Feb-23</CalibrationDate>
#       <Use2007Equation>1</Use2007Equation>
#       <CalibrationCoefficients equation="0" >
#         <!-- Coefficients for Owens-Millard equation. -->
#         <Boc>0.0000</Boc>
#         <Soc>0.0000e+000</Soc>
#         <offset>0.0000</offset>
#         <Pcor>0.00e+000</Pcor>
#         <Tcor>0.0000</Tcor>
#         <Tau>0.0</Tau>
#       </CalibrationCoefficients>
#       <CalibrationCoefficients equation="1" >
#         <!-- Coefficients for Sea-Bird equation - SBE calibration in 2007 and later. -->
#         <Soc>5.1878e-001</Soc>
#         <offset>-0.5046</offset>
#         <A>-4.2788e-003</A>
#         <B> 1.5372e-004</B>
#         <C>-2.1853e-006</C>
#         <D0> 2.5826e+000</D0>
#         <D1> 1.92634e-004</D1>
#         <D2>-4.64803e-002</D2>
#         <E> 3.6000e-002</E>
#         <Tau20> 0.9900</Tau20>
#         <H1>-3.3000e-002</H1>
#         <H2> 5.0000e+003</H2>
#         <H3> 1.4500e+003</H3>
#       </CalibrationCoefficients>
#     </OxygenSensor>
#   </sensor>
#   <sensor Channel="5" >
#     <!-- A/D voltage 1, PAR/Logarithmic, Satlantic -->
#     <PARLog_SatlanticSensor SensorID="76" >
#       <SerialNumber>1122</SerialNumber>
#       <CalibrationDate>08-Sep-2021</CalibrationDate>
#       <a0>9.6751e-001</a0>
#       <a1>8.0992e-001</a1>
#       <Im>1.3589e+000</Im>
#       <Multiplier>1.0000e+000</Multiplier>
#     </PARLog_SatlanticSensor>
#   </sensor>
#   <sensor Channel="6" >
#     <!-- A/D voltage 2, pH -->
#     <pH_Sensor SensorID="43" >
#       <SerialNumber>0363</SerialNumber>
#       <CalibrationDate>28-Feb-23</CalibrationDate>
#       <Slope>4.7364</Slope>
#       <Offset>2.5433</Offset>
#     </pH_Sensor>
#   </sensor>
#   <sensor Channel="7" >
#     <!-- A/D voltage 3, Oxidation Reduction Potential -->
#     <OxidationReductionPotentialSensor SensorID="41" >
#       <SerialNumber>0363</SerialNumber>
#       <CalibrationDate>28-Feb-23</CalibrationDate>
#       <B>2.499480</B>
#       <M>-0.496195</M>
#       <Offset>0.0</Offset>
#     </OxidationReductionPotentialSensor>
#   </sensor>
#   <sensor Channel="8" >
#     <!-- A/D voltage 4, Fluorometer, WET Labs ECO-AFL/FL -->
#     <FluoroWetlabECO_AFL_FL_Sensor SensorID="20" >
#       <SerialNumber>FLNTURT-2496</SerialNumber>
#       <CalibrationDate>02-Sep-2021</CalibrationDate>
#       <ScaleFactor>4.80000000e+001</ScaleFactor>
#       <!-- Dark output -->
#       <Vblank>0.0550</Vblank>
#     </FluoroWetlabECO_AFL_FL_Sensor>
#   </sensor>
#   <sensor Channel="9" >
#     <!-- A/D voltage 5, Turbidity Meter, WET Labs, ECO-NTU -->
#     <TurbidityMeter SensorID="67" >
#       <SerialNumber>FLNTURT--2496</SerialNumber>
#       <CalibrationDate>02-Sep-2021</CalibrationDate>
#       <ScaleFactor>197.000000</ScaleFactor>
#       <!-- Dark output -->
#       <DarkVoltage>0.070000</DarkVoltage>
#     </TurbidityMeter>
#   </sensor>
# </Sensors>
# datcnv_date = Jul 30 2024 13:32:04, 7.26.7.129 [datcnv_vars = 14]
# datcnv_in = C:\R\Reservoirs\Data\DataNotYetUploadedToEDI\Raw_CTD\RawDownloads\07302024_fcr30_S7809004.hex C:\R\Reservoirs\Data\DataNotYetUploadedToEDI\Raw_CTD\RawDownloads\SBE19plusV2_7809_start20230701.xmlcon
# datcnv_skipover = 0
# datcnv_ox_hysteresis_correction = yes
# datcnv_ox_tau_correction = yes
# filter_date = Jul 30 2024 13:33:27, 7.26.7.129
# filter_in = C:\R\Reservoirs\Data\DataNotYetUploadedToEDI\Raw_CTD\RawDownloads\07302024_fcr30_S7809004.cnv
# filter_low_pass_tc_A = 0.030
# filter_low_pass_tc_B = 0.150
# filter_low_pass_A_vars = sbeox0Mg/L prdM prdE tv290C
# filter_low_pass_B_vars = depFM dz/dtM sbeox0PS specc c0uS/cm flECO-AFL ph orp par/sat/log turbWETntu0
# alignctd_date = Jul 30 2024 13:33:59, 7.26.7.129
# alignctd_in = C:\R\Reservoirs\Data\DataNotYetUploadedToEDI\Raw_CTD\RawDownloads\07302024_fcr30_S7809004.cnv
# alignctd_adv = dz/dtM 1.000, sbeox0PS 1.000, specc 1.000, c0uS/cm 1.000, flECO-AFL 1.000, ph 1.000, orp 1.000, turbWETntu0 1.000                                                                                                   
# file_type = ascii
*END*
     -0.638 -4.313e-20     7.9867     93.273      0.869   0.834426    -0.0573      7.201   451.0681 3.8485e+02     4.7124     -0.625     -0.907    23.0714 0.0000e+00
     -0.637 -3.921e-21     7.9885     93.268      0.849   0.815570    -0.0778      7.200   451.7039 3.7129e+02     4.6699     -0.625     -0.906    23.0713 0.0000e+00
     -0.637 -3.565e-22     7.9874     93.273      0.834   0.801387    -0.0858      7.200   452.3687 3.5484e+02     4.6879     -0.625     -0.906    23.0711 0.0000e+00
     -0.637 -3.241e-23     7.9889     93.298      0.822   0.789619    -0.0951      7.201   452.9102 3.4680e+02     4.6222     -0.625     -0.906    23.0710 0.0000e+00
     -0.637 -2.946e-24     7.9905     93.314      0.832   0.799970    -0.1071      7.201   453.1757 3.4800e+02     4.4905     -0.625     -0.906    23.0711 0.0000e+00
     -0.637 -2.678e-25     7.9890     93.316      0.832   0.799855    -0.0900      7.198   453.3415 3.5031e+02     4.4629     -0.626     -0.907    23.0713 0.0000e+00
     -0.637 -2.435e-26     7.9883     93.313      0.820   0.788224    -0.0546      7.195   453.4517 3.4899e+02     4.4931     -0.625     -0.906    23.0712 0.0000e+00
     -0.638 -2.213e-27     7.9926     93.304      0.818   0.786026    -0.0447      7.194   453.6484 3.4588e+02     4.2747     -0.625     -0.907    23.0710 0.0000e+00
     -0.638 -2.010e-28     7.9937     93.293      0.805   0.773273    -0.0622      7.193   454.1711 3.4437e+02     3.8716     -0.626     -0.907    23.0711 0.0000e+00
     -0.638 -1.607e-29     7.9932     93.292      0.791   0.760709    -0.0742      7.192   454.8676 3.4442e+02     3.7189     -0.625     -0.907    23.0712 0.0000e+00
     -0.638 2.2804e-29     7.9937     93.307      0.791   0.760803    -0.0649      7.190   454.3257 3.4613e+02     3.7946     -0.626     -0.907    23.0709 0.0000e+00
     -0.638 2.6898e-28     7.9922     93.317      0.806   0.774403    -0.0581      7.189   454.0722 3.5915e+02     3.8640     -0.626     -0.908    23.0711 0.0000e+00
     -0.638 2.9604e-27     7.9913     93.311      0.831   0.798473    -0.0677      7.184   456.7062 3.8070e+02     3.9090     -0.626     -0.907    23.0712 0.0000e+00
     -0.638 3.2565e-26     7.9905     93.304      0.831   0.798473    -0.0644      7.178   459.2429 3.9112e+02     3.9631     -0.626     -0.907    23.0711 0.0000e+00
     -0.638 3.5822e-25     7.9927     93.305      0.806   0.774394    -0.0429      7.173   460.3079 3.9127e+02     4.0394     -0.626     -0.907    23.0711 0.0000e+00
     -0.638 3.9404e-24     7.9944     93.307      0.791   0.760698    -0.0414      7.167   461.2369 3.9217e+02     3.9776     -0.626     -0.908    23.0710 0.0000e+00
     -0.638 4.3344e-23     7.9927     93.312      0.790   0.759556    -0.0620      7.161   461.9584 3.9444e+02     3.7973     -0.626     -0.907    23.0711 0.0000e+00
     -0.638 4.7678e-22     7.9920     93.308      0.791   0.760587    -0.0678      7.156   462.4058 3.9606e+02     3.7724     -0.626     -0.908    23.0710 0.0000e+00
     -0.638 5.2446e-21     7.9927     93.302      0.804   0.773161    -0.0621      7.152   462.9473 3.9656e+02     3.8131     -0.626     -0.908    23.0708 0.0000e+00
     -0.638 5.7691e-20     7.9922     93.317      0.817   0.784908    -0.0668      7.146   463.1710 3.9637e+02     3.7089     -0.626     -0.908    23.0707 0.0000e+00
     -0.638 6.3460e-19     7.9935     93.332      0.808   0.775946    -0.0667      7.140   463.2170 3.9561e+02     3.4679     -0.626     -0.908    23.0707 0.0000e+00
     -0.638 6.9806e-18     7.9932     93.327      0.824   0.791480    -0.0534      7.133   464.7953 3.9421e+02     3.1884     -0.626     -0.908    23.0706 0.0000e+00
     -0.638 7.6787e-17     7.9907     93.320      0.880   0.846049    -0.0389      7.127   465.6478 3.8166e+02     3.0292     -0.626     -0.908    23.0707 0.0000e+00
     -0.638 8.4465e-16     7.9936     93.312      0.900   0.865678    -0.0413      7.123   463.5448 3.4898e+02     2.9432     -0.626     -0.907    23.0708 0.0000e+00
     -0.638 9.2912e-15     7.9962     93.293      0.872   0.838800    -0.0644      7.121   461.1354 3.1478e+02     2.3872     -0.626     -0.908    23.0706 0.0000e+00
     -0.638 1.0220e-13     7.9940     93.279      0.872   0.837762    -0.0764      7.119   460.0914 2.9178e+02     1.3963     -0.626     -0.907    23.0708 0.0000e+00
     -0.638 1.1242e-12     7.9937     93.283      0.888   0.853125    -0.0713      7.116   464.7736 2.6247e+02     0.8343     -0.625     -0.907    23.0707 0.0000e+00
     -0.638 1.2367e-11     7.9937     93.291      0.868   0.834535    -0.0692      7.113   475.1584 2.2322e+02     0.7509     -0.626     -0.907    23.0705 0.0000e+00
     -0.638 1.3603e-10     7.9914     93.302      0.835   0.803007    -0.0675      7.108   480.8565 1.9984e+02     0.7633     -0.626     -0.907    23.0707 0.0000e+00
     -0.638 1.4964e-09     7.9894     93.319      0.820   0.788626    -0.0592      7.104   479.8950 2.0384e+02     0.7791     -0.625     -0.907    23.0705 0.0000e+00
     -0.638 1.6460e-08     7.9907     93.323      0.819   0.787334    -0.0610      7.102   475.1471 2.1715e+02     0.7366     -0.625     -0.907    23.0703 0.0000e+00
     -0.638 1.8106e-07     7.9914     93.316      0.819   0.787389    -0.0724      7.101   469.3954 2.2575e+02     0.7275     -0.625     -0.907    23.0702 0.0000e+00
     -0.638      0.000     7.9913     93.311      0.821   0.789288    -0.0637      7.098   470.5799 2.2985e+02     0.7722     -0.626     -0.907    23.0700 0.0000e+00
     -0.638      0.000     7.9948     93.318      0.843   0.810285    -0.0470      7.093   479.0578 2.3320e+02     0.7642     -0.626     -0.907    23.0702 0.0000e+00
     -0.638      0.000     7.9944     93.340      1.082   1.041262    -0.0457      7.088   480.2695 2.3373e+02     0.6993     -0.626     -0.907    23.0697 0.0000e+00
     -0.638      0.003     7.9931     93.360      3.585   3.455339     0.0277      7.070   398.3311 2.3219e+02     0.7388     -0.625     -0.907    23.0703 0.0000e+00
     -0.638      0.014     7.9936     93.366     14.305  13.844397     0.9148      7.058   231.8123 2.3059e+02     1.3790     -0.625     -0.907    23.0692 0.0000e+00
     -0.638      0.041     7.9920     93.384     30.697  29.925086     2.5321      7.097   124.1069 2.2701e+02     2.4613     -0.626     -0.908    23.0704 0.0000e+00
     -0.637      0.078     7.9973     93.638     40.483  39.881405     3.4017      7.162   100.4969 2.3293e+02     2.9971     -0.625     -0.907    23.0684 0.0000e+00
     -0.628      0.117     7.9958     94.138     42.557  42.390906     3.4812      7.208    94.3335 2.4751e+02     3.0071     -0.626     -0.908    23.0716 0.0000e+00
     -0.592      0.147     8.0012     94.471     42.812  43.006225     3.6349      7.233    91.5731 2.5778e+02     3.0591     -0.597     -0.867    23.0664 0.0000e+00
     -0.522      0.167     7.9368     94.728     42.788  43.259591     5.2598      7.247    90.3521 2.6475e+02     3.6942     -0.511     -0.741    23.4375 0.0000e+00
     -0.451      0.172     7.8268     95.218     42.686  43.360171     8.2466      7.255    89.8086 2.6616e+02     4.8450     -0.431     -0.625    24.2568 0.0000e+00
     -0.401      0.163     7.8114     95.651     42.530  43.334017     9.8752      7.257    89.3027 2.5698e+02     5.4274     -0.387     -0.563    24.8623 0.0000e+00
     -0.371      0.143     7.7761     95.740     42.324  43.197457    10.0284      7.250    88.7958 2.4603e+02     5.4072     -0.360     -0.523    25.2406 0.0000e+00
     -0.350      0.119     7.7271     95.597     42.139  43.042062    10.2744      7.236    88.0685 2.4373e+02     5.3526     -0.344     -0.499    25.5785 0.0000e+00
     -0.330      0.102     7.7551     95.464     42.076  42.978512    10.7100      7.221    87.9942 2.4463e+02     5.2799     -0.325     -0.472    25.8109 0.0000e+00
     -0.306      0.095     7.7783     95.522     42.062  42.936860    10.9496      7.212    88.4137 2.4028e+02     5.2451     -0.301     -0.437    25.9643 0.0000e+00
     -0.280      0.090     7.7667     95.710     42.018  42.855758    10.9828      7.205    88.2354 2.3114e+02     5.2398     -0.275     -0.399    26.0413 0.0000e+00
     -0.253      0.083     7.7449     95.860     42.012  42.822976    11.0953      7.197    88.1615 2.1855e+02     5.3175     -0.248     -0.360    26.0770 0.0000e+00
     -0.228      0.075     7.7245     95.949     42.056  42.857816    11.3274      7.185    88.8979 2.0316e+02     5.5360     -0.222     -0.321    26.0803 0.0000e+00
     -0.208      0.067     7.7390     96.069     42.087  42.896161    11.4753      7.168    90.1697 1.8853e+02     5.6950     -0.200     -0.291    26.0380 0.0000e+00
     -0.197      0.062     7.7693     96.272     42.144  42.969256    11.4943      7.148    91.2347 1.7814e+02     5.7371     -0.191     -0.277    25.9839 0.0000e+00
     -0.192      0.059     7.7859     96.478     42.264  43.106912    11.4314      7.129    91.8800 1.7065e+02     5.6007     -0.190     -0.276    25.9514 0.0000e+00
     -0.182      0.059     7.7906     96.654     42.370  43.227673    11.3067      7.114    92.4658 1.6688e+02     5.3104     -0.182     -0.265    25.9400 0.0000e+00
     -0.162      0.058     7.7970     97.042     42.419  43.286892    11.2432      7.103    93.0693 1.7087e+02     5.1648     -0.161     -0.233    25.9523 0.0000e+00
     -0.139      0.054     7.8123     97.508     42.439  43.315166    11.2533      7.095    93.4128 1.7540e+02     5.2058     -0.135     -0.197    25.9723 0.0000e+00
     -0.119      0.047     7.8334     97.316     42.429  43.315643    11.2631      7.090    93.5214 1.6700e+02     5.2601     -0.114     -0.163    25.9916 0.0000e+00
     -0.107      0.035     7.8319     96.281     42.391  43.292683    11.2526      7.086    93.8661 1.5074e+02     5.2401     -0.102     -0.147    26.0080 0.0000e+00
     -0.104      0.020     7.8561     94.759     42.375  43.291471    11.2356      7.083    94.3963 1.4255e+02     5.1693     -0.101     -0.147    26.0187 0.0000e+00
     -0.105      0.006     7.9353     92.932     42.373  43.301007    11.2400      7.079    94.6843 1.4259e+02     5.1557     -0.103     -0.149    26.0240 0.0000e+00
     -0.107     -0.002     7.9168     90.907     42.347  43.281057    11.2978      7.078    94.7665 1.4417e+02     5.2117     -0.104     -0.150    26.0365 0.0000e+00
     -0.111     -0.003     7.8117     88.900     42.242  43.177216    11.3850      7.078    94.8744 1.4567e+02     5.2318     -0.108     -0.156    26.0578 0.0000e+00
     -0.116      0.001     7.6857     87.200     42.069  42.997547    11.4208      7.080    95.1283 1.4653e+02     5.1940     -0.115     -0.166    26.0756 0.0000e+00
     -0.116      0.006     7.5325     85.979     41.965  42.885895    11.4065      7.082    95.3412 1.4591e+02     5.1308     -0.117     -0.169    26.0902 0.0000e+00
     -0.111      0.010     7.3624     85.214     41.988  42.906245    11.4117      7.084    95.2977 1.4753e+02     5.1165     -0.111     -0.160    26.0985 0.0000e+00
     -0.103      0.011     7.1880     84.732     42.069  42.989718    11.4999      7.086    95.1192 1.5493e+02     5.1920     -0.101     -0.146    26.1024 0.0000e+00
     -0.096      0.011     7.0468     84.386     42.147  43.070035    11.6402      7.087    94.9896 1.6136e+02     5.2576     -0.093     -0.135    26.0996 0.0000e+00
     -0.094      0.009     6.9493     84.118     42.190  43.115690    11.7097      7.088    95.1070 1.6214e+02     5.2268     -0.090     -0.131    26.0890 0.0000e+00
     -0.095      0.005     6.8942     83.811     42.170  43.097434    11.7164      7.090    95.3334 1.6131e+02     5.1603     -0.093     -0.135    26.0861 0.0000e+00
     -0.098      0.002     6.8606     83.291     42.110  43.039716    11.7966      7.092    95.4034 1.6192e+02     5.2395     -0.096     -0.139    26.0878 0.0000e+00
     -0.099      0.001     6.8308     82.473     42.119  43.052550    11.9471      7.094    95.4382 1.6317e+02     5.4334     -0.098     -0.142    26.0894 0.0000e+00
     -0.098      0.002     6.8133     81.478     42.187  43.125676    12.0296      7.097    95.4962 1.6299e+02     5.5234     -0.096     -0.140    26.0919 0.0000e+00
     -0.097      0.003     6.7937     80.549     42.220  43.162215    12.0276      7.101    95.5026 1.6151e+02     5.4741     -0.094     -0.136    26.0940 0.0000e+00
     -0.095      0.004     6.7551     79.845     42.233  43.176981    11.9401      7.105    95.5153 1.6096e+02     5.3491     -0.093     -0.135    26.0972 0.0000e+00
     -0.093      0.004     6.6843     79.385     42.232  43.177274    11.7947      7.108    95.5636 1.6107e+02     5.2424     -0.091     -0.133    26.1011 0.0000e+00
     -0.093      0.003     6.5937     79.123     42.218  43.165759    11.7266      7.110    95.6567 1.6070e+02     5.2421     -0.091     -0.132    26.1058 0.0000e+00
     -0.092      0.003     6.5145     79.083     42.215  43.164701    11.7242      7.112    95.8663 1.6104e+02     5.2766     -0.090     -0.131    26.1097 0.0000e+00
     -0.092      0.004     6.4561     79.376     42.213  43.164490    11.6741      7.116    96.1190 1.6208e+02     5.2507     -0.090     -0.130    26.1117 0.0000e+00
     -0.092      0.006     6.4223     80.033     42.212  43.163215    11.5785      7.118    96.4760 1.6224e+02     5.2018     -0.091     -0.132    26.1131 0.0000e+00
     -0.092      0.010     6.3997     80.949     42.199  43.149283    11.5343      7.119    96.9129 1.6109e+02     5.1973     -0.091     -0.132    26.1154 0.0000e+00
     -0.089      0.012     6.3918     81.984     42.176  43.122979    11.5473      7.120    97.0992 1.5922e+02     5.2318     -0.088     -0.128    26.1182 0.0000e+00
     -0.084      0.012     6.4133     83.002     42.155  43.099058    11.5857      7.123    97.1800 1.5749e+02     5.2763     -0.082     -0.119    26.1209 0.0000e+00
     -0.077      0.012     6.4709     83.921     42.169  43.113933    11.6409      7.125    97.3735 1.5652e+02     5.2573     -0.074     -0.108    26.1219 0.0000e+00
     -0.072      0.011     6.5491     84.723     42.228  43.175894    11.6651      7.127    97.5460 1.5584e+02     5.1743     -0.070     -0.102    26.1202 0.0000e+00
     -0.072      0.008     6.6370     85.313     42.265  43.213507    11.6622      7.128    97.6313 1.5495e+02     5.1608     -0.070     -0.101    26.1163 0.0000e+00
     -0.072      0.005     6.7237     85.528     42.242  43.187879    11.6557      7.128    97.7160 1.5397e+02     5.1955     -0.071     -0.103    26.1123 0.0000e+00
     -0.072      0.000     6.7957     85.263     42.180  43.119914    11.6113      7.127    98.0540 1.5291e+02     5.2180     -0.071     -0.104    26.1130 0.0000e+00
     -0.070     -0.004     6.8641     84.608     42.156  43.089930    11.5328      7.124    98.6207 1.5286e+02     5.2278     -0.069     -0.100    26.1167 0.0000e+00
     -0.069     -0.007     6.9168     83.857     42.210  43.142685    11.4811      7.121    99.0611 1.5441e+02     5.1783     -0.066     -0.096    26.1174 0.0000e+00
     -0.073     -0.008     6.9387     83.267     42.252  43.186520    11.4776      7.120    99.2495 1.5619e+02     5.1657     -0.069     -0.100    26.1151 0.0000e+00
     -0.080     -0.009     6.9163     82.889     42.242  43.175645    11.4825      7.121    99.2634 1.5648e+02     5.2454     -0.079     -0.115    26.1078 0.0000e+00
     -0.085     -0.011     6.8533     82.597     42.207  43.138141    11.4650      7.124    99.1438 1.5559e+02     5.2882     -0.085     -0.124    26.0990 0.0000e+00
     -0.085     -0.011     6.7846     82.275     42.184  43.113896    11.4415      7.126    99.0933 1.5567e+02     5.2398     -0.084     -0.122    26.0974 0.0000e+00
     -0.085     -0.008     6.7350     81.979     42.204  43.136384    11.4230      7.128    99.1694 1.5674e+02     5.1720     -0.082     -0.119    26.0996 0.0000e+00
     -0.087     -0.003     6.7098     81.879     42.222  43.156151    11.4486      7.128    99.2039 1.5752e+02     5.1861     -0.084     -0.122    26.0995 0.0000e+00
     -0.092      0.003     6.6908     82.021     42.167  43.099006    11.5177      7.129    99.4244 1.5757e+02     5.2733     -0.090     -0.130    26.0972 0.0000e+00
     -0.094      0.008     6.6634     82.220     42.030  42.953221    11.5522      7.131    99.8551 1.5610e+02     5.3048     -0.094     -0.137    26.0956 0.0000e+00
     -0.092      0.013     6.6318     82.246     41.941  42.853314    11.5485      7.132   100.1957 1.5280e+02     5.2247     -0.092     -0.135    26.0975 0.0000e+00
     -0.082      0.016     6.6211     82.034     41.997  42.906568    11.5893      7.131   100.4452 1.5000e+02     5.1250     -0.081     -0.118    26.1005 0.0000e+00
     -0.071      0.016     6.6398     81.729     42.113  43.025864    11.6960      7.131   100.5494 1.4921e+02     5.1245     -0.067     -0.098    26.1014 0.0000e+00
     -0.065      0.014     6.6648     81.586     42.174  43.089759    11.7737      7.132   100.5949 1.4895e+02     5.2175     -0.060     -0.088    26.0938 0.0000e+00
     -0.065      0.009     6.6707     81.713     42.131  43.044396    11.7876      7.134   100.7373 1.4860e+02     5.2937     -0.063     -0.091    26.0794 0.0000e+00
     -0.069      0.001     6.6491     81.891     42.080  42.985164    11.7648      7.135   100.9804 1.4808e+02     5.2604     -0.068     -0.100    26.0743 0.0000e+00
     -0.069     -0.005     6.6158     81.836     42.108  43.008297    11.7147      7.137   101.4697 1.4801e+02     5.1554     -0.069     -0.100    26.0768 0.0000e+00
     -0.068     -0.008     6.5971     81.491     42.168  43.070202    11.6807      7.140   102.0068 1.4992e+02     5.1172     -0.065     -0.094    26.0811 0.0000e+00
     -0.070     -0.007     6.6176     81.042     42.192  43.098929    11.6865      7.143   102.1402 1.5211e+02     5.1751     -0.066     -0.096    26.0800 0.0000e+00
     -0.076     -0.005     6.6437     80.727     42.132  43.038289    11.7021      7.146   101.8785 1.5317e+02     5.2056     -0.076     -0.110    26.0682 0.0000e+00
     -0.081     -0.003     6.6412     80.507     42.010  42.908253    11.7192      7.150   101.5965 1.5304e+02     5.1456     -0.082     -0.119    26.0587 0.0000e+00
     -0.080     -0.002     6.6078     80.159     41.909  42.796092    11.7516      7.155   101.4835 1.5144e+02     5.0985     -0.080     -0.116    26.0609 0.0000e+00
     -0.076      0.000     6.5587     79.571     41.882  42.761149    11.7768      7.160   101.5436 1.5072e+02     5.1136     -0.074     -0.108    26.0698 0.0000e+00
     -0.073      0.002     6.5359     78.801     41.926  42.803102    11.7830      7.164   101.6356 1.5190e+02     5.1578     -0.069     -0.101    26.0739 0.0000e+00
     -0.073      0.002     6.5280     77.973     41.982  42.859045    11.7860      7.168   101.6486 1.5343e+02     5.2233     -0.070     -0.103    26.0653 0.0000e+00
     -0.076      0.001     6.5048     77.181     41.991  42.866309    11.7876      7.171   101.6150 1.5441e+02     5.2224     -0.074     -0.108    26.0497 0.0000e+00
     -0.077      0.001     6.4558     76.499     41.955  42.827461    11.7774      7.176   101.4880 1.5491e+02     5.1466     -0.077     -0.112    26.0412 0.0000e+00
     -0.077      0.002     6.3886     75.960     41.902  42.770156    11.7626      7.181   101.3175 1.5469e+02     5.1265     -0.077     -0.111    26.0399 0.0000e+00
     -0.075      0.004     6.3204     75.595     41.819  42.681199    11.8002      7.186   101.2744 1.5363e+02     5.1842     -0.073     -0.107    26.0384 0.0000e+00
     -0.072      0.005     6.2533     75.419     41.722  42.577002    11.8826      7.191   101.4829 1.5261e+02     5.2297     -0.071     -0.103    26.0359 0.0000e+00
     -0.070      0.004     6.1981     75.353     41.676  42.525829    11.9175      7.194   101.7726 1.5218e+02     5.1978     -0.069     -0.098    26.0333 0.0000e+00
     -0.068      0.003     6.1544     75.314     41.660  42.506763    11.9056      7.196   101.8522 1.5252e+02     5.1410     -0.066     -0.096    26.0297 0.0000e+00
     -0.068      0.001     6.1228     75.240     41.630  42.473410    11.8557      7.198   101.8440 1.5337e+02     5.1230     -0.065     -0.095    26.0243 0.0000e+00
     -0.069      0.000     6.1137     75.080     41.600  42.439908    11.7806      7.200   101.9308 1.5403e+02     5.1517     -0.066     -0.097    26.0181 0.0000e+00
     -0.070      0.000     6.1106     74.852     41.585  42.419028    11.7547      7.203   102.0418 1.5418e+02     5.2145     -0.070     -0.102    26.0132 0.0000e+00
     -0.071      0.000     6.1090     74.598     41.582  42.411353    11.7676      7.206   102.1533 1.5399e+02     5.2330     -0.071     -0.103    26.0105 0.0000e+00
     -0.070      0.001     6.1061     74.312     41.586  42.410574    11.8030      7.210   102.2467 1.5371e+02     5.2044     -0.069     -0.100    26.0080 0.0000e+00
     -0.069      0.002     6.0921     73.965     41.590  42.409607    11.8669      7.212   102.3108 1.5366e+02     5.2099     -0.068     -0.099    26.0030 0.0000e+00
     -0.068      0.003     6.0728     73.572     41.585  42.399649    11.9158      7.215   102.4120 1.5351e+02     5.2314     -0.068     -0.099    25.9967 0.0000e+00
     -0.067      0.003     6.0529     73.152     41.545  42.353640    11.9361      7.218   102.5234 1.5252e+02     5.2603     -0.066     -0.097    25.9906 0.0000e+00
     -0.067      0.003     6.0328     72.752     41.494  42.297592    11.9288      7.220   102.6257 1.5128e+02     5.2509     -0.065     -0.095    25.9846 0.0000e+00
     -0.066      0.003     6.0031     72.389     41.491  42.293187    11.8945      7.222   102.7018 1.5038e+02     5.1867     -0.065     -0.094    25.9791 0.0000e+00
     -0.065      0.004     5.9722     71.943     41.560  42.363851    11.8712      7.222   102.5833 1.4941e+02     5.2014     -0.064     -0.093    25.9736 0.0000e+00
     -0.064      0.010     5.9375     71.427     41.715  42.517289    11.8720      7.217   102.3115 1.4926e+02     5.2582     -0.062     -0.091    25.9674 0.0000e+00
     -0.065      0.023     5.9026     71.153     41.892  42.688579    11.8705      7.209   102.0831 1.5096e+02     5.2580     -0.063     -0.091    25.9604 0.0000e+00
     -0.066      0.041     5.8801     71.372     41.990  42.784670    11.8289      7.203   102.0586 1.5187e+02     5.2331     -0.068     -0.098    25.9588 0.0000e+00
     -0.059      0.060     5.8458     72.011     41.926  42.727050    11.7509      7.200   102.2740 1.4488e+02     5.1963     -0.065     -0.095    25.9625 0.0000e+00
     -0.037      0.076     5.7910     72.957     41.753  42.563154    11.7105      7.200   102.4490 1.3072e+02     5.1888     -0.039     -0.056    25.9601 0.0000e+00
     -0.004      0.086     5.7605     74.245     41.633  42.453268    11.7145      7.201   102.6268 1.1810e+02     5.2106     -0.004     -0.006    25.9423 0.0000e+00
      0.029      0.090     5.7855     75.830     41.583  42.413963    11.7325      7.202   103.3914 1.0878e+02     5.2208      0.030      0.044    25.9317 0.0000e+00
      0.056      0.088     5.8406     77.459     41.567  42.405283    11.7620      7.202   104.4662 1.0343e+02     5.2101      0.061      0.088    25.9491 0.0000e+00
      0.073      0.082     5.9117     78.833     41.570  42.411801    11.7712      7.204   104.7811 1.0110e+02     5.1502      0.074      0.108    25.9658 0.0000e+00
      0.085      0.076     6.0145     79.777     41.585  42.429305    11.7688      7.208   104.7032 9.7951e+01     5.1453      0.081      0.118    25.9780 0.0000e+00
      0.100      0.073     6.1509     80.327     41.644  42.489981    11.8163      7.213   104.9011 9.1987e+01     5.2188      0.096      0.139    25.9962 0.0000e+00
      0.121      0.075     6.2907     80.620     41.727  42.574206    11.8966      7.218   104.9375 8.2610e+01     5.2533      0.118      0.172    26.0050 0.0000e+00
      0.142      0.081     6.4084     80.740     41.712  42.559075    11.9232      7.222   104.7990 7.2183e+01     5.2213      0.140      0.204    26.0073 0.0000e+00
      0.162      0.085     6.4821     80.726     41.589  42.433971    11.9136      7.227   104.6890 6.3274e+01     5.1730      0.158      0.227    26.0102 0.0000e+00
      0.184      0.084     6.5213     80.544     41.488  42.330982    12.0051      7.232   104.5542 5.6824e+01     5.2501      0.177      0.257    26.0101 0.0000e+00
      0.212      0.076     6.5442     80.099     41.428  42.265885    12.1895      7.238   104.4593 5.2338e+01     5.4360      0.207      0.301    26.0077 0.0000e+00
      0.238      0.065     6.5517     79.354     41.408  42.218115    12.2874      7.243   104.4879 4.9157e+01     5.5422      0.237      0.344    26.0085 0.0000e+00
      0.254      0.051     6.5519     78.409     41.444  42.197644    12.2812      7.245   104.6426 4.6882e+01     5.5095      0.253      0.367    26.0095 0.0000e+00
      0.261      0.037     6.5400     77.353     41.524  42.208687    12.2554      7.245   104.9531 4.5452e+01     5.4164      0.257      0.372    26.0097 0.0000e+00
      0.262      0.029     6.5064     76.279     41.665  42.288061    12.1419      7.245   105.5737 4.4904e+01     5.3383      0.257      0.373    26.0174 0.0000e+00
      0.263      0.032     6.4433     75.465     41.813  42.395621    11.9331      7.245   106.3824 4.5069e+01     5.2827      0.257      0.373    25.9897 0.0000e+00
      0.265      0.044     6.3743     75.294     41.859  42.430142    11.8111      7.246   106.9012 4.5955e+01     5.2562      0.260      0.377    25.9073 0.0000e+00
      0.271      0.059     6.2982     75.801     41.809  42.388086    11.8318      7.248   107.2011 4.7805e+01     5.2569      0.261      0.379    25.8171 0.0000e+00
      0.291      0.073     6.2125     76.595     41.738  42.331420    12.0593      7.253   107.6852 4.9462e+01     5.2912      0.276      0.401    25.7313 0.0000e+00
      0.325      0.083     6.1376     77.449     41.708  42.316246    12.4386      7.258   108.1944 4.9492e+01     5.3977      0.320      0.465    25.6760 0.0000e+00
      0.358      0.088     6.1203     78.454     41.712  42.331585    12.6394      7.262   108.5399 4.8372e+01     5.5200      0.356      0.517    25.6680 0.0000e+00
      0.379      0.090     6.1798     79.674     41.697  42.326480    12.6648      7.266   108.7648 4.6930e+01     5.5400      0.374      0.542    25.6836 0.0000e+00
      0.395      0.086     6.2480     80.913     41.682  42.318006    12.7289      7.270   108.8488 4.5672e+01     5.4004      0.387      0.561    25.7070 0.0000e+00
      0.411      0.081     6.3093     81.818     41.653  42.292616    12.8317      7.274   108.9530 4.4457e+01     5.1986      0.400      0.581    25.7254 0.0000e+00
      0.432      0.077     6.3868     82.190     41.570  42.209892    12.8925      7.278   109.2503 4.3300e+01     5.1496      0.422      0.613    25.7370 0.0000e+00
      0.456      0.075     6.4904     82.066     41.501  42.142898    12.9067      7.280   109.5179 4.2646e+01     5.2181      0.449      0.650    25.7497 0.0000e+00
      0.478      0.072     6.6040     81.556     41.474  42.117295    12.9790      7.282   109.6070 4.2438e+01     5.2409      0.469      0.680    25.7600 0.0000e+00
      0.497      0.069     6.6829     80.763     41.449  42.090745    13.1257      7.284   109.7256 4.2455e+01     5.2204      0.489      0.710    25.7623 0.0000e+00
      0.512      0.066     6.7104     79.814     41.438  42.075751    13.2067      7.286   110.0057 4.2741e+01     5.1752      0.505      0.731    25.7628 0.0000e+00
      0.523      0.063     6.6962     78.825     41.430  42.062935    13.2252      7.288   110.4121 4.3153e+01     5.1725      0.512      0.741    25.7662 0.0000e+00
      0.536      0.062     6.6522     77.870     41.433  42.062715    13.2672      7.290   110.7676 4.3298e+01     5.2906      0.524      0.760    25.7706 0.0000e+00
      0.554      0.062     6.5835     77.011     41.447  42.073080    13.3236      7.291   110.9490 4.3032e+01     5.4412      0.543      0.788    25.7689 0.0000e+00
      0.574      0.064     6.5033     76.289     41.440  42.061320    13.3571      7.292   111.1425 4.2527e+01     5.4569      0.565      0.820    25.7621 0.0000e+00
      0.591      0.065     6.4218     75.707     41.431  42.047464    13.3723      7.295   111.4723 4.2068e+01     5.3771      0.581      0.843    25.7570 0.0000e+00
      0.605      0.064     6.3427     75.218     41.420  42.032473    13.5411      7.297   111.7530 4.1518e+01     5.3307      0.591      0.858    25.7539 0.0000e+00
      0.622      0.059     6.2715     74.708     41.400  42.006995    13.8576      7.300   111.8697 4.0785e+01     5.3059      0.609      0.883    25.7491 0.0000e+00
      0.641      0.054     6.2138     74.084     41.393  41.993274    14.0286      7.304   111.9369 4.0064e+01     5.3164      0.630      0.913    25.7430 0.0000e+00
      0.656      0.051     6.1673     73.395     41.400  41.993504    14.0439      7.306   112.0489 3.9510e+01     5.3200      0.644      0.935    25.7380 0.0000e+00
      0.666      0.051     6.1320     72.741     41.423  42.009769    14.0353      7.307   112.2782 3.9177e+01     5.2470      0.654      0.949    25.7332 0.0000e+00
      0.673      0.053     6.0955     72.160     41.482  42.062979    14.0068      7.308   112.6440 3.9000e+01     5.2541      0.659      0.957    25.7275 0.0000e+00
      0.681      0.058     6.0427     71.708     41.800  42.382971    13.9822      7.308   113.0305 3.8858e+01     5.4064      0.665      0.965    25.7199 0.0000e+00
      0.696      0.064     5.9834     71.765     42.410  43.022605    13.9791      7.308   113.3365 3.8627e+01     5.5172      0.680      0.987    25.7108 0.0000e+00
      0.718      0.069     5.9309     73.461     42.822  43.513168    13.9939      7.309   113.5048 3.8212e+01     5.5342      0.702      1.018    25.7007 0.0000e+00
      0.743      0.073     5.8848     78.153     42.877  43.681022    14.0779      7.311   113.6034 3.7746e+01     5.5093      0.730      1.059    25.6935 0.0000e+00
      0.765      0.073     5.8411     85.627     42.820  43.719349    14.2289      7.313   113.7540 3.7449e+01     5.4898      0.753      1.093    25.6874 0.0000e+00
      0.781      0.070     5.8163     94.035     42.767  43.722824    14.3144      7.314   113.8626 3.7205e+01     5.5036      0.767      1.112    25.6884 0.0000e+00
      0.796      0.064     5.8830    101.604     42.738  43.723136    14.3291      7.316   113.9702 3.6856e+01     5.5055      0.781      1.131    25.7771 0.0000e+00
      0.811      0.059     6.2523    107.412     42.725  43.723162    14.4893      7.319   114.1949 3.6365e+01     5.4782      0.795      1.152    25.9440 0.0000e+00
      0.827      0.056     6.9181    111.335     42.719  43.723154    14.7866      7.321   114.5143 3.5858e+01     5.4124      0.813      1.179    26.0628 0.0000e+00
      0.841      0.053     7.6395    113.511     42.716  43.723049    14.9359      7.324   114.9072 3.5457e+01     5.3937      0.827      1.199    26.1220 0.0000e+00
      0.853      0.049     8.2765    114.061     42.713  43.721894    14.9459      7.326   115.1595 3.5074e+01     5.4232      0.835      1.211    26.1528 0.0000e+00
      0.866      0.046     8.7408    113.301     42.700  43.709199    15.0655      7.328   115.1559 3.4690e+01     5.3589      0.849      1.231    26.1634 0.0000e+00
      0.879      0.045     9.0515    111.860     42.689  43.696504    15.2923      7.330   115.1216 3.4380e+01     5.2319      0.863      1.253    26.1698 0.0000e+00
      0.888      0.046     9.2266    110.423     42.689  43.695341    15.4069      7.332   115.1748 3.4195e+01     5.1514      0.871      1.265    26.1734 0.0000e+00
      0.895      0.048     9.2625    109.327     42.689  43.695131    15.4034      7.334   115.2830 3.3993e+01     5.1701      0.875      1.270    26.1751 0.0000e+00
      0.906      0.051     9.1827    108.594     42.689  43.693968    15.4405      7.335   115.4838 3.3631e+01     5.2536      0.886      1.285    26.1752 0.0000e+00
      0.923      0.054     9.0411    108.107     42.677  43.681274    15.5400      7.335   115.7097 3.3265e+01     5.3067      0.907      1.316    26.1745 0.0000e+00
      0.939      0.058     8.9187    107.758     42.666  43.668589    15.6068      7.337   115.8633 3.2981e+01     5.2652      0.923      1.338    26.1734 0.0000e+00
      0.954      0.058     8.8302    107.534     42.667  43.667549    15.6076      7.339   115.9646 3.2682e+01     5.1622      0.934      1.353    26.1712 0.0000e+00
      0.970      0.055     8.7753    107.406     42.670  43.668694    15.5821      7.341   116.0741 3.2342e+01     5.1205      0.951      1.379    26.1698 0.0000e+00
      0.986      0.050     8.7405    107.291     42.685  43.682428    15.4653      7.343   116.2409 3.2027e+01     5.1708      0.969      1.405    26.1698 0.0000e+00
      0.999      0.046     8.7105    107.148     42.709  43.706651    15.2778      7.345   116.4317 3.1833e+01     5.2231      0.982      1.425    26.1697 0.0000e+00
      1.007      0.044     8.6936    106.980     42.710  43.707683    15.1962      7.346   116.5745 3.1694e+01     5.2408      0.989      1.434    26.1666 0.0000e+00
      1.014      0.045     8.6876    106.761     42.699  43.694903    15.2281      7.347   116.7632 3.1463e+01     5.2142      0.993      1.439    26.1620 0.0000e+00
      1.024      0.049     8.6795    106.471     42.688  43.679080    15.6134      7.349   117.0784 3.1156e+01     5.2084      1.003      1.455    26.1616 0.0000e+00
      1.035      0.056     8.6664    106.167     42.662  43.643307    16.3340      7.352   117.3736 3.0820e+01     5.3075      1.015      1.471    26.1627 0.0000e+00
      1.050      0.064     8.6545    105.945     42.669  43.643196    16.7331      7.354   117.5796 3.0421e+01     5.4221      1.028      1.491    26.1622 0.0000e+00
      1.070      0.070     8.6380    105.807     42.707  43.677724    16.7766      7.355   117.6761 2.9953e+01     5.5010      1.050      1.522    26.1612 0.0000e+00
      1.093      0.072     8.6137    105.665     42.711  43.679939    16.8183      7.356   117.6801 2.9418e+01     5.5092      1.072      1.554    26.1563 0.0000e+00
      1.114      0.069     8.5865    105.440     42.704  43.669972    16.8872      7.358   117.7145 2.8915e+01     5.4189      1.095      1.587    26.1442 0.0000e+00
      1.133      0.064     8.5704    105.084     42.721  43.684154    16.9189      7.360   117.7475 2.8548e+01     5.3325      1.113      1.615    26.1335 0.0000e+00
      1.148      0.057     8.5639    104.575     42.765  43.724463    16.9360      7.362   117.7354 2.8252e+01     5.3528      1.127      1.634    26.1299 0.0000e+00
      1.160      0.051     8.5537    103.863     42.824  43.776502    17.0610      7.365   117.7398 2.8024e+01     5.4584      1.139      1.652    26.1277 0.0000e+00
      1.169      0.049     8.5389    102.929     42.868  43.805546    17.2557      7.367   117.8017 2.7843e+01     5.5514      1.148      1.664    26.1252 0.0000e+00
      1.179      0.049     8.5087    101.699     42.905  43.821707    17.3510      7.369   117.9671 2.7611e+01     5.5883      1.155      1.675    26.1217 0.0000e+00
      1.190      0.052     8.4718     99.949     42.951  43.844917    17.4314      7.371   118.1901 2.7320e+01     5.5975      1.166      1.690    26.1173 0.0000e+00
      1.205      0.057     8.4152     97.644     42.961  43.832248    18.2779      7.373   118.5198 2.6937e+01     5.6966      1.181      1.712    26.1102 0.0000e+00
      1.222      0.061     8.3411     95.025     42.943  43.795437    19.8208      7.374   118.9416 2.6479e+01     5.8299      1.198      1.739    26.0912 0.0000e+00
      1.240      0.061     8.2581     92.386     42.945  43.780655    20.6552      7.375   119.2467 2.6089e+01     5.8436      1.217      1.766    26.0635 0.0000e+00
      1.257      0.058     8.1204     89.921     42.961  43.780449    20.7169      7.376   119.4562 2.5697e+01     5.8273      1.232      1.787    26.0334 0.0000e+00
      1.274      0.053     7.9298     87.846     42.985  43.792918    20.7087      7.377   119.5817 2.5296e+01     5.8375      1.250      1.813    26.0054 0.0000e+00
      1.289      0.049     7.7090     86.295     43.007  43.804448    20.6473      7.378   119.6450 2.5098e+01     5.8309      1.267      1.837    25.9864 0.0000e+00
      1.297      0.047     7.4950     85.225     43.012  43.792900    20.5409      7.381   119.8765 2.5031e+01     5.8157      1.273      1.846    25.9680 0.0000e+00
      1.303      0.048     7.2913     84.540     43.018  43.780208    20.4706      7.383   120.2303 2.4878e+01     5.7560      1.275      1.850    25.9437 0.0000e+00
      1.312      0.050     7.1169     83.915     43.032  43.777912    20.3971      7.385   120.3958 2.4614e+01     5.6564      1.285      1.864    25.9316 0.0000e+00
      1.327      0.054     6.9993     83.116     43.023  43.765115    19.9181      7.385   120.5000 2.4223e+01     5.6011      1.300      1.886    25.9238 0.0000e+00
      1.346      0.058     6.9107     82.324     42.998  43.752417    19.0746      7.385   120.8030 2.3710e+01     5.6342      1.320      1.914    25.9035 0.0000e+00
      1.364      0.060     6.8719     81.756     42.976  43.751354    18.6206      7.385   121.1331 2.3327e+01     5.7146      1.341      1.944    25.8788 0.0000e+00
      1.379      0.058     6.8359     81.595     42.959  43.752296    18.5731      7.385   121.3937 2.3076e+01     5.7196      1.352      1.962    25.8542 0.0000e+00
      1.393      0.053     6.7594     82.117     42.965  43.763836    18.5180      7.386   121.5447 2.2757e+01     5.5917      1.365      1.979    25.8482 0.0000e+00
      1.408      0.048     6.6870     83.310     42.971  43.763941    18.4364      7.388   121.5823 2.2456e+01     5.4326      1.382      2.005    25.8678 0.0000e+00
      1.420      0.043     6.6362     84.781     42.968  43.753556    18.4020      7.389   121.6769 2.2260e+01     5.4007      1.395      2.024    25.8975 0.0000e+00
      1.429      0.039     6.6062     86.172     42.981  43.765202    18.4103      7.389   121.7418 2.2123e+01     5.4799      1.402      2.034    25.9230 0.0000e+00
      1.434      0.036     6.6470     87.289     42.991  43.777801    18.3872      7.390   121.6779 2.1958e+01     5.5018      1.407      2.039    25.9290 0.0000e+00
      1.443      0.034     6.7629     88.089     42.992  43.778937    18.3391      7.390   121.6785 2.1707e+01     5.4267      1.414      2.050    25.9171 0.0000e+00
      1.453      0.032     6.8923     88.588     42.997  43.778938    18.3200      7.391   121.8363 2.1457e+01     5.3578      1.427      2.069    25.9039 0.0000e+00
      1.463      0.031     7.0118     88.734     43.005  43.777805    18.3144      7.393   121.9512 2.1302e+01     5.3862      1.436      2.082    25.9041 0.0000e+00
      1.471      0.028     7.1020     88.529     43.001  43.765227    18.1714      7.394   122.0346 2.1163e+01     5.4620      1.442      2.091    25.9112 0.0000e+00
      1.479      0.025     7.1644     88.105     42.995  43.753802    17.8893      7.394   122.2421 2.1010e+01     5.4549      1.450      2.104    25.9111 0.0000e+00
      1.485      0.023     7.2098     87.609     43.008  43.766602    17.7165      7.395   122.3961 2.0930e+01     5.3684      1.456      2.113    25.9033 0.0000e+00
      1.488      0.023     7.2235     87.117     43.036  43.793042    17.6802      7.396   122.4334 2.0886e+01     5.3047      1.459      2.116    25.8932 0.0000e+00
      1.492      0.024     7.2032     86.645     43.072  43.819589    17.5998      7.396   122.5214 2.0805e+01     5.3338      1.461      2.120    25.8804 0.0000e+00
      1.497      0.027     7.1653     86.095     43.107  43.833663    17.4524      7.396   122.6859 2.0677e+01     5.4474      1.467      2.128    25.8716 0.0000e+00
      1.506      0.030     7.1229     85.180     43.132  43.836231    17.3625      7.397   122.8732 2.0511e+01     5.5162      1.476      2.142    25.8754 0.0000e+00
      1.515      0.034     7.0814     83.526     43.173  43.850602    17.3454      7.398   123.1507 2.0356e+01     5.4832      1.486      2.155    25.8779 0.0000e+00
      1.524      0.038     7.0470     81.091     43.237  43.880435    17.3539      7.399   123.4604 2.0228e+01     5.4236      1.495      2.168    25.8660 0.0000e+00
      1.533      0.042     7.0135     78.238     43.329  43.942986    17.5073      7.399   123.6924 2.0063e+01     5.4104      1.502      2.179    25.8365 0.0000e+00
      1.544      0.043     6.9573     75.258     43.448  44.035582    17.7848      7.398   123.8911 1.9847e+01     5.4594      1.514      2.196    25.8103 0.0000e+00
      1.556      0.043     6.8297     72.349     43.553  44.111319    17.9287      7.397   124.0556 1.9631e+01     5.4700      1.527      2.214    25.7850 0.0000e+00
      1.569      0.042     6.6185     69.576     43.628  44.160454    17.9245      7.396   124.2194 1.9381e+01     5.4015      1.539      2.232    25.7342 0.0000e+00
      1.582      0.040     6.3853     66.698     43.669  44.185294    17.8422      7.396   124.4948 1.9153e+01     5.3492      1.554      2.252    25.6987 0.0000e+00
      1.592      0.040     6.1402     63.607     43.713  44.221211    17.7152      7.395   124.9763 1.9033e+01     5.3844      1.562      2.264    25.6743 0.0000e+00
      1.599      0.040     5.8992     60.502     43.774  44.277332    17.6630      7.393   125.6527 1.8917e+01     5.4512      1.567      2.273    25.6323 0.0000e+00
      1.605      0.041     5.6911     57.625     43.795  44.292568    17.6599      7.391   126.3917 1.8761e+01     5.4401      1.575      2.283    25.6004 0.0000e+00
      1.614      0.041     5.4611     55.017     43.780  44.278459    17.7529      7.390   127.1149 1.8509e+01     5.4209      1.581      2.292    25.5792 0.0000e+00
      1.629      0.041     5.2001     52.483     43.800  44.297173    17.9643      7.390   127.8584 1.8176e+01     5.4914      1.597      2.315    25.5758 0.0000e+00
      1.645      0.041     4.9392     49.995     43.849  44.328409    18.0937      7.390   128.4124 1.7940e+01     5.6089      1.614      2.343    25.5709 0.0000e+00
      1.656      0.042     4.7014     47.878     43.889  44.338733    18.0851      7.390   128.8222 1.7855e+01     5.7144      1.625      2.357    25.5568 0.0000e+00
      1.662      0.043     4.4985     46.393     43.949  44.358480    17.7018      7.389   129.2854 1.7803e+01     5.7774      1.630      2.364    25.5639 0.0000e+00
      1.668      0.043     4.2933     45.393     44.024  44.376672    16.9794      7.389   129.9695 1.7690e+01     5.7552      1.635      2.372    25.5702 0.0000e+00
      1.678      0.044     4.0785     44.505     44.082  44.368176    16.5674      7.389   130.9849 1.7459e+01     5.6847      1.645      2.384    25.5483 0.0000e+00
      1.693      0.049     3.8962     43.202     44.088  44.319135    16.4904      7.387   131.7539 1.7120e+01     5.6767      1.660      2.407    25.5059 0.0000e+00
      1.709      0.055     3.7866     41.015     44.047  44.227967    16.1150      7.386   132.2982 1.6889e+01     5.6583      1.679      2.436    25.4685 0.0000e+00
      1.721      0.060     3.7181     37.991     44.033  44.154450    15.4084      7.386   132.9207 1.6745e+01     5.5648      1.687      2.448    25.4025 0.0000e+00
      1.733      0.064     3.6665     34.464     44.078  44.128386    14.9964      7.386   133.5151 1.6448e+01     5.4691      1.695      2.459    25.3080 0.0000e+00
      1.752      0.066     3.5842     30.533     44.126  44.103156    14.9369      7.385   134.3228 1.6072e+01     5.3894      1.719      2.494    25.2532 0.0000e+00
      1.772      0.067     3.4014     26.089     44.125  44.039713    14.9140      7.383   135.1153 1.5742e+01     5.3523      1.739      2.523    25.2064 0.0000e+00
      1.791      0.068     3.1432     21.276     44.139  43.995959    14.7520      7.382   135.6110 1.5432e+01     5.3964      1.754      2.545    25.1344 0.0000e+00
      1.809      0.066     2.8526     16.521     44.227  44.018368    14.4607      7.382   136.0143 1.5151e+01     5.4787      1.775      2.573    25.0540 0.0000e+00
      1.826      0.062     2.5432     12.366     44.324  44.056658    14.2961      7.382   136.3777 1.4866e+01     5.4934      1.790      2.596    24.9598 0.0000e+00
      1.841      0.058     2.1720      9.228     44.387  44.077985    14.2605      7.381   136.6500 1.4597e+01     5.4378      1.807      2.620    24.8920 0.0000e+00
      1.855      0.055     1.7618      7.083     44.430  44.085750    14.2135      7.381   136.8977 1.4407e+01     5.3868      1.821      2.640    24.8421 0.0000e+00
      1.866      0.053     1.3547      5.721     44.475  44.087019    14.1518      7.381   137.2219 1.4210e+01     5.3551      1.828      2.653    24.7544 0.0000e+00
      1.879      0.052     0.9925      4.937     44.533  44.093254    14.1302      7.381   137.5581 1.3985e+01     5.3276      1.842      2.672    24.6807 0.0000e+00
      1.893      0.053     0.7391      4.540     44.580  44.097585    14.2275      7.381   137.8643 1.3791e+01     5.2587      1.857      2.693    24.6453 0.0000e+00
      1.905      0.056     0.5669      4.385     44.611  44.075856    15.2783      7.381   138.3437 1.3586e+01     5.2056      1.868      2.709    24.6119 0.0000e+00
      1.919      0.062     0.4597      4.384     44.659  44.020884    17.2049      7.380   139.1385 1.3333e+01     5.3003      1.880      2.727    24.5662 0.0000e+00
      1.935      0.074     0.4013      4.459     44.726  43.940570    18.2626      7.379   139.9021 1.3063e+01     5.4816      1.896      2.751    24.4914 0.0000e+00
      1.952      0.089     0.3718      4.419     44.836  43.866269    18.4375      7.375   140.5218 1.2822e+01     5.5527      1.915      2.779    24.4518 0.0000e+00
      1.970      0.101     0.3629      4.155     45.000  43.820470    19.3607      7.373   141.1251 1.2507e+01     5.4770      1.929      2.797    24.4242 0.0000e+00
      1.998      0.107     0.3624      3.764     45.123  43.767361    21.0351      7.373   141.6039 1.1904e+01     5.3869      1.950      2.829    24.2933 0.0000e+00
      2.042      0.106     0.3788      3.351     45.216  43.731674    21.9451      7.373   142.0089 1.1243e+01     5.3850      2.006      2.910    24.1273 0.0000e+00
      2.081      0.097     0.3815      2.963     45.356  43.769649    22.0321      7.372   142.4084 1.0911e+01     5.4539      2.051      2.974    23.9340 0.0000e+00
      2.103      0.082     0.3545      2.610     45.471  43.845531    21.9622      7.371   142.7347 1.0730e+01     5.3668      2.063      2.991    23.6631 0.0000e+00
      2.117      0.061     0.3205      2.305     45.454  43.887406    21.7908      7.370   143.0288 1.0558e+01     5.0824      2.078      3.013    23.4657 0.0000e+00
      2.127      0.040     0.2845      2.106     45.344  43.895196    21.6824      7.370   143.3829 1.0516e+01     4.9196      2.090      3.030    23.3539 0.0000e+00
      2.131      0.025     0.2519      2.070     45.275  43.939901    21.6496      7.369   143.6599 1.0532e+01     4.9697      2.090      3.031    23.2212 0.0000e+00
      2.131      0.018     0.2225      2.241     45.235  43.983765    21.6201      7.369   143.7971 1.0520e+01     5.0383      2.091      3.032    23.1611 0.0000e+00
      2.133      0.014     0.1932      2.641     45.179  43.981336    21.4591      7.370   143.9234 1.0457e+01     5.1006      2.090      3.033    23.2477 0.0000e+00
      2.137      0.014     0.1745      3.196     45.140  43.974081    21.1586      7.370   144.0681 1.0382e+01     5.1767      2.096      3.039    23.4049 0.0000e+00
      2.142      0.016     0.1700      3.796     45.102  43.959568    20.9836      7.370   144.2558 1.0332e+01     5.1727      2.102      3.049    23.5331 0.0000e+00
      2.146      0.021     0.1819      4.375     45.060  43.932843    20.9571      7.371   144.4727 1.0283e+01     5.1877      2.105      3.053    23.6219 0.0000e+00
      2.150      0.025     0.2189      4.892     45.036  43.904876    20.9806      7.373   144.6254 1.0219e+01     5.2557      2.108      3.057    23.6793 0.0000e+00
      2.155      0.029     0.2700      5.307     45.031  43.875302    21.0427      7.374   144.6393 1.0109e+01     5.2782      2.113      3.064    23.7049 0.0000e+00
      2.165      0.033     0.3218      5.591     45.032  43.829134    21.0835      7.373   144.5554 9.9738e+00     5.2546      2.123      3.078    23.7268 0.0000e+00
      2.176      0.038     0.3719      5.738     45.015  43.727447    21.0912      7.373   144.5577 9.8508e+00     5.2102      2.134      3.097    23.7537 0.0000e+00
      2.187      0.041     0.4165      5.737     45.021  43.597807    21.1105      7.372   144.6668 9.7222e+00     5.1512      2.146      3.112    23.7443 0.0000e+00
      2.197      0.043     0.4533      5.588     45.160  43.530962    21.1591      7.371   144.8419 9.5944e+00     5.0875      2.155      3.125    23.7165 0.0000e+00
      2.208      0.044     0.4772      5.329     45.324  43.490192    21.1875      7.371   145.0404 9.4729e+00     5.0550      2.164      3.139    23.6803 0.0000e+00
      2.220      0.045     0.4911      4.979     45.314  43.358457    21.0795      7.372   145.0872 9.3578e+00     4.9970      2.178      3.159    23.5743 0.0000e+00
      2.232      0.048     0.4930      4.553     45.294  43.207476    19.7783      7.372   145.0636 9.2525e+00     4.9325      2.190      3.177    23.4522 0.0000e+00
      2.242      0.050     0.4801      4.101     45.483  43.187868    17.3897      7.372   145.0995 9.1221e+00     4.9247      2.198      3.188    23.2028 0.0000e+00
      2.254      0.051     0.4604      3.669     45.720  43.248028    16.0867      7.372   145.0911 8.9459e+00     4.9371      2.210      3.204    22.9046 0.0000e+00
      2.270      0.050     0.4310      3.239     45.838  43.299901    15.9007      7.371   145.1344 8.7442e+00     4.9456      2.226      3.228    22.8495 0.0000e+00
      2.287      0.049     0.3932      2.787     45.817  43.307186    14.9243      7.371   145.3645 8.5774e+00     5.0272      2.244      3.255    22.7462 0.0000e+00
      2.301      0.048     0.3542      2.355     45.645  43.209207    13.1125      7.371   145.8080 8.4811e+00     5.2059      2.258      3.274    22.4458 0.0000e+00
      2.311      0.045     0.3189      2.015     45.466  43.067444    12.1130      7.371   146.4537 8.4117e+00     5.3645      2.266      3.288    22.2431 0.0000e+00
      2.319      0.041     0.2837      1.801     45.465  42.989583    12.0120      7.371   147.0631 8.3203e+00     5.4756      2.274      3.298    22.1935 0.0000e+00
      2.329      0.039     0.2422      1.691     45.612  42.965878    11.8255      7.372   147.4112 8.2068e+00     5.5254      2.283      3.310    22.2373 0.0000e+00
      2.339      0.039     0.2015      1.631     45.792  42.971014    11.4802      7.372   147.6516 8.1018e+00     5.4882      2.296      3.329    22.3384 0.0000e+00
      2.348      0.040     0.1702      1.596     45.932  42.987984    11.2829      7.371   147.9906 7.9980e+00     5.4007      2.302      3.339    22.4074 0.0000e+00
      2.358      0.041     0.1532      1.601     45.982  42.980471    11.2456      7.371   148.3266 7.8784e+00     5.3558      2.310      3.352    22.3160 0.0000e+00
      2.369      0.040     0.1464      1.636     45.964  42.943582    11.1957      7.371   148.6171 7.7709e+00     5.4241      2.324      3.371    22.0866 0.0000e+00
      2.380      0.038     0.1426      1.665     45.964  42.922769    10.6383      7.371   148.9214 7.6721e+00     5.4415      2.334      3.385    21.8950 0.0000e+00
      2.391      0.034     0.1386      1.679     45.982  42.919204     9.5843      7.372   149.1664 7.5767e+00     5.2923      2.345      3.402    21.7651 0.0000e+00
      2.402      0.030     0.1393      1.690     45.910  42.836982     8.9887      7.372   149.2564 7.5193e+00     5.1565      2.358      3.420    21.7141 0.0000e+00
      2.408      0.029     0.1443      1.690     45.718  42.626806     8.9210      7.372   149.2352 7.4938e+00     5.1328      2.363      3.427    21.7182 0.0000e+00
      2.410      0.030     0.1473      1.674     45.574  42.409024     8.9901      7.371   149.1687 7.4542e+00     5.1758      2.363      3.427    21.6824 0.0000e+00
      2.414      0.033     0.1473      1.656     45.675  42.361689     9.1422      7.371   149.1407 7.3603e+00     5.2327      2.365      3.431    21.6622 0.0000e+00
      2.423      0.037     0.1491      1.647     45.902  42.435104     9.2279      7.371   149.2393 7.2165e+00     5.2058      2.374      3.442    21.6505 0.0000e+00
      2.436      0.040     0.1496      1.649     46.017  42.471369     9.2359      7.371   149.3289 7.0816e+00     5.1228      2.390      3.465    21.6346 0.0000e+00
      2.451      0.041     0.1474      1.659     46.035  42.482723     9.2973      7.371   149.3637 6.9768e+00     5.0497      2.404      3.487    21.5568 0.0000e+00
      2.464      0.040     0.1463      1.649     46.051  42.508908     9.4291      7.371   149.4880 6.8716e+00     5.0054      2.416      3.505    21.3637 0.0000e+00
      2.474      0.037     0.1461      1.614     45.944  42.407163     9.5071      7.372   149.7131 6.8009e+00     5.0311      2.428      3.521    21.1875 0.0000e+00
      2.480      0.036     0.1461      1.590     45.629  42.077650     9.4994      7.372   150.0209 6.7789e+00     5.0529      2.432      3.528    21.1129 0.0000e+00
      2.485      0.039     0.1484      1.586     45.397  41.761704     9.2522      7.373   150.4559 6.7442e+00     5.0986      2.437      3.534    21.1346 0.0000e+00
      2.492      0.047     0.1483      1.592     45.480  41.696935     8.7901      7.374   150.8428 6.6747e+00     5.2763      2.442      3.542    21.1574 0.0000e+00
      2.503      0.061     0.1421      1.598     45.735  41.802094     8.5482      7.374   151.0857 6.5549e+00     5.4595      2.451      3.556    21.1524 0.0000e+00
      2.520      0.077     0.1409      1.602     45.955  41.890564     8.5169      7.374   151.4137 6.4081e+00     5.5713      2.470      3.583    21.1370 0.0000e+00
      2.540      0.088     0.1411      1.603     46.066  41.877905     8.3121      7.373   151.8828 6.2287e+00     6.0131      2.489      3.610    21.0114 0.0000e+00
      2.569      0.093     0.1425      1.598     46.126  41.839286     7.9446      7.372   152.3703 5.9303e+00     6.8048      2.515      3.648    20.8218 0.0000e+00
      2.606      0.090     0.1435      1.589     46.217  41.867779     7.7354      7.371   152.7473 5.5902e+00     7.2867      2.559      3.711    20.6877 0.0000e+00
      2.636      0.081     0.1438      1.578     46.299  41.904986     7.7137      7.371   152.9997 5.3725e+00     7.3989      2.592      3.758    20.5821 0.0000e+00
      2.652      0.068     0.1448      1.561     46.354  41.908292     7.7154      7.371   153.1848 5.2697e+00     7.3760      2.603      3.774    20.4396 0.0000e+00
      2.662      0.053     0.1443      1.545     46.416  41.907694     7.6479      7.370   153.3504 5.2015e+00     7.2149      2.611      3.787    20.3270 0.0000e+00
      2.670      0.042     0.1436      1.540     46.449  41.897676     7.5210      7.369   153.6264 5.1362e+00     7.0566      2.618      3.797    20.2854 0.0000e+00
      2.676      0.037     0.1431      1.539     46.492  41.914047     7.4387      7.369   153.9409 5.0575e+00     7.0327      2.623      3.804    20.2550 0.0000e+00
      2.682      0.039     0.1415      1.530     46.599  41.978677     7.3777      7.370   154.0547 4.9623e+00     7.0972      2.630      3.814    20.2099 0.0000e+00
      2.691      0.044     0.1394      1.528     46.719  42.044382     6.9251      7.371   154.0563 4.8182e+00     7.2216      2.637      3.825    20.1278 0.0000e+00
      2.704      0.048     0.1395      1.527     46.783  42.073714     6.1021      7.372   154.1323 4.6189e+00     7.3410      2.650      3.844    20.0841 0.0000e+00
      2.720      0.051     0.1405      1.512     46.791  42.079413     5.6499      7.372   154.1990 4.4344e+00     7.3448      2.668      3.870    20.0811 0.0000e+00
      2.736      0.051     0.1383      1.497     46.817  42.113284     5.5860      7.372   154.2596 4.2884e+00     7.3358      2.684      3.893    20.0423 0.0000e+00
      2.751      0.051     0.1387      1.502     46.884  42.165916     5.4132      7.371   154.3497 4.1958e+00     7.4373      2.700      3.916    19.9859 0.0000e+00
      2.762      0.050     0.1400      1.516     46.982  42.208010     5.1166      7.370   154.4285 4.1488e+00     7.5822      2.710      3.932    19.9484 0.0000e+00
      2.771      0.048     0.1373      1.514     47.107  42.241357     4.9547      7.370   154.5238 4.0638e+00     7.6182      2.715      3.938    19.9535 0.0000e+00
      2.782      0.046     0.1356      1.503     47.220  42.251658     4.9364      7.371   154.7268 3.9373e+00     7.5657      2.727      3.956    19.9798 0.0000e+00
      2.797      0.045     0.1358      1.493     47.321  42.268960     4.9625      7.372   154.9903 3.8313e+00     7.6650      2.744      3.980    19.9817 0.0000e+00
      2.811      0.045     0.1392      1.491     47.513  42.386993     5.0209      7.372   155.1296 3.7579e+00     7.9310      2.757      3.998    19.9264 0.0000e+00
      2.822      0.047     0.1381      1.498     47.842  42.599703     5.0514      7.372   155.2920 3.7097e+00     8.0827      2.769      4.017    19.8373 0.0000e+00
      2.829      0.049     0.1373      1.494     48.165  42.746178     5.0395      7.372   155.5766 3.6667e+00     8.1668      2.775      4.025    19.7277 0.0000e+00
      2.837      0.049     0.1368      1.481     48.366  42.761445     4.8855      7.373   155.9038 3.5874e+00     8.9813      2.779      4.032    19.6418 0.0000e+00
      2.852      0.048     0.1357      1.477     48.456  42.720606     4.6215      7.373   156.3237 3.4684e+00    10.4842      2.796      4.055    19.6125 0.0000e+00
      2.871      0.046     0.1381      1.472     48.488  42.696537     4.5024      7.373   156.6950 3.3638e+00    11.3430      2.817      4.086    19.5471 0.0000e+00
      2.886      0.046     0.1381      1.458     48.532  42.724250     4.5019      7.373   156.8659 3.3083e+00    11.4400      2.832      4.109    19.3821 0.0000e+00
      2.896      0.046     0.1362      1.460     48.567  42.738313     4.4832      7.373   156.9269 3.2868e+00    11.4524      2.842      4.122    19.1802 0.0000e+00
      2.901      0.046     0.1366      1.471     48.556  42.676141     4.4588      7.373   157.0889 3.2683e+00    11.5949      2.845      4.126    19.0488 0.0000e+00
      2.908      0.046     0.1377      1.472     48.565  42.607181     4.4480      7.374   157.3615 3.2073e+00    11.8653      2.848      4.131    19.0059 0.0000e+00
      2.922      0.047     0.1341      1.485     48.643  42.602610     4.4521      7.374   157.7277 3.1032e+00    12.0571      2.864      4.154    19.0173 0.0000e+00
      2.939      0.048     0.1347      1.494     48.725  42.620775     4.4593      7.373   158.1619 3.0114e+00    12.1720      2.884      4.182    19.0130 0.0000e+00
      2.955      0.048     0.1381      1.481     48.714  42.572853     4.3522      7.371   158.3958 2.9290e+00    12.6393      2.898      4.201    18.9487 0.0000e+00
      2.968      0.047     0.1354      1.471     48.561  42.403971     4.1138      7.370   158.4908 2.8581e+00    13.4378      2.913      4.223    18.8598 0.0000e+00
      2.978      0.046     0.1386      1.476     48.354  42.165571     3.9649      7.371   158.5353 2.8273e+00    13.8669      2.923      4.238    18.7777 0.0000e+00
      2.985      0.045     0.1409      1.478     48.327  42.038725     3.9419      7.372   158.5034 2.8003e+00    13.9670      2.925      4.243    18.7258 0.0000e+00
      2.994      0.045     0.1375      1.462     48.500  42.076088     3.8454      7.373   158.5353 2.7495e+00    14.5118      2.934      4.256    18.6919 0.0000e+00
      3.008      0.046     0.1368      1.448     48.614  42.109414     3.6470      7.373   158.6629 2.6795e+00    15.4335      2.949      4.278    18.6595 0.0000e+00
      3.023      0.047     0.1379      1.455     48.587  42.060766     3.5231      7.372   158.8416 2.6104e+00    15.8535      2.965      4.301    18.6224 0.0000e+00
      3.036      0.045     0.1396      1.470     48.523  41.995614     3.4963      7.372   159.0612 2.5621e+00    15.7985      2.978      4.321    18.4976 0.0000e+00
      3.048      0.039     0.1372      1.470     48.482  41.956351     3.5055      7.372   159.2526 2.5263e+00    15.8271      2.988      4.334    18.3434 0.0000e+00
      3.059      0.031     0.1352      1.460     48.502  41.966856     3.5427      7.371   159.3496 2.5016e+00    15.9603      3.000      4.351    18.2931 0.0000e+00
      3.068      0.025     0.1367      1.455     48.547  41.995676     3.5633      7.370   159.4594 2.4891e+00    16.0426      3.012      4.367    18.2771 0.0000e+00
      3.070      0.023     0.1391      1.460     48.475  41.923983     3.5477      7.370   159.5476 2.4816e+00    16.0706      3.012      4.369    18.2641 0.0000e+00
      3.070      0.025     0.1388      1.467     48.297  41.734709     3.4612      7.370   159.5562 2.4713e+00    16.5041      3.008      4.363    18.2702 0.0000e+00
      3.072      0.030     0.1369      1.456     48.178  41.547749     3.3333      7.371   159.5632 2.4545e+00    17.3899      3.010      4.365    18.2597 0.0000e+00
      3.080      0.037     0.1367      1.434     48.182  41.440494     3.2748      7.371   159.5458 2.4252e+00    17.9325      3.018      4.377    18.2441 0.0000e+00
      3.094      0.046     0.1372      1.424     48.241  41.389764     3.2788      7.370   159.5180 2.3797e+00    18.0092      3.034      4.401    18.2477 0.0000e+00
      3.111      0.052     0.1391      1.424     48.245  41.315056     3.2811      7.369   159.5711 2.3312e+00    18.0444      3.050      4.425    18.2265 0.0000e+00
      3.126      0.055     0.1382      1.421     48.220  41.235253     3.2527      7.369   159.8440 2.2943e+00    18.8363      3.066      4.447    18.1232 0.0000e+00
      3.141      0.053     0.1346      1.421     48.298  41.249873     3.2186      7.369   160.3233 2.2692e+00    20.4105      3.083      4.472    17.9946 0.0000e+00
      3.153      0.048     0.1348      1.430     48.403  41.301363     3.2181      7.369   160.6339 2.2407e+00    21.3304      3.091      4.484    17.8841 0.0000e+00
      3.166      0.041     0.1355      1.432     48.398  41.286563     3.2225      7.367   160.6739 2.2045e+00    21.4877      3.105      4.503    17.8049 0.0000e+00
      3.180      0.035     0.1354      1.430     48.291  41.197853     3.2215      7.366   160.8074 2.1785e+00    22.0391      3.123      4.529    17.7555 0.0000e+00
      3.187      0.032     0.1345      1.449     48.138  41.053856     3.2308      7.365   161.1294 2.1773e+00    23.0781      3.128      4.536    17.6924 0.0000e+00
      3.188      0.032     0.1367      1.455     48.067  40.941766     3.2514      7.365   161.3830 2.1852e+00    23.7000      3.125      4.533    17.6474 0.0000e+00
      3.192      0.033     0.1377      1.439     48.133  40.921462     3.2708      7.365   161.4645 2.1787e+00    23.7857      3.127      4.536    17.6431 0.0000e+00
      3.202      0.036     0.1342      1.439     48.233  40.935195     3.2741      7.365   161.5980 2.1499e+00    23.6358      3.138      4.552    17.6567 0.0000e+00
      3.216      0.041     0.1392      1.449     48.346  40.980781     3.2664      7.365   161.7928 2.1179e+00    23.2878      3.155      4.575    17.6564 0.0000e+00
      3.229      0.047     0.1408      1.466     48.535  41.091771     3.2527      7.364   161.7553 2.0955e+00    23.0623      3.167      4.594    17.5946 0.0000e+00
      3.240      0.050     0.1355      1.483     48.740  41.198173     3.2580      7.363   161.5744 2.0684e+00    23.0962      3.177      4.609    17.5010 0.0000e+00
      3.251      0.048     0.1383      1.474     48.869  41.251705     3.3229      7.362   161.4128 2.0364e+00    23.6977      3.186      4.620    17.4204 0.0000e+00
      3.266      0.044     0.1388      1.449     48.935  41.294675     3.4132      7.362   161.3507 2.0023e+00    24.8000      3.202      4.645    17.3749 0.0000e+00
      3.282      0.039     0.1398      1.421     48.969  41.336909     3.4511      7.361   161.4247 1.9771e+00    25.4254      3.222      4.673    17.3429 0.0000e+00
      3.291      0.034     0.1445      1.390     49.009  41.381571     3.4472      7.360   161.3615 1.9663e+00    25.4858      3.230      4.684    17.2555 0.0000e+00
      3.296      0.029     0.1418      1.361     49.239  41.580813     3.4823      7.360   161.2745 1.9620e+00    25.9742      3.233      4.689    17.1796 0.0000e+00
      3.300      0.024     0.1397      1.353     49.904  42.159206     3.5678      7.360   161.4053 1.9522e+00    26.9930      3.235      4.692    17.1806 0.0000e+00
      3.304      0.021     0.1367      1.367     51.227  43.297273     3.6238      7.359   161.5673 1.9199e+00    27.5904      3.239      4.698    17.2070 0.0000e+00
      3.310      0.024     0.1340      1.388     54.756  46.264530     3.6350      7.359   161.7705 1.8959e+00    27.6291      3.247      4.708    17.2220 0.0000e+00
      3.315      0.034     0.1300      1.408     59.953  50.546802     3.6369      7.359   162.0553 1.9052e+00    27.4607      3.250      4.715    17.2091 0.0000e+00
      3.320      0.045     0.1291      1.420     62.878  52.789405     3.7214      7.359   162.2565 1.9053e+00    26.2037      3.255      4.721    17.2338 0.0000e+00
      3.329      0.052     0.1318      1.438     63.179  52.807997     3.9000      7.358   162.3965 1.8524e+00    23.9426      3.259      4.727    17.2675 0.0000e+00
      3.349      0.054     0.1326      1.433     62.578  52.168387     4.0067      7.356   162.4586 1.7792e+00    22.6670      3.281      4.758    17.2664 0.0000e+00
      3.375      0.053     0.1369      1.396     61.713  51.405972     4.0287      7.356   162.4907 1.7422e+00    22.4638      3.315      4.808    17.2081 0.0000e+00
      3.392      0.048     0.1358      1.380     61.530  51.273292     3.9747      7.356   162.6125 1.7306e+00    21.3141      3.330      4.830    16.9743 0.0000e+00
      3.400      0.038     0.1409      1.398     61.712  51.453286     3.8457      7.355   162.7268 1.7211e+00    19.1508      3.336      4.837    16.7475 0.0000e+00
      3.404      0.027     0.1415      1.399     61.439  51.232821     3.7743      7.354   162.8398 1.7192e+00    17.9639      3.339      4.843    16.6557 0.0000e+00
      3.406      0.017     0.1347      1.367     60.959  50.830147     3.7860      7.353   163.1181 1.7206e+00    17.7927      3.340      4.844    16.6235 0.0000e+00
      3.409      0.012     0.1325      1.350     60.889  50.775510     3.8372      7.354   163.5101 1.7134e+00    16.8074      3.343      4.849    16.6599 0.0000e+00
      3.412      0.012     0.1367      1.375     61.479  51.270689     3.8866      7.354   163.7086 1.7095e+00    14.8978      3.346      4.853    16.6957 0.0000e+00
      3.414      0.013     0.1385      1.406     62.514  52.118384     3.8914      7.354   163.7116 1.7104e+00    13.7649      3.348      4.855    16.6907 0.0000e+00
      3.417      0.017     0.1318      1.398     64.403  53.658826     3.8706      7.354   163.7181 1.6988e+00    13.5625      3.351      4.860    16.6845 0.0000e+00
      3.421      0.023     0.1298      1.376     68.117  56.686637     3.7768      7.353   163.7015 1.6857e+00    12.8952      3.354      4.865    16.6907 0.0000e+00
      3.427      0.028     0.1327      1.386     71.015  58.938706     3.6138      7.353   163.8546 1.6732e+00    11.6746      3.361      4.875    16.7010 0.0000e+00
      3.433      0.032     0.1395      1.409     71.260  58.910936     3.5311      7.352   164.1933 1.6489e+00    10.9983      3.367      4.882    16.6900 0.0000e+00
      3.443      0.036     0.1365      1.406     71.615  59.019144     3.5266      7.352   164.3543 1.6240e+00    10.9010      3.373      4.892    16.6503 0.0000e+00
      3.458      0.038     0.1322      1.387     72.780  59.866269     3.5928      7.351   164.3384 1.6088e+00    10.6696      3.393      4.922    16.6432 0.0000e+00
      3.471      0.038     0.1344      1.370     73.522  60.386930     3.7483      7.349   164.3459 1.6028e+00    10.3524      3.407      4.941    16.5221 0.0000e+00
      3.477      0.037     0.1401      1.363     73.505  60.295558     3.8423      7.347   164.4451 1.5966e+00    10.2088      3.408      4.944    16.3005 0.0000e+00
      3.483      0.036     0.1387      1.378     73.778  60.476799     3.8476      7.346   164.5046 1.5794e+00    10.1622      3.414      4.952    16.1860 0.0000e+00
      3.493      0.041     0.1359      1.393     75.027  61.434841     3.8287      7.346   164.5498 1.5488e+00    10.1312      3.426      4.970    16.1209 0.0000e+00
      3.502      0.051     0.1358      1.407     76.455  62.413046     3.7886      7.345   164.7332 1.5099e+00    10.1063      3.436      4.984    16.0666 0.0000e+00
      3.509      0.062     0.1322      1.440     77.323  62.837584     3.7618      7.344   164.8292 1.4769e+00    10.1013      3.439      4.987    15.9948 0.0000e+00
      3.525      0.068     0.1370      1.468     77.692  62.882605     3.7543      7.342   164.5066 1.4418e+00    10.1385      3.451      5.005    15.9786 0.0000e+00
      3.553      0.068     0.1381      1.473     77.828  62.830006     3.7483      7.341   164.0152 1.3932e+00    10.0778      3.483      5.052    15.9821 0.0000e+00
      3.582      0.063     0.1374      1.452     77.684  62.646166     3.7224      7.338   163.7060 1.3483e+00     9.2648      3.518      5.103    15.8412 0.0000e+00
      3.601      0.058     0.1441      1.427     77.639  62.629344     3.6744      7.335   163.3497 1.3140e+00     7.8240      3.535      5.128    15.6162 0.0000e+00
      3.610      0.056     0.1474      1.428     77.985  62.944313     3.6338      7.332   162.6327 1.2947e+00     7.0042      3.541      5.136    15.4415 0.0000e+00
      3.612      0.061     0.1485      1.436     78.310  63.150594     3.5895      7.328   161.8341 1.2858e+00     6.8337      3.543      5.139    15.3423 0.0000e+00
      3.615      0.072     0.1462      1.417     78.224  62.899635     3.3550      7.321   161.2647 1.2602e+00     6.5477      3.541      5.134    15.2936 0.0000e+00
      3.630      0.087     0.1409      1.388     77.894  62.387679     2.9459      7.313   160.5658 1.1961e+00     6.1424      3.552      5.152    15.3220 0.0000e+00
      3.664      0.101     0.1427      1.388     77.602  61.916037     2.7215      7.305   159.7506 1.0880e+00     5.9649      3.590      5.208    15.3804 0.0000e+00
      3.707      0.108     0.1450      1.399     77.648  61.771218     2.6730      7.299   159.0657 9.6286e-01     5.9034      3.638      5.277    15.3507 0.0000e+00
      3.745      0.105     0.1433      1.409     77.929  61.907137     2.5588      7.294   158.0499 8.6662e-01     5.6724      3.677      5.332    15.2143 0.0000e+00
      3.772      0.092     0.1374      1.423     78.014  61.971001     2.3979      7.291   156.5035 8.1984e-01     5.3584      3.702      5.370    15.0379 0.0000e+00
      3.790      0.072     0.1402      1.425     78.074  62.035138     2.3251      7.288   154.7369 8.0611e-01     5.2151      3.720      5.394    14.8770 0.0000e+00
      3.801      0.051     0.1427      1.422     78.303  62.237890     2.3286      7.286   152.6926 7.9314e-01     5.2385      3.729      5.408    14.7511 0.0000e+00
      3.810      0.033     0.1417      1.420     78.409  62.389393     2.2654      7.284   150.2836 7.6532e-01     5.1975      3.735      5.419    14.6905 0.0000e+00
      3.816      0.021     0.1457      1.405     78.279  62.405729     2.1268      7.282   147.9813 7.3834e-01     5.0600      3.744      5.430    14.7150 0.0000e+00
      3.819      0.017     0.1443      1.385     78.005  62.308492     2.0420      7.281   146.2798 7.2991e-01     4.9766      3.747      5.435    14.7299 0.0000e+00
      3.818      0.020     0.1441      1.377     77.518  61.976273     2.0318      7.281   145.0256 7.4301e-01     5.0090      3.745      5.432    14.7233 0.0000e+00
      3.816      0.025     0.1446      1.370     76.997  61.502112     2.0281      7.280   143.9153 7.4539e-01     5.0758      3.739      5.424    14.7659 0.0000e+00
      3.821      0.033     0.1428      1.374     76.843  61.213272     2.0135      7.280   143.0083 7.1616e-01     5.0669      3.743      5.429    14.8568 0.0000e+00
      3.836      0.043     0.1384      1.389     76.849  61.025012     1.9966      7.281   142.2333 6.7465e-01     4.9700      3.761      5.455    14.9511 0.0000e+00
      3.855      0.051     0.1396      1.402     76.781  60.813892     1.9905      7.281   141.2553 6.3381e-01     4.9290      3.781      5.484    14.9991 0.0000e+00
      3.870      0.054     0.1378      1.416     76.845  60.756943     1.9901      7.280   139.7878 5.9337e-01     5.2880      3.796      5.506    14.9665 0.0000e+00
      3.884      0.050     0.1378      1.422     77.007  60.844565     1.9828      7.278   137.7396 5.5177e-01     5.9629      3.808      5.522    14.8300 0.0000e+00
      3.899      0.042     0.1421      1.416     77.148  60.983856     1.9856      7.277   135.2476 5.1691e-01     6.3608      3.825      5.548    14.6871 0.0000e+00
      3.910      0.036     0.1417      1.407     77.232  61.106998     1.9911      7.276   132.5426 4.9623e-01     6.4434      3.838      5.567    14.5917 0.0000e+00
      3.915      0.033     0.1451      1.401     77.208  61.126465     1.9743      7.276   130.2445 4.9286e-01     6.4149      3.840      5.569    14.5114 0.0000e+00
      3.918      0.033     0.1453      1.386     77.177  61.092223     1.9407      7.275   128.7128 4.9245e-01     6.3919      3.841      5.571    14.4845 0.0000e+00
      3.924      0.033     0.1444      1.371     77.237  61.074150     1.9181      7.274   127.4451 4.7652e-01     6.5073      3.846      5.577    14.5134 0.0000e+00
      3.934      0.036     0.1428      1.374     77.766  61.352582     1.9176      7.273   126.0164 4.4890e-01     6.6487      3.857      5.593    14.5628 0.0000e+00
      3.947      0.040     0.1430      1.376     78.976  62.107837     1.9181      7.273   124.5154 4.1866e-01     6.8039      3.872      5.615    14.5948 0.0000e+00
      3.959      0.042     0.1417      1.370     79.910  62.645183     1.8981      7.273   123.1495 3.8961e-01     7.8373      3.883      5.632    14.5863 0.0000e+00
      3.970      0.041     0.1379      1.376     79.949  62.512534     1.8594      7.273   121.9765 3.6716e-01     9.6808      3.893      5.647    14.5513 0.0000e+00
      3.981      0.040     0.1406      1.382     79.423  61.965127     1.8421      7.271   120.5721 3.4438e-01    10.6822      3.905      5.664    14.4621 0.0000e+00
      3.991      0.040     0.1418      1.374     78.737  61.299685     1.8390      7.270   118.5590 3.1935e-01    10.9612      3.915      5.678    14.3133 0.0000e+00
      3.998      0.042     0.1394      1.360     77.563  60.248060     1.7467      7.270   116.3927 3.0376e-01    13.1565      3.922      5.688    14.1854 0.0000e+00
      4.005      0.044     0.1415      1.359     75.754  58.715446     1.5748      7.270   114.5124 2.8342e-01    17.1394      3.926      5.694    14.0852 0.0000e+00
      4.017      0.045     0.1433      1.372     74.406  57.570308     1.4749      7.270   112.8609 2.5525e-01    19.2876      3.937      5.710    14.0037 0.0000e+00
      4.035      0.046     0.1421      1.378     73.031  56.439017     1.4464      7.271   111.3083 2.3769e-01    19.5914      3.957      5.740    13.9301 0.0000e+00
      4.051      0.047     0.1402      1.377     71.085  54.882019     1.3714      7.272   109.8499 2.2991e-01    21.0864      3.975      5.765    13.8295 0.0000e+00
      4.062      0.047     0.1398      1.394     70.265  54.178525     1.2664      7.272   108.4780 2.2500e-01    23.8355      3.985      5.779    13.7426 0.0000e+00
      4.070      0.043     0.1429      1.428     70.487  54.284302     1.2268      7.271   107.0246 2.1932e-01    25.3666      3.989      5.786    13.6749 0.0000e+00
      4.080      0.041     0.1439      1.446     69.403  53.429973     1.2323      7.269   105.4407 2.1464e-01    25.5594      3.999      5.801    13.6301 0.0000e+00
      4.092      0.041     0.1420      1.443     67.370  51.850573     1.1999      7.268   104.0403 2.1142e-01    26.0636      4.016      5.824    13.6081 0.0000e+00
      4.101      0.043     0.1443      1.450     66.512  51.127622     1.1268      7.268   102.9119 1.9488e-01    26.9545      4.023      5.835    13.5525 0.0000e+00
      4.109      0.046     0.1494      1.451     66.170  50.785171     1.0809      7.268   101.7788 1.6512e-01    27.4156      4.026      5.839    13.4834 0.0000e+00
      4.122      0.047     0.1525      1.430     65.465  50.186282     1.0860      7.267   100.5787 1.4483e-01    27.5061      4.041      5.861    13.4863 0.0000e+00
      4.137      0.046     0.1487      1.416     65.171  49.918713     1.1045      7.266    99.4139 1.3869e-01    27.7748      4.059      5.887    13.5031 0.0000e+00
      4.151      0.046     0.1515      1.408     64.946  49.708947     1.1052      7.266    98.1920 1.3962e-01    28.1028      4.071      5.905    13.4340 0.0000e+00
      4.163      0.047     0.1538      1.403     63.123  48.284927     1.0872      7.267    96.9040 1.4269e-01    28.2263      4.084      5.924    13.3606 0.0000e+00
      4.173      0.052     0.1477      1.408     59.995  45.843107     1.0694      7.269    95.8015 1.4195e-01    28.2085      4.092      5.937    13.3242 0.0000e+00
      4.179      0.062     0.1490      1.458     58.222  44.373491     1.0574      7.271    94.9281 1.4146e-01    28.1267      4.098      5.944    13.2962 0.0000e+00
      4.188      0.072     0.1466      1.583     58.142  44.165080     0.9827      7.272    94.2594 1.4481e-01    27.5454      4.104      5.953    13.2612 0.0000e+00
      4.209      0.079     0.1476      1.893     58.344  44.211766     0.8324      7.273    93.6529 1.4062e-01    26.5089      4.120      5.976    13.2440 0.0000e+00
      4.245      0.079     0.1452      2.764     58.776  44.493497     0.7378      7.275    93.0148 1.2954e-01    25.9110      4.164      6.039    13.2307 0.0000e+00
      4.279      0.074     0.1509      4.710     59.477  45.032251     0.7211      7.276    92.4817 1.2461e-01    25.8163      4.205      6.099    13.1175 0.0000e+00
      4.298      0.064     0.1632      7.865     59.798  45.330012     0.7144      7.278    91.9395 1.2791e-01    25.6367      4.217      6.116    12.9578 0.0000e+00
      4.305      0.049     0.1817     11.777     59.756  45.364127     0.7144      7.279    91.2775 1.3141e-01    25.2765      4.223      6.125    12.8667 0.0000e+00
      4.309      0.034     0.2497     15.808     59.971  45.571765     0.7130      7.279    90.4992 1.2797e-01    25.0132      4.228      6.132    12.8339 0.0000e+00
      4.312      0.024     0.4450     19.338     60.079  45.682210     0.6972      7.280    89.8425 1.2418e-01    24.9126      4.227      6.130    12.8362 0.0000e+00
      4.317      0.024     0.8040     21.928     59.639  45.366411     0.6735      7.281    89.4462 1.2381e-01    24.7432      4.232      6.138    12.8955 0.0000e+00
      4.324      0.027     1.2366     23.449     59.339  45.118015     0.6603      7.283    89.0623 1.2373e-01    24.5372      4.241      6.152    12.9654 0.0000e+00
      4.331      0.031     1.6848     23.899     59.462  45.154634     0.6701      7.285    88.6432 1.2370e-01    24.5051      4.247      6.159    12.9955 0.0000e+00
      4.339      0.034     2.0757     23.436     59.452  45.110811     0.6681      7.285    88.2508 1.2370e-01    24.4918      4.254      6.170    13.0138 0.0000e+00
      4.351      0.035     2.3461     22.511     59.351  45.032487     0.6438      7.285    87.8449 1.2370e-01    24.1038      4.267      6.190    13.0438 0.0000e+00
      4.361      0.035     2.5088     21.675     59.361  45.032881     0.6334      7.286    87.3501 1.2375e-01    23.4342      4.278      6.204    13.0331 0.0000e+00
      4.369      0.033     2.5570     21.234     59.322  44.988611     0.6429      7.287    86.8283 1.2379e-01    23.0909      4.284      6.213    12.9565 0.0000e+00
      4.378      0.030     2.4918     21.204     59.258  44.941567     0.6592      7.287    86.3531 1.2374e-01    23.0963      4.293      6.227    12.9171 0.0000e+00
      4.386      0.027     2.3681     21.502     59.198  44.908441     0.6476      7.287    85.8205 1.2368e-01    22.8845      4.303      6.240    12.9426 0.0000e+00
      4.392      0.025     2.2695     22.066     59.107  44.842011     0.6018      7.287    85.2074 1.2371e-01    22.4767      4.308      6.249    12.9335 0.0000e+00
      4.396      0.025     2.2261     22.820     59.045  44.773180     0.5715      7.288    84.6188 1.2374e-01    22.2992      4.311      6.252    12.9051 0.0000e+00
      4.400      0.026     2.2267     23.621     58.677  44.457070     0.5721      7.288    84.1241 1.2372e-01    22.3101      4.315      6.257    12.9163 0.0000e+00
      4.407      0.028     2.2593     24.361     57.815  43.749464     0.5758      7.289    83.6991 1.2370e-01    22.3005      4.322      6.268    12.9286 0.0000e+00
      4.416      0.033     2.3195     25.052     57.137  43.136537     0.5670      7.291    83.2669 1.2371e-01    22.0125      4.331      6.282    12.9409 0.0000e+00
      4.423      0.037     2.4076     25.815     57.124  43.012870     0.5654      7.293    82.7709 1.2372e-01    21.4579      4.337      6.291    12.9165 0.0000e+00
      4.433      0.039     2.4985     26.833     57.471  43.206215     0.5736      7.293    82.2616 1.2369e-01    21.1285      4.346      6.303    12.8768 0.0000e+00
      4.445      0.038     2.5779     28.394     57.804  43.442991     0.5825      7.294    81.7547 1.2368e-01    21.1041      4.359      6.323    12.8561 0.0000e+00
      4.459      0.034     2.6513     30.785     58.146  43.717545     0.6061      7.295    81.2891 1.2375e-01    20.9586      4.374      6.344    12.7509 0.0000e+00
      4.470      0.029     2.7341     33.979     58.555  44.050276     0.6342      7.295    80.8477 1.2384e-01    20.5306      4.386      6.360    12.6246 0.0000e+00
      4.475      0.024     2.8361     37.619     58.746  44.228712     0.6472      7.296    80.2892 1.2381e-01    20.1984      4.389      6.366    12.5693 0.0000e+00
      4.478      0.020     2.9854     41.154     58.526  44.097667     0.6471      7.297    79.6983 1.2373e-01    20.1199      4.392      6.369    12.5646 0.0000e+00
      4.478      0.019     3.2411     43.972     58.206  43.862378     0.6581      7.297    79.1243 1.2374e-01    20.2296      4.393      6.371    12.5915 0.0000e+00
      4.480      0.020     3.5935     45.646     58.079  43.732518     0.6963      7.299    78.5976 1.2380e-01    20.4318      4.392      6.370    12.6075 0.0000e+00
      4.487      0.023     3.9980     46.008     57.718  43.416175     0.7183      7.300    78.1473 1.2384e-01    20.4810      4.398      6.379    12.6363 0.0000e+00
      4.498      0.028     4.3957     45.217     56.911  42.766863     0.7080      7.299    77.6378 1.2384e-01    20.4142      4.411      6.398    12.6828 0.0000e+00
      4.508      0.032     4.7084     43.747     56.357  42.292595     0.6721      7.299    77.1688 1.2383e-01    20.3414      4.424      6.415    12.6919 0.0000e+00
      4.514      0.036     4.8979     42.142     56.223  42.124945     0.6166      7.300    76.6924 1.2381e-01    20.2848      4.426      6.419    12.6476 0.0000e+00
      4.521      0.038     4.9367     40.939     56.139  42.009177     0.5947      7.302    76.0948 1.2374e-01    20.2753      4.430      6.426    12.6017 0.0000e+00
      4.532      0.038     4.8339     40.804     56.134  41.971809     0.5986      7.302    75.6216 1.2365e-01    20.2263      4.444      6.445    12.5799 0.0000e+00
      4.544      0.038     4.6617     42.312     56.183  41.990455     0.6058      7.302    75.2736 1.2370e-01    19.8630      4.456      6.463    12.5231 0.0000e+00
      4.555      0.038     4.4829     45.489     56.181  41.980716     0.6232      7.303    74.8978 1.2374e-01    19.2654      4.466      6.478    12.4508 0.0000e+00
      4.565      0.038     4.3314     49.806     56.191  41.980983     0.6337      7.305    74.5190 1.2372e-01    19.0132      4.478      6.495    12.4066 0.0000e+00
      4.573      0.036     4.2921     54.569     56.216  41.993684     0.6421      7.305    74.2220 1.2376e-01    19.1027      4.484      6.504    12.3778 0.0000e+00
      4.581      0.033     4.4543     59.191     56.237  42.007334     0.6413      7.306    74.0598 1.2374e-01    19.1169      4.491      6.513    12.3631 0.0000e+00
      4.591      0.032     4.8191     63.300     56.254  42.019073     0.5988      7.307    74.1058 1.2370e-01    18.9800      4.504      6.531    12.3592 0.0000e+00
      4.598      0.033     5.3088     66.627     56.240  42.008676     0.5438      7.309    74.2618 1.2373e-01    18.8140      4.510      6.542    12.3514 0.0000e+00
      4.603      0.035     5.8417     68.902     56.236  42.008572     0.5258      7.309    74.3980 1.2375e-01    18.7485      4.514      6.548    12.3454 0.0000e+00
      4.611      0.035     6.3487     70.065     56.240  42.017812     0.5315      7.308    74.6343 1.2373e-01    18.7690      4.519      6.555    12.3461 0.0000e+00
      4.623      0.036     6.7946     70.344     56.195  41.993462     0.5211      7.307    74.9675 1.2371e-01    18.6522      4.532      6.572    12.3434 0.0000e+00
      4.636      0.039     7.1653     70.095     56.155  41.968053     0.4918      7.307    75.2439 1.2376e-01    18.3950      4.550      6.598    12.3451 0.0000e+00
      4.644      0.041     7.4100     69.571     56.162  41.964486     0.4690      7.307    75.4805 1.2381e-01    18.2553      4.555      6.606    12.3465 0.0000e+00
      4.652      0.042     7.5242     68.871     56.170  41.950330     0.4610      7.307    75.9357 1.2378e-01    18.2615      4.560      6.613    12.3503 0.0000e+00
      4.664      0.041     7.5359     68.100     56.160  41.923803     0.4700      7.306    76.5316 1.2374e-01    18.3341      4.574      6.634    12.3630 0.0000e+00
      4.676      0.039     7.4976     67.402     56.140  41.897613     0.4779      7.306    77.0928 1.2376e-01    18.3469      4.587      6.653    12.3702 0.0000e+00
      4.687      0.037     7.4428     66.938     56.132  41.887542     0.4739      7.306    77.5592 1.2377e-01    18.2456      4.597      6.667    12.3614 0.0000e+00
      4.696      0.037     7.3669     66.798     56.106  41.865492     0.4709      7.306    77.7814 1.2376e-01    18.1682      4.605      6.680    12.3383 0.0000e+00
      4.703      0.039     7.2830     66.996     56.057  41.821426     0.4844      7.307    77.8877 1.2377e-01    18.1281      4.613      6.691    12.3196 0.0000e+00
      4.709      0.042     7.2023     67.548     56.042  41.799029     0.5197      7.309    77.9846 1.2376e-01    18.1029      4.618      6.698    12.3096 0.0000e+00
      4.717      0.045     7.1493     68.413     56.034  41.785085     0.5398      7.310    78.1784 1.2374e-01    18.1023      4.623      6.705    12.3074 0.0000e+00
      4.731      0.048     7.1358     69.482     56.030  41.779769     0.5364      7.311    78.5964 1.2377e-01    18.0519      4.638      6.726    12.3096 0.0000e+00
      4.751      0.050     7.1560     70.656     56.054  41.798217     0.5202      7.312    79.2522 1.2379e-01    18.0065      4.662      6.761    12.3018 0.0000e+00
      4.767      0.051     7.2180     71.833     56.083  41.817731     0.4937      7.312    80.1703 1.2382e-01    18.0657      4.679      6.786    12.2884 0.0000e+00
      4.777      0.048     7.3186     72.933     56.099  41.825290     0.4817      7.312    81.1788 1.2384e-01    18.1524      4.683      6.792    12.2803 0.0000e+00
      4.787      0.041     7.4351     73.911     56.102  41.826143     0.4670      7.312    82.1545 1.2378e-01    18.1673      4.692      6.805    12.2793 0.0000e+00
      4.798      0.033     7.5649     74.713     56.101  41.828037     0.4492      7.312    83.1058 1.2372e-01    18.2108      4.708      6.827    12.2822 0.0000e+00
      4.807      0.027     7.6948     75.316     56.124  41.848194     0.4661      7.311    83.9049 1.2373e-01    18.3712      4.717      6.841    12.2811 0.0000e+00
      4.812      0.022     7.8137     75.730     56.162  41.879457     0.5056      7.310    84.5888 1.2380e-01    18.5356      4.719      6.845    12.2739 0.0000e+00
      4.815      0.018     7.9225     75.940     56.167  41.888684     0.5355      7.310    85.2662 1.2381e-01    18.6276      4.721      6.848    12.2720 0.0000e+00
      4.818      0.016     8.0077     75.924     56.168  41.896289     0.5359      7.310    85.8992 1.2376e-01    18.5959      4.725      6.852    12.2766 0.0000e+00
      4.821      0.017     8.0711     75.719     56.178  41.907943     0.5018      7.310    86.4788 1.2371e-01    18.5275      4.727      6.855    12.2786 0.0000e+00
      4.824      0.021     8.1153     75.359     56.176  41.902655     0.4644      7.310    87.0262 1.2372e-01    18.5173      4.730      6.861    12.2806 0.0000e+00
      4.828      0.026     8.1398     74.872     56.176  41.895823     0.4585      7.309    87.6128 1.2376e-01    18.5406      4.734      6.866    12.2856 0.0000e+00
      4.836      0.031     8.1332     74.329     56.169  41.888799     0.4809      7.309    88.1508 1.2376e-01    18.6049      4.740      6.875    12.2935 0.0000e+00
      4.847      0.034     8.1087     73.808     56.154  41.881203     0.4939      7.309    88.5409 1.2377e-01    18.5436      4.753      6.894    12.2997 0.0000e+00
      4.858      0.034     8.0726     73.387     56.130  41.867449     0.4809      7.308    88.8878 1.2377e-01    18.3798      4.766      6.912    12.2938 0.0000e+00
      4.867      0.035     8.0169     73.091     56.103  41.849448     0.4659      7.307    89.1622 1.2375e-01    18.3323      4.773      6.922    12.2837 0.0000e+00
      4.876      0.036     7.9580     72.913     56.112  41.853966     0.4628      7.308    89.3633 1.2373e-01    18.3448      4.783      6.936    12.2838 0.0000e+00
      4.883      0.037     7.8962     72.840     56.127  41.858602     0.4845      7.308    89.6848 1.2371e-01    18.4625      4.790      6.948    12.2886 0.0000e+00
      4.889      0.037     7.8506     72.856     56.113  41.842027     0.5126      7.308    90.1242 1.2374e-01    18.6968      4.791      6.949    12.2927 0.0000e+00
      4.899      0.035     7.8192     72.960     56.114  41.843962     0.5111      7.307    90.5462 1.2376e-01    18.7865      4.800      6.963    12.2953 0.0000e+00
      4.915      0.032     7.7998     73.136     56.150  41.881998     0.4991      7.305    91.0010 1.2376e-01    18.7616      4.821      6.993    12.2943 0.0000e+00
      4.926      0.028     7.7955     73.390     56.182  41.921104     0.5012      7.304    91.4933 1.2377e-01    18.8058      4.835      7.012    12.2867 0.0000e+00
      4.931      0.025     7.7967     73.711     56.182  41.935986     0.5193      7.304    91.9383 1.2374e-01    18.8772      4.837      7.015    12.2776 0.0000e+00
      4.931      0.025     7.8105     74.011     56.162  41.935007     0.5269      7.306    92.3374 1.2373e-01    18.8732      4.836      7.014    12.2777 0.0000e+00
      4.932      0.027     7.8260     74.191     56.128  41.909277     0.5097      7.306    92.7904 1.2378e-01    18.7919      4.836      7.013    12.2909 0.0000e+00
      4.936      0.030     7.8492     74.224     56.117  41.878770     0.5028      7.306    93.3720 1.2381e-01    18.6792      4.838      7.016    12.3070 0.0000e+00
      4.946      0.034     7.8868     74.147     56.157  41.883476     0.5192      7.307    93.8636 1.2377e-01    18.6040      4.848      7.031    12.3159 0.0000e+00
      4.963      0.035     7.9194     73.993     56.201  41.902676     0.5411      7.307    94.1751 1.2373e-01    18.5996      4.868      7.061    12.3354 0.0000e+00
      4.978      0.033     7.9391     73.823     56.228  41.920491     0.5424      7.307    94.3851 1.2370e-01    18.5577      4.885      7.087    12.3418 0.0000e+00
      4.985      0.030     7.9453     73.749     56.208  41.908463     0.5259      7.307    94.5952 1.2368e-01    18.5087      4.890      7.092    12.3103 0.0000e+00
      4.988      0.026     7.9412     73.839     56.174  41.884196     0.5089      7.307    94.9084 1.2367e-01    18.5867      4.892      7.094    12.2826 0.0000e+00
      4.990      0.025     7.9255     74.057     56.173  41.880959     0.4868      7.307    95.2457 1.2368e-01    18.7154      4.894      7.098    12.2743 0.0000e+00
      4.993      0.027     7.9014     74.312     56.162  41.869329     0.4754      7.308    95.6630 1.2376e-01    18.8005      4.895      7.099    12.2717 0.0000e+00
      5.000      0.031     7.8895     74.558     56.172  41.870507     0.4707      7.309    96.1676 1.2379e-01    18.7960      4.903      7.111    12.2781 0.0000e+00
      5.012      0.033     7.9006     74.791     56.213  41.895197     0.4550      7.309    96.6147 1.2373e-01    18.6605      4.915      7.129    12.2805 0.0000e+00
      5.025      0.032     7.9296     75.002     56.238  41.913967     0.4437      7.309    96.9396 1.2374e-01    18.5295      4.928      7.148    12.2749 0.0000e+00
      5.037      0.029     7.9588     75.172     56.223  41.907043     0.4503      7.309    97.1711 1.2380e-01    18.5433      4.942      7.167    12.2734 0.0000e+00
      5.044      0.026     7.9856     75.295     56.175  41.874953     0.4766      7.309    97.3482 1.2380e-01    18.6230      4.949      7.177    12.2672 0.0000e+00
      5.046      0.027     8.0128     75.403     56.136  41.843323     0.5032      7.309    97.5325 1.2379e-01    18.6047      4.949      7.178    12.2587 0.0000e+00
      5.046      0.032     8.0356     75.501     56.148  41.841961     0.5137      7.310    97.8502 1.2384e-01    18.5277      4.947      7.174    12.2594 0.0000e+00
      5.050      0.040     8.0540     75.571     56.186  41.858478     0.5124      7.311    98.3502 1.2384e-01    18.5109      4.949      7.177    12.2666 0.0000e+00
      5.062      0.049     8.0630     75.562     56.188  41.852599     0.5133      7.312    98.8460 1.2376e-01    18.5386      4.961      7.196    12.2718 0.0000e+00
      5.082      0.055     8.0761     75.467     56.167  41.834338     0.5158      7.312    99.1993 1.2371e-01    18.5213      4.983      7.227    12.2692 0.0000e+00
      5.105      0.058     8.0883     75.404     56.158  41.828093     0.4922      7.312    99.6104 1.2375e-01    18.4039      5.009      7.264    12.2582 0.0000e+00
      5.123      0.056     8.1002     75.407     56.171  41.840567     0.4611      7.312   100.2885 1.2380e-01    18.3154      5.027      7.291    12.2455 0.0000e+00
      5.134      0.049     8.1045     75.435     56.190  41.858226     0.4562      7.312   101.1173 1.2379e-01    18.3044      5.034      7.302    12.2390 0.0000e+00
      5.144      0.040     8.0844     75.486     56.178  41.851191     0.5166      7.312   101.8883 1.2376e-01    18.3392      5.044      7.315    12.2371 0.0000e+00
      5.152      0.035     8.0783     75.558     56.137  41.818989     0.6341      7.311   102.5556 1.2377e-01    18.3954      5.055      7.332    12.2374 0.0000e+00
      5.157      0.034     8.0815     75.636     56.102  41.786214     0.6945      7.311   103.1623 1.2377e-01    18.3687      5.058      7.337    12.2408 0.0000e+00
      5.162      0.036     8.0817     75.703     56.092  41.772263     0.6808      7.310   103.7173 1.2374e-01    18.2897      5.061      7.339    12.2446 0.0000e+00
      5.172      0.039     8.0879     75.738     56.105  41.777239     0.6679      7.310   104.1888 1.2375e-01    18.2941      5.071      7.355    12.2469 0.0000e+00
      5.186      0.043     8.0958     75.736     56.115  41.782900     0.6471      7.310   104.7334 1.2379e-01    18.6603      5.086      7.376    12.2456 0.0000e+00
      5.198      0.044     8.1068     75.720     56.108  41.777237     0.5956      7.310   105.3979 1.2382e-01    19.2679      5.097      7.392    12.2383 0.0000e+00
      5.211      0.043     8.1152     75.706     56.099  41.772242     0.5526      7.309   106.0298 1.2381e-01    19.5256      5.109      7.410    12.2316 0.0000e+00
      5.224      0.039     8.1211     75.679     56.114  41.785976     0.5353      7.308   106.6091 1.2375e-01    19.4536      5.125      7.433    12.2279 0.0000e+00
      5.234      0.033     8.1194     75.624     56.154  41.816347     0.5373      7.306   107.2395 1.2367e-01    19.2514      5.134      7.447    12.2256 0.0000e+00
      5.240      0.028     8.1169     75.572     56.160  41.822103     0.5591      7.305   107.8866 1.2364e-01    18.9939      5.138      7.451    12.2250 0.0000e+00
      5.246      0.023     8.1160     75.560     56.118  41.792103     0.5908      7.305   108.4108 1.2364e-01    18.9364      5.144      7.459    12.2274 0.0000e+00
      5.251      0.021     8.1136     75.556     56.088  41.770982     0.6045      7.304   108.8456 1.2365e-01    18.9313      5.151      7.470    12.2304 0.0000e+00
      5.253      0.024     8.1069     75.542     56.068  41.757144     0.5998      7.303   109.2715 1.2371e-01    18.9666      5.153      7.472    12.2306 0.0000e+00
      5.256      0.030     8.0973     75.541     56.062  41.751734     0.6092      7.303   109.6887 1.2376e-01    19.2264      5.152      7.473    12.2313 0.0000e+00
      5.263      0.036     8.0991     75.554     56.092  41.769030     0.6342      7.302   110.1901 1.2375e-01    19.4419      5.160      7.484    12.2334 0.0000e+00
      5.275      0.040     8.0992     75.560     56.110  41.775855     0.6701      7.301   110.7739 1.2373e-01    19.5917      5.172      7.502    12.2347 0.0000e+00
      5.290      0.042     8.0953     75.536     56.110  41.770773     0.7841      7.300   111.0684 1.2373e-01    20.5942      5.187      7.523    12.2356 0.0000e+00
      5.306      0.043     8.0962     75.477     56.113  41.771047     0.9642      7.299   111.0844 1.2373e-01    22.4082      5.205      7.549    12.2351 0.0000e+00
      5.318      0.043     8.0984     75.358     56.124  41.779159     1.0672      7.299   111.3112 1.2369e-01    23.4533      5.218      7.568    12.2306 0.0000e+00
      5.323      0.042     8.1026     75.166     56.159  41.805386     1.1382      7.298   111.7461 1.2368e-01    24.0764      5.219      7.569    12.2226 0.0000e+00
      5.329      0.040     8.0999     74.922     56.283  41.897749     1.6151      7.298   112.1261 1.2374e-01    29.6684      5.222      7.575    12.2175 0.0000e+00
      5.342      0.039     8.0951     74.642     56.859  42.324678     2.4376      7.298   112.4640 1.2379e-01    39.7914      5.238      7.598    12.2167 0.0000e+00
      5.355      0.040     8.0840     74.391     58.161  43.285941     2.8692      7.298   112.8210 1.2379e-01    45.2594      5.253      7.619    12.2173 0.0000e+00
      5.365      0.041     8.0600     74.143     59.568  44.316504     2.9301      7.297   113.2588 1.2374e-01    45.9088      5.263      7.634    12.2178 0.0000e+00
      5.373      0.040     8.0361     73.737     60.188  44.755853     3.2983      7.296   113.7143 1.2371e-01    47.8478      5.269      7.643    12.2183 0.0000e+00
      5.383      0.035     8.0012     72.993     60.082  44.662420     3.9749      7.295   114.1978 1.2377e-01    51.3165      5.278      7.654    12.2178 0.0000e+00
      5.395      0.030     7.9741     71.597     60.151  44.710309     4.3364      7.294   114.7169 1.2382e-01    53.1771      5.293      7.676    12.2132 0.0000e+00
      5.404      0.025     7.9614     69.138     60.730  45.144413     4.3489      7.294   115.0863 1.2384e-01    53.2306      5.302      7.690    12.1975 0.0000e+00
      5.409      0.021     7.9236     65.431     61.330  45.594466     4.2759      7.293   115.3951 1.2384e-01    53.0216      5.305      7.694    12.1750 0.0000e+00
      5.411      0.016     7.8595     60.811     61.653  45.835141     3.4864      7.291   115.7827 1.2372e-01    51.5389      5.307      7.697    12.1604 0.0000e+00
      5.413      0.012     7.7283     55.997     61.730  45.895977     2.0356      7.290   116.1596 1.2368e-01    48.8644      5.310      7.701    12.1587 0.0000e+00
      5.416      0.009     7.4733     51.582     61.792  45.949139     1.2416      7.290   116.5106 1.2373e-01    47.4317      5.312      7.704    12.1667 0.0000e+00
      5.419      0.007     7.0625     47.869     62.242  46.287484     1.1691      7.290   116.9292 1.2373e-01    47.7429      5.314      7.708    12.1703 0.0000e+00
      5.421      0.006     6.5309     44.987     63.459  47.193542     1.2428      7.289   117.3489 1.2373e-01    53.3440      5.316      7.710    12.1672 0.0000e+00
      5.421      0.005     5.9941     43.120     64.645  48.079466     1.3995      7.287   117.7133 1.2375e-01    63.7453      5.316      7.711    12.1708 0.0000e+00
      5.422      0.004     5.5064     42.412     64.419  47.920281     1.4906      7.286   118.0653 1.2373e-01    69.3853      5.317      7.712    12.1795 0.0000e+00
      5.423      0.003     5.1074     42.694     63.145  46.983135     1.4867      7.285   118.4218 1.2373e-01    69.1364      5.317      7.712    12.1823 0.0000e+00
      5.424      0.003     4.7912     43.602     61.929  46.081289     1.2943      7.284   118.7543 1.2378e-01    60.6665      5.318      7.713    12.1808 0.0000e+00
      5.424      0.003     4.5784     44.801     61.188  45.523238     0.9377      7.284   119.0737 1.2379e-01    45.0994      5.319      7.715    12.1819 0.0000e+00
      5.425      0.002     4.5132     46.197     60.833  45.250992     0.7459      7.282   119.4442 1.2379e-01    36.6150      5.320      7.716    12.1902 0.0000e+00
      5.426      0.002     4.5551     47.838     60.519  45.011449     0.7230      7.281   119.7926 1.2379e-01    35.3851      5.321      7.717    12.2026 0.0000e+00
      5.426      0.002     4.6694     49.714     60.222  44.785288     0.5516      7.280   120.1026 1.2379e-01    29.4435      5.321      7.717    12.2054 0.0000e+00
      5.426      0.001     4.8001     51.754     60.162  44.738304     0.2387      7.279   120.4392 1.2377e-01    18.5766      5.321      7.718    12.1967 0.0000e+00
      5.426      0.001     4.9455     53.826     60.280  44.824252     0.0702      7.279   120.7654 1.2376e-01    12.6206      5.321      7.718    12.1888 0.0000e+00
      5.427      0.001     5.1250     55.852     60.347  44.872276     0.0456      7.279   121.0355 1.2379e-01    11.8807      5.322      7.718    12.1847 0.0000e+00
      5.427      0.001     5.3267     57.789     60.349  44.874592     0.0238      7.278   121.2962 1.2378e-01     9.2548      5.322      7.719    12.1801 0.0000e+00
      5.427      0.001     5.5545     59.555     60.394  44.915735    -0.0192      7.277   121.6797 1.2373e-01     4.4414      5.322      7.719    12.1782 0.0000e+00
      5.428      0.001     5.7785     61.064     60.560  45.052340    -0.0576      7.277   122.1449 1.2376e-01     1.7785      5.323      7.720    12.1778 0.0000e+00
      5.428      0.001     5.9964     62.265     60.733  45.193191    -0.0663      7.276   122.5329 1.2382e-01     1.4819      5.323      7.721    12.1753 0.0000e+00
      5.428      0.001     6.2091     63.169     60.588  45.095227    -0.0662      7.274   122.8439 1.2382e-01     1.5389      5.323      7.720    12.1743 0.0000e+00
      5.428      0.000     6.4006     63.816     60.113  44.756607    -0.0557      7.274   123.1509 1.2377e-01     3.0137      5.323      7.720    12.1798 0.0000e+00
      5.428 1.8936e-08     6.5633     64.250     59.599  44.399951    -0.0474      7.273   123.4922 1.2373e-01     5.7183      5.323      7.720    12.1935 0.0000e+00
      5.428 2.0829e-07     6.6890     64.513     59.219  44.147368    -0.0577      7.272   123.8722 1.2372e-01     7.1508      5.323      7.721    12.2060 0.0000e+00
      5.428 2.4216e-07     6.7839     64.655     58.974  43.987907    -0.0633      7.271   124.2182 1.2374e-01     7.3883      5.324      7.721    12.2099 0.0000e+00
      5.428 4.2844e-07     6.8497     64.750     58.803  43.868452    -0.0572      7.271   124.4918 1.2376e-01     8.9308      5.323      7.720    12.2198 0.0000e+00
      5.428      0.000     6.8914     64.867     58.697  43.782165    -0.0498      7.270   124.8577 1.2376e-01    11.6937      5.323      7.720    12.2446 0.0000e+00
      5.428      0.000     6.9128     65.050     58.618  43.706333    -0.0578      7.270   125.2869 1.2376e-01    13.1256      5.323      7.720    12.2746 0.0000e+00
      5.428      0.001     6.9222     65.341     58.479  43.586330    -0.0710      7.269   125.6374 1.2371e-01    12.9554      5.323      7.721    12.2962 0.0000e+00
      5.428      0.001     6.9276     65.734     58.257  43.410292    -0.0679      7.269   125.9981 1.2370e-01    10.4893      5.323      7.721    12.3033 0.0000e+00
      5.429      0.001     6.9409     66.155     58.013  43.228223    -0.0613      7.268   126.3789 1.2374e-01     6.0923      5.324      7.722    12.2950 0.0000e+00
      5.429      0.001     6.9610     66.530     57.823  43.098788    -0.0492      7.266   126.7996 1.2370e-01     3.7560      5.324      7.722    12.2776 0.0000e+00
      5.429      0.001     6.9937     66.696     57.747  43.051333    -0.0385      7.265   127.0407 1.2368e-01     3.5910      5.324      7.722    12.2609 0.0000e+00
      5.429 -9.990e-29     7.0429 -9.990e-29 -9.990e-29 -9.990e-29 -9.990e-29 -9.990e-29 -9.990e-29 1.2375e-01 -9.990e-29      5.325      7.723    12.2524 0.0000e+00
      5.429 -9.990e-29     7.0883 -9.990e-29 -9.990e-29 -9.990e-29 -9.990e-29 -9.990e-29 -9.990e-29 1.2380e-01 -9.990e-29      5.324      7.722    12.2486 0.0000e+00
      5.429 -9.990e-29     7.1330 -9.990e-29 -9.990e-29 -9.990e-29 -9.990e-29 -9.990e-29 -9.990e-29 1.2380e-01 -9.990e-29      5.324      7.722    12.2647 0.0000e+00
      5.429 -9.990e-29     7.1575 -9.990e-29 -9.990e-29 -9.990e-29 -9.990e-29 -9.990e-29 -9.990e-29 1.2380e-01 -9.990e-29      5.325      7.724    12.2839 0.0000e+00
