* Sea-Bird SBE19plus  Data File:
* FileName = C:\DATA\073018_fcr50_0004.hex
* Software version 2.6.3.104 SB_Terminal.dll
* Temperature SN = 7809
* Conductivity SN = 7809
* System UpLoad Time = Jul 30 2018 16:26:27
* <ApplicationData>
* <Seaterm232>
* <SoftwareVersion>2.6.3.104</SoftwareVersion>
* <BuildDate>30-Jun-2017</BuildDate>
* </Seaterm232>
* </ApplicationData>
* cast   4 30 Jul 2018 13:37:22 samples 1889 to 2291, avg = 1, stop = mag switch
# nquan = 15
# nvalues = 303                         
# units = specified
# name 0 = depFM: Depth [fresh water, m]
# name 1 = dz/dtM: Descent Rate [m/s]
# name 2 = sbeox0Mg/L: Oxygen, SBE 43 [mg/l]
# name 3 = sbeox0PS: Oxygen, SBE 43 [% saturation]
# name 4 = specc: Specific Conductance [uS/cm]
# name 5 = c0uS/cm: Conductivity [uS/cm]
# name 6 = flECO-AFL: Fluorescence, WET Labs ECO-AFL/FL [mg/m^3]
# name 7 = ph: pH
# name 8 = orp: Oxidation Reduction Potential [mV]
# name 9 = par/sat/log: PAR/Logarithmic, Satlantic
# name 10 = turbWETntu0: Turbidity, WET Labs ECO [NTU]
# name 11 = prdM: Pressure, Strain Gauge [db]
# name 12 = prdE: Pressure, Strain Gauge [psi]
# name 13 = tv290C: Temperature [ITS-90, deg C]
# name 14 = flag:  0.000e+00
# span 0 =     -0.554,      3.408       
# span 1 =     -0.049,      0.232       
# span 2 =    -0.2950,    10.2796       
# span 3 =     -3.182,    125.226       
# span 4 =      0.927,    109.540       
# span 5 =   0.874991,  91.338681       
# span 6 =    -0.1890,     7.2867       
# span 7 =      6.184,      8.923       
# span 8 =    31.8247,   361.3625       
# span 9 = 9.9073e-01, 1.8668e+02       
# span 10 =    -0.1660,     8.6191      
# span 11 =     -0.544,      3.344      
# span 12 =     -0.789,      4.850      
# span 13 =    16.6434,    25.3760      
# span 14 = 0.0000e+00, 0.0000e+00      
# interval = seconds: 0.25
# start_time = Jul 30 2018 13:37:22 [Instrument's time stamp, header]
# bad_flag = -9.990e-29
# <Sensors count="9" >
#   <sensor Channel="1" >
#     <!-- Count, Temperature -->
#     <TemperatureSensor SensorID="58" >
#       <SerialNumber>7809</SerialNumber>
#       <CalibrationDate>09-Mar-18</CalibrationDate>
#       <A0>1.21093245e-003</A0>
#       <A1>2.84356597e-004</A1>
#       <A2>-1.94507398e-006</A2>
#       <A3>2.12806664e-007</A3>
#       <Slope>1.00000000</Slope>
#       <Offset>0.0000</Offset>
#     </TemperatureSensor>
#   </sensor>
#   <sensor Channel="2" >
#     <!-- Frequency 0, Conductivity -->
#     <ConductivitySensor SensorID="3" >
#       <SerialNumber>7809</SerialNumber>
#       <CalibrationDate>09-Mar-18</CalibrationDate>
#       <UseG_J>1</UseG_J>
#       <!-- Cell const and series R are applicable only for wide range sensors. -->
#       <SeriesR>0.0000</SeriesR>
#       <CellConst>2000.0000</CellConst>
#       <ConductivityType>0</ConductivityType>
#       <Coefficients equation="0" >
#         <A>0.00000000e+000</A>
#         <B>0.00000000e+000</B>
#         <C>0.00000000e+000</C>
#         <D>0.00000000e+000</D>
#         <M>0.0</M>
#         <CPcor>-9.57000000e-008</CPcor>
#       </Coefficients>
#       <Coefficients equation="1" >
#         <G>-1.00672082e+000</G>
#         <H>1.26906489e-001</H>
#         <I>-1.40584351e-004</I>
#         <J>2.47837121e-005</J>
#         <CPcor>-9.57000000e-008</CPcor>
#         <CTcor>3.2500e-006</CTcor>
#         <!-- WBOTC not applicable unless ConductivityType = 1. -->
#         <WBOTC>0.00000000e+000</WBOTC>
#       </Coefficients>
#       <Slope>1.00000000</Slope>
#       <Offset>0.00000</Offset>
#     </ConductivitySensor>
#   </sensor>
#   <sensor Channel="3" >
#     <!-- Count, Pressure, Strain Gauge -->
#     <PressureSensor SensorID="46" >
#       <SerialNumber>7809</SerialNumber>
#       <CalibrationDate>07-Mar-18</CalibrationDate>
#       <PA0>-4.08176359e-002</PA0>
#       <PA1>4.85188419e-004</PA1>
#       <PA2>-3.51168169e-012</PA2>
#       <PTEMPA0>-5.37806900e+001</PTEMPA0>
#       <PTEMPA1>5.36620721e+001</PTEMPA1>
#       <PTEMPA2>4.87214332e-002</PTEMPA2>
#       <PTCA0>5.25213435e+005</PTCA0>
#       <PTCA1>1.79532409e+000</PTCA1>
#       <PTCA2>-2.84353509e-001</PTCA2>
#       <PTCB0>2.51668750e+001</PTCB0>
#       <PTCB1>3.75000000e-004</PTCB1>
#       <PTCB2>0.00000000e+000</PTCB2>
#       <Offset>0.000000</Offset>
#     </PressureSensor>
#   </sensor>
#   <sensor Channel="4" >
#     <!-- A/D voltage 0, pH -->
#     <pH_Sensor SensorID="43" >
#       <SerialNumber>0363</SerialNumber>
#       <CalibrationDate>16-Mar-18</CalibrationDate>
#       <Slope>4.6194</Slope>
#       <Offset>2.5947</Offset>
#     </pH_Sensor>
#   </sensor>
#   <sensor Channel="5" >
#     <!-- A/D voltage 1, Oxidation Reduction Potential -->
#     <OxidationReductionPotentialSensor SensorID="41" >
#       <SerialNumber>0363</SerialNumber>
#       <CalibrationDate>16-Mar-18</CalibrationDate>
#       <B>2.499480</B>
#       <M>-0.496195</M>
#       <Offset>0.0</Offset>
#     </OxidationReductionPotentialSensor>
#   </sensor>
#   <sensor Channel="6" >
#     <!-- A/D voltage 2, Oxygen, SBE 43 -->
#     <OxygenSensor SensorID="38" >
#       <SerialNumber>0434</SerialNumber>
#       <CalibrationDate>13-Mar-18</CalibrationDate>
#       <Use2007Equation>1</Use2007Equation>
#       <CalibrationCoefficients equation="0" >
#         <!-- Coefficients for Owens-Millard equation. -->
#         <Boc>0.0000</Boc>
#         <Soc>0.0000e+000</Soc>
#         <offset>0.0000</offset>
#         <Pcor>0.00e+000</Pcor>
#         <Tcor>0.0000</Tcor>
#         <Tau>0.0</Tau>
#       </CalibrationCoefficients>
#       <CalibrationCoefficients equation="1" >
#         <!-- Coefficients for Sea-Bird equation - SBE calibration in 2007 and later. -->
#         <Soc>4.5718e-001</Soc>
#         <offset>-0.6113</offset>
#         <A>-4.0649e-003</A>
#         <B> 2.0945e-004</B>
#         <C>-3.3182e-006</C>
#         <D0> 2.5826e+000</D0>
#         <D1> 1.92634e-004</D1>
#         <D2>-4.64803e-002</D2>
#         <E> 3.6000e-002</E>
#         <Tau20> 1.2200</Tau20>
#         <H1>-3.3000e-002</H1>
#         <H2> 5.0000e+003</H2>
#         <H3> 1.4500e+003</H3>
#       </CalibrationCoefficients>
#     </OxygenSensor>
#   </sensor>
#   <sensor Channel="7" >
#     <!-- A/D voltage 3, PAR/Logarithmic, Satlantic -->
#     <PARLog_SatlanticSensor SensorID="76" >
#       <SerialNumber>1122</SerialNumber>
#       <CalibrationDate>22-Jun-2017</CalibrationDate>
#       <a0>9.6090e-001</a0>
#       <a1>8.0780e-001</a1>
#       <Im>1.3589e+000</Im>
#       <Multiplier>1.0000e+000</Multiplier>
#     </PARLog_SatlanticSensor>
#   </sensor>
#   <sensor Channel="8" >
#     <!-- A/D voltage 4, Fluorometer, WET Labs ECO-AFL/FL -->
#     <FluoroWetlabECO_AFL_FL_Sensor SensorID="20" >
#       <SerialNumber>FLNTURT-2496</SerialNumber>
#       <CalibrationDate>25-Jan-2017</CalibrationDate>
#       <ScaleFactor>5.30000000e+001</ScaleFactor>
#       <!-- Dark output -->
#       <Vblank>0.0560</Vblank>
#     </FluoroWetlabECO_AFL_FL_Sensor>
#   </sensor>
#   <sensor Channel="9" >
#     <!-- A/D voltage 5, Turbidity Meter, WET Labs, ECO-NTU -->
#     <TurbidityMeter SensorID="67" >
#       <SerialNumber>FLNTURT-2496</SerialNumber>
#       <CalibrationDate>25-Jan-2017</CalibrationDate>
#       <ScaleFactor>176.000000</ScaleFactor>
#       <!-- Dark output -->
#       <DarkVoltage>0.072000</DarkVoltage>
#     </TurbidityMeter>
#   </sensor>
# </Sensors>
# datcnv_date = Jul 30 2018 16:35:50, 7.26.7.114 [datcnv_vars = 14]
# datcnv_in = C:\DATA\073018_fcr20.hex C:\DATA\SBE19plusV2_7809.xmlcon
# datcnv_skipover = 0
# datcnv_ox_hysteresis_correction = yes
# datcnv_ox_tau_correction = yes
# filter_date = Jul 30 2018 16:36:33, 7.26.7.114
# filter_in = C:\DATA\073018_fcr20.cnv
# filter_low_pass_tc_A = 0.030
# filter_low_pass_tc_B = 0.150
# filter_low_pass_A_vars = prdM prdE tv290C
# filter_low_pass_B_vars = depFM dz/dtM sbeox0Mg/L sbeox0PS specc c0uS/cm flECO-AFL ph orp par/sat/log turbWETntu0
# alignctd_date = Jul 30 2018 16:36:57, 7.26.7.114
# alignctd_in = C:\DATA\073018_fcr20.cnv
# alignctd_adv = dz/dtM 1.000, sbeox0Mg/L 1.000, sbeox0PS 1.000, specc 1.000, c0uS/cm 1.000, flECO-AFL 1.000, ph 1.000, orp 1.000, turbWETntu0 1.000                                                                                 
# file_type = ascii
*END*
     -0.554 -8.668e-16     8.6975     99.805      0.927   0.874991    -0.1827      6.196   314.5470 1.2032e+02    -0.0079     -0.543     -0.787    22.1694 0.0000e+00
     -0.554 -9.535e-15     8.6924     99.746      0.940   0.887559    -0.1890      6.194   322.3079 1.2139e+02    -0.0423     -0.542     -0.786    22.1694 0.0000e+00
     -0.554 -1.049e-13     8.6874     99.688      0.967   0.912695    -0.1862      6.190   337.2395 1.2248e+02    -0.0091     -0.543     -0.787    22.1694 0.0000e+00
     -0.554 -1.154e-12     8.6923     99.744      0.981   0.925263    -0.1764      6.185   348.3860 1.2329e+02     0.0280     -0.543     -0.787    22.1693 0.0000e+00
     -0.553 -1.269e-11     8.6987     99.819      0.968   0.912695    -0.1717      6.184   356.6717 1.2430e+02     0.0097     -0.543     -0.787    22.1694 0.0000e+00
     -0.553 -1.396e-10     8.7033     99.871      0.941   0.887560    -0.1756      6.184   361.3625 1.2236e+02    -0.0169     -0.543     -0.787    22.1695 0.0000e+00
     -0.554 -1.536e-09     8.7053     99.894      0.927   0.875008    -0.1774      6.188   350.8979 1.1726e+02    -0.0198     -0.543     -0.788    22.1695 0.0000e+00
     -0.554 -1.689e-08     8.7021     99.856      0.940   0.887756    -0.1746      6.194   317.3028 1.1326e+02    -0.0244     -0.543     -0.788    22.1698 0.0000e+00
     -0.554 -1.858e-07     8.7007     99.840      0.970   0.914867    -0.1789      6.199   275.7483 1.1411e+02    -0.0425     -0.543     -0.788    22.1696 0.0000e+00
     -0.554 -1.810e-07     8.7045     99.883      1.007   0.949153    -0.1838      6.204   254.1417 1.1861e+02    -0.0561     -0.543     -0.788    22.1697 0.0000e+00
     -0.554 4.1596e-08     8.7035     99.872      1.112   1.048655    -0.1782      6.210   250.7660 1.2164e+02    -0.0061     -0.543     -0.788    22.1694 0.0000e+00
     -0.554 6.4230e-07     8.6984     99.814      1.438   1.356989    -0.1753      6.215   252.8288 1.2137e+02     0.1046     -0.543     -0.787    22.1699 0.0000e+00
     -0.554      0.000     8.6996     99.827      1.865   1.760131    -0.1765      6.218   252.7543 1.1827e+02     0.1845     -0.544     -0.788    22.1689 0.0000e+00
     -0.554      0.000     8.7029     99.867      2.110   1.991300    -0.1741      6.222   248.3168 1.1307e+02     0.2274     -0.544     -0.789    22.1696 0.0000e+00
     -0.554      0.001     8.7009     99.882      2.248   2.122740    -0.1738      6.225   249.6814 1.0922e+02     0.2267     -0.543     -0.787    22.1675 0.0000e+00
     -0.554      0.004     8.6759     99.893      2.723   2.588366    -0.1738      6.227   263.2310 1.1049e+02     0.0847     -0.543     -0.788    22.1707 0.0000e+00
     -0.554      0.014     8.6045     99.889      6.582   6.352816    -0.1738      6.243   277.1477 1.1540e+02    -0.1169     -0.544     -0.789    22.1652 0.0000e+00
     -0.554      0.031     8.5075     99.864     16.680  16.237157    -0.1740      6.379   277.9608 1.2006e+02    -0.1660     -0.543     -0.788    22.1738 0.0000e+00
     -0.550      0.057     8.4239     99.799     28.138  27.552572    -0.1389      6.777   259.8128 1.2451e+02     0.0400     -0.542     -0.786    22.1593 0.0000e+00
     -0.539      0.092     8.3640     99.712     34.343  33.801737     0.2420      7.353   232.8977 1.3114e+02     2.1900     -0.533     -0.774    22.2092 0.0000e+00
     -0.515      0.133     8.3244     99.680     35.821  35.412288     0.9300      7.866   213.8342 1.4432e+02     6.1770     -0.511     -0.742    22.7125 0.0000e+00
     -0.474      0.170     8.2981     99.733     35.861  35.593278     1.3048      8.206   195.7172 1.6152e+02     8.3897     -0.471     -0.683    23.4293 0.0000e+00
     -0.418      0.196     8.2861     99.912     35.751  35.609144     1.3554      8.406   178.7844 1.7259e+02     8.6191     -0.414     -0.601    23.9080 0.0000e+00
     -0.351      0.209     8.2834    100.129     35.650  35.604304     1.4684      8.521   169.9939 1.7790e+02     8.5536     -0.345     -0.500    24.2178 0.0000e+00
     -0.281      0.212     8.2819    100.296     35.510  35.534902     2.6068      8.594   167.2109 1.8268e+02     7.4747     -0.270     -0.391    24.4297 0.0000e+00
     -0.225      0.207     8.2898    100.533     35.326  35.405327     4.6893      8.640   167.8499 1.8668e+02     5.5238     -0.212     -0.308    24.6238 0.0000e+00
     -0.187      0.193     8.3117    100.883     35.196  35.308126     5.8316      8.663   168.4283 1.8632e+02     4.4964     -0.184     -0.268    24.8144 0.0000e+00
     -0.147      0.177     8.3465    101.309     35.136  35.248988     5.9593      8.671   167.6643 1.7738e+02     4.4222     -0.152     -0.221    24.9409 0.0000e+00
     -0.097      0.159     8.3914    101.783     35.112  35.198458     6.0130      8.671   166.0124 1.6468e+02     4.3512     -0.092     -0.133    25.0365 0.0000e+00
     -0.051      0.139     8.4382    102.245     35.095  35.141782     6.0582      8.670   165.5775 1.5463e+02     4.2192     -0.046     -0.067    25.1177 0.0000e+00
     -0.014      0.112     8.4795    102.647     35.062  35.071814     6.0737      8.673   165.6752 1.3867e+02     4.1374     -0.014     -0.023    25.1684 0.0000e+00
      0.017      0.077     8.5133    102.983     35.068  35.051154     6.0717      8.681   165.6451 1.1695e+02     4.1557      0.022      0.032    25.1702 0.0000e+00
      0.036      0.037     8.5362    103.206     35.183  35.146021     6.0617      8.693   166.6765 1.0519e+02     4.1352      0.043      0.062    25.1242 0.0000e+00
      0.037      0.004     8.5434    103.284     35.434  35.393052     6.0448      8.708   167.9078 1.0694e+02     4.0430      0.041      0.059    25.0571 0.0000e+00
      0.021     -0.016     8.5536    103.472     35.895  35.878267     6.0327      8.721   168.4865 1.1614e+02     3.9860      0.025      0.036    25.0013 0.0000e+00
     -0.002     -0.025     8.5866    103.978     36.415  36.439157     6.0161      8.727   168.7700 1.2477e+02     3.9651     -0.005     -0.007    24.9687 0.0000e+00
     -0.017     -0.023     8.6195    104.478     36.649  36.711800     5.9918      8.726   168.6675 1.2842e+02     3.9738     -0.023     -0.032    24.9349 0.0000e+00
     -0.020     -0.016     8.6232    104.605     36.604  36.697395     5.9692      8.725   168.2800 1.2894e+02     3.9690     -0.022     -0.031    24.9182 0.0000e+00
     -0.013     -0.007     8.6000    104.389     36.464  36.582662     5.9532      8.731   168.3008 1.2820e+02     3.9371     -0.014     -0.021    24.9619 0.0000e+00
     -0.004     -0.002     8.5542    103.881     36.332  36.468055     5.9454      8.746   169.0049 1.2753e+02     3.9541     -0.001     -0.002    25.0299 0.0000e+00
     -0.001     -0.001     8.4862    103.089     36.306  36.455155     5.9213      8.763   169.6519 1.2745e+02     3.9916      0.004      0.005    25.0826 0.0000e+00
     -0.007     -0.002     8.4072    102.150     36.460  36.617294     5.8729      8.777   170.2719 1.2808e+02     3.9944     -0.006     -0.009    25.1247 0.0000e+00
     -0.016     -0.004     8.3309    101.235     36.741  36.903882     5.8477      8.789   171.0817 1.2901e+02     3.9577     -0.018     -0.025    25.1598 0.0000e+00
     -0.020     -0.004     8.2754    100.567     36.958  37.125162     5.8461      8.800   171.2685 1.2980e+02     3.9140     -0.022     -0.032    25.1846 0.0000e+00
     -0.018     -0.002     8.2515    100.279     37.028  37.196427     5.8353      8.810   170.7240 1.3020e+02     3.9237     -0.019     -0.028    25.2008 0.0000e+00
     -0.013      0.002     8.2461    100.211     37.027  37.193806     5.8647      8.817   170.3488 1.3014e+02     4.0142     -0.011     -0.016    25.2119 0.0000e+00
     -0.009      0.005     8.2391    100.123     37.054  37.220522     5.9532      8.822   170.7767 1.2995e+02     4.1527     -0.008     -0.011    25.2171 0.0000e+00
     -0.009      0.006     8.2240     99.943     37.224  37.392393     6.0130      8.827   171.3375 1.2988e+02     4.2254     -0.009     -0.013    25.2201 0.0000e+00
     -0.009      0.007     8.2001     99.658     37.512  37.683698     6.0183      8.830   171.4502 1.2985e+02     4.1907     -0.009     -0.013    25.2221 0.0000e+00
     -0.009      0.007     8.1630     99.208     37.585  37.756868     5.9802      8.829   171.2794 1.2969e+02     4.0998     -0.010     -0.015    25.2194 0.0000e+00
     -0.008      0.002     8.1116     98.571     37.285  37.451222     5.9198      8.823   170.6488 1.2929e+02     4.0113     -0.009     -0.013    25.2164 0.0000e+00
     -0.005     -0.011     8.0448     97.737     37.325  37.482159     5.8948      8.822   170.0205 1.2830e+02     3.9752     -0.005     -0.008    25.2204 0.0000e+00
      0.001     -0.027     7.9678     96.783     38.043  38.194383     5.8890      8.832   170.1354 1.2702e+02     3.9687      0.002      0.002    25.2238 0.0000e+00
      0.001     -0.041     7.8944     95.875     38.483  38.629770     5.8229      8.845   170.6615 1.2824e+02     3.9629      0.009      0.013    25.2275 0.0000e+00
     -0.017     -0.049     7.8341     95.129     38.097  38.235833     5.7108      8.850   170.9613 1.3471e+02     3.9665     -0.007     -0.011    25.2189 0.0000e+00
     -0.052     -0.049     7.7884     94.567     37.427  37.560746     5.6550      8.852   171.0924 1.4233e+02     3.9819     -0.055     -0.080    25.2015 0.0000e+00
     -0.080     -0.044     7.7570     94.158     37.081  37.201413     5.6535      8.854   171.3012 1.4490e+02     3.9969     -0.089     -0.130    25.1943 0.0000e+00
     -0.086     -0.032     7.7389     93.852     37.111  37.194615     5.6843      8.856   171.4204 1.4380e+02     4.0562     -0.089     -0.129    25.1845 0.0000e+00
     -0.079     -0.016     7.7287     93.607     37.320  37.351430     5.7427      8.861   171.5009 1.4261e+02     4.1497     -0.078     -0.113    25.1727 0.0000e+00
     -0.072      0.000     7.7195     93.402     37.519  37.509195     5.7707      8.866   171.7584 1.4206e+02     4.1807     -0.069     -0.100    25.1742 0.0000e+00
     -0.071      0.010     7.7015     93.137     37.544  37.513910     5.7648      8.870   171.9537 1.4150e+02     4.1864     -0.067     -0.098    25.1740 0.0000e+00
     -0.072      0.013     7.6649     92.672     37.511  37.471931     5.7635      8.872   171.9687 1.4083e+02     4.2187     -0.070     -0.103    25.1176 0.0000e+00
     -0.071      0.012     7.6084     91.976     37.555  37.509840     5.7648      8.872   172.0256 1.4068e+02     4.2361     -0.072     -0.104    25.0263 0.0000e+00
     -0.066      0.010     7.5382     91.122     37.575  37.527563     5.7613      8.872   172.1255 1.4063e+02     4.2437     -0.065     -0.095    24.9687 0.0000e+00
     -0.059      0.009     7.4617     90.196     37.544  37.495639     5.7586      8.874   172.4020 1.4036e+02     4.2502     -0.057     -0.083    24.9508 0.0000e+00
     -0.055      0.010     7.3817     89.227     37.491  37.441487     5.7592      8.875   172.8732 1.3989e+02     4.2229     -0.053     -0.077    24.9407 0.0000e+00
     -0.055      0.012     7.2991     88.224     37.432  37.381031     5.7690      8.870   173.1776 1.3919e+02     4.2494     -0.052     -0.076    24.9314 0.0000e+00
     -0.058      0.012     7.2178     87.237     37.454  37.399932     5.7757      8.864   173.3287 1.3814e+02     4.3564     -0.058     -0.083    24.9304 0.0000e+00
     -0.057      0.011     7.1429     86.328     37.599  37.542968     5.7761      8.860   173.4963 1.3661e+02     4.3875     -0.060     -0.086    24.9298 0.0000e+00
     -0.048      0.008     7.0749     85.512     37.829  37.776388     5.7735      8.860   173.5692 1.3536e+02     4.3811     -0.046     -0.067    24.9289 0.0000e+00
     -0.039      0.004     7.0185     84.859     38.038  37.998701     5.7820      8.865   173.6076 1.3527e+02     4.3709     -0.034     -0.048    24.9265 0.0000e+00
     -0.038      0.000     6.9830     84.484     38.147  38.134514     5.8054      8.871   173.7880 1.3619e+02     4.2947     -0.036     -0.051    24.9224 0.0000e+00
     -0.043     -0.004     6.9691     84.382     38.192  38.211480     5.8172      8.876   174.1159 1.3762e+02     4.2230     -0.043     -0.061    24.9189 0.0000e+00
     -0.051     -0.008     6.9698     84.448     38.182  38.230505     5.8233      8.880   174.4748 1.3880e+02     4.1751     -0.050     -0.072    24.9185 0.0000e+00
     -0.056     -0.009     6.9759     84.566     38.104  38.174009     5.8243      8.882   174.7717 1.3940e+02     4.1735     -0.056     -0.081    24.9351 0.0000e+00
     -0.056     -0.007     6.9814     84.670     38.012  38.100189     5.8199      8.881   175.1251 1.3978e+02     4.2035     -0.057     -0.082    24.9749 0.0000e+00
     -0.055     -0.004     6.9889     84.796     37.932  38.036800     5.8252      8.880   175.4781 1.3998e+02     4.2028     -0.054     -0.078    25.0229 0.0000e+00
     -0.054     -0.001     7.0048     85.023     37.858  37.979372     5.8336      8.880   175.6838 1.4011e+02     4.1946     -0.052     -0.075    25.0612 0.0000e+00
     -0.055      0.000     7.0357     85.426     37.780  37.914091     5.8657      8.879   175.9781 1.4035e+02     4.1957     -0.053     -0.077    25.0871 0.0000e+00
     -0.056      0.000     7.0847     86.043     37.675  37.819275     5.9289      8.878   176.4547 1.4066e+02     4.2170     -0.055     -0.080    25.1098 0.0000e+00
     -0.056     -0.001     7.1492     86.842     37.571  37.722369     5.9638      8.876   176.8010 1.4111e+02     4.2389     -0.055     -0.080    25.1327 0.0000e+00
     -0.055     -0.001     7.2219     87.736     37.476  37.631816     5.9652      8.873   176.8950 1.4157e+02     4.2162     -0.054     -0.078    25.1549 0.0000e+00
     -0.055     -0.000     7.2924     88.602     37.390  37.550271     5.9827      8.872   176.9891 1.4187e+02     4.1865     -0.054     -0.078    25.1737 0.0000e+00
     -0.055      0.001     7.3567     89.393     37.335  37.498757     6.0112      8.872   177.2505 1.4203e+02     4.1847     -0.055     -0.079    25.1870 0.0000e+00
     -0.055      0.001     7.4146     90.104     37.286  37.453667     6.0238      8.874   177.5602 1.4218e+02     4.1638     -0.054     -0.080    25.1962 0.0000e+00
     -0.055      0.001     7.4617     90.684     37.216  37.386267     6.0241      8.875   177.8078 1.4236e+02     4.1474     -0.053     -0.078    25.2023 0.0000e+00
     -0.055      0.001     7.4958     91.104     37.147  37.319107     6.0148      8.876   178.0074 1.4250e+02     4.1697     -0.054     -0.077    25.2078 0.0000e+00
     -0.054      0.001     7.5193     91.391     37.104  37.276902     6.0035      8.877   178.1673 1.4255e+02     4.1894     -0.053     -0.078    25.2139 0.0000e+00
     -0.053      0.001     7.5338     91.564     37.086  37.257143     6.0074      8.879   178.3644 1.4264e+02     4.2019     -0.052     -0.076    25.2191 0.0000e+00
     -0.053      0.000     7.5381     91.603     37.042  37.207251     6.0169      8.879   178.5838 1.4274e+02     4.1993     -0.052     -0.076    25.2227 0.0000e+00
     -0.054 -4.064e-07     7.5311     91.489     36.966  37.118345     6.0164      8.880   178.6698 1.4287e+02     4.1881     -0.053     -0.076    25.2258 0.0000e+00
     -0.054      0.000     7.5113     91.211     36.936  37.071538     5.9915      8.880   178.7152 1.4305e+02     4.1889     -0.053     -0.077    25.2280 0.0000e+00
     -0.055      0.000     7.4788     90.785     36.964  37.085966     5.9555      8.880   178.8751 1.4320e+02     4.2088     -0.054     -0.078    25.2275 0.0000e+00
     -0.055     -0.001     7.4378     90.267     36.988  37.102205     5.9394      8.882   179.0540 1.4335e+02     4.2454     -0.054     -0.079    25.2210 0.0000e+00
     -0.055     -0.001     7.3924     89.707     36.968  37.077282     5.9437      8.884   179.2438 1.4351e+02     4.2352     -0.054     -0.078    25.2026 0.0000e+00
     -0.055      0.000     7.3450     89.127     36.933  37.038724     5.9615      8.884   179.4491 1.4356e+02     4.1772     -0.053     -0.077    25.1767 0.0000e+00
     -0.055 3.3843e-09     7.2983     88.555     36.913  37.017157     5.9707      8.883   179.5574 1.4350e+02     4.1541     -0.053     -0.076    25.1561 0.0000e+00
     -0.055 3.7227e-08     7.2564     88.044     36.905  37.007087     5.9636      8.880   179.6927 1.4327e+02     4.1697     -0.055     -0.079    25.1456 0.0000e+00
     -0.055 4.0950e-07     7.2207     87.606     36.880  36.980498     5.9589      8.873   179.8802 1.4291e+02     4.1826     -0.055     -0.080    25.1410 0.0000e+00
     -0.054      0.000     7.1858     87.175     36.853  36.949763     5.9681      8.865   180.0178 1.4266e+02     4.1873     -0.053     -0.077    25.1377 0.0000e+00
     -0.054      0.000     7.1478     86.701     36.861  36.953099     5.9835      8.858   180.1523 1.4266e+02     4.1973     -0.053     -0.078    25.1351 0.0000e+00
     -0.054      0.001     7.1093     86.225     36.870  36.957299     5.9790      8.857   180.3015 1.4297e+02     4.2109     -0.052     -0.076    25.1336 0.0000e+00
     -0.054      0.001     7.0724     85.773     36.851  36.937019     5.9605      8.858   180.4446 1.4330e+02     4.1993     -0.052     -0.074    25.1314 0.0000e+00
     -0.055      0.001     7.0361     85.333     36.814  36.898467     5.9520      8.861   180.5921 1.4337e+02     4.1788     -0.055     -0.080    25.1264 0.0000e+00
     -0.055      0.000     7.0005     84.898     36.790  36.872326     5.9591      8.864   180.7943 1.4333e+02     4.1775     -0.054     -0.079    25.1184 0.0000e+00
     -0.053 3.3703e-10     6.9635     84.440     36.797  36.875042     5.9645      8.868   181.0830 1.4349e+02     4.1837     -0.052     -0.075    25.1112 0.0000e+00
     -0.053 3.7074e-09     6.9249     83.961     36.794  36.867778     5.9529      8.871   181.3294 1.4385e+02     4.1929     -0.052     -0.075    25.1091 0.0000e+00
     -0.053 4.0781e-08     6.8872     83.495     36.779  36.848013     5.9654      8.875   181.4503 1.4410e+02     4.1967     -0.051     -0.074    25.1102 0.0000e+00
     -0.054 4.4859e-07     6.8507     83.045     36.761  36.826635     6.0231      8.877   181.5981 1.4416e+02     4.1989     -0.053     -0.079    25.1077 0.0000e+00
     -0.055      0.000     6.8145     82.598     36.737  36.799871     6.0719      8.878   181.8264 1.4418e+02     4.1895     -0.054     -0.078    25.1007 0.0000e+00
     -0.054      0.000     6.7767     82.131     36.721  36.778503     6.0869      8.880   181.9729 1.4406e+02     4.1746     -0.053     -0.077    25.0933 0.0000e+00
     -0.053      0.001     6.7383     81.656     36.706  36.758852     6.0753      8.883   181.9929 1.4392e+02     4.2020     -0.052     -0.075    25.0879 0.0000e+00
     -0.053      0.002     6.7018     81.204     36.705  36.752848     6.0419      8.884   182.0684 1.4398e+02     4.2146     -0.051     -0.075    25.0833 0.0000e+00
     -0.053      0.002     6.6662     80.762     36.726  36.769429     6.0147      8.884   182.2833 1.4411e+02     4.1742     -0.053     -0.077    25.0786 0.0000e+00
     -0.053      0.002     6.6308     80.326     36.730  36.768739     6.0122      8.886   182.5262 1.4423e+02     4.1717     -0.053     -0.076    25.0734 0.0000e+00
     -0.052      0.002     6.5969     79.906     36.710  36.744502     6.0216      8.887   182.6822 1.4431e+02     4.2151     -0.051     -0.074    25.0665 0.0000e+00
     -0.051      0.003     6.5642     79.501     36.700  36.730481     6.0827      8.887   182.7933 1.4424e+02     4.1802     -0.050     -0.073    25.0592 0.0000e+00
     -0.050      0.003     6.5318     79.102     36.700  36.726252     6.1996      8.887   183.0095 1.4418e+02     4.0543     -0.050     -0.072    25.0528 0.0000e+00
     -0.049      0.002     6.5008     78.719     36.670  36.693365     6.2683      8.887   183.1455 1.4436e+02     3.9757     -0.048     -0.069    25.0471 0.0000e+00
     -0.049      0.000     6.4711     78.351     36.631  36.650462     6.2789      8.886   183.1465 1.4461e+02     3.9621     -0.047     -0.069    25.0416 0.0000e+00
     -0.049     -0.001     6.4426     77.999     36.637  36.652192     6.2626      8.884   183.3659 1.4491e+02     3.9511     -0.048     -0.070    25.0360 0.0000e+00
     -0.049     -0.002     6.4169     77.679     36.640  36.650752     6.2278      8.878   183.6474 1.4515e+02     3.9336     -0.048     -0.069    25.0305 0.0000e+00
     -0.050     -0.002     6.3922     77.372     36.626  36.633037     6.2162      8.870   183.7957 1.4517e+02     3.9340     -0.049     -0.071    25.0254 0.0000e+00
     -0.052     -0.001     6.3678     77.068     36.626  36.628574     6.2236      8.863   183.9542 1.4517e+02     3.9857     -0.052     -0.075    25.0202 0.0000e+00
     -0.052     -0.001     6.3444     76.778     36.598  36.596787     6.2077      8.860   184.1015 1.4522e+02     4.0713     -0.053     -0.076    25.0146 0.0000e+00
     -0.051     -0.001     6.3235     76.518     36.572  36.566312     6.1705      8.861   184.2862 1.4530e+02     4.1454     -0.050     -0.071    25.0087 0.0000e+00
     -0.050     -0.001     6.3035     76.269     36.587  36.577732     6.1507      8.866   184.4672 1.4550e+02     4.1790     -0.049     -0.071    25.0027 0.0000e+00
     -0.051      0.000     6.2803     75.981     36.621  36.607806     6.1516      8.870   184.4837 1.4590e+02     4.1721     -0.050     -0.073    24.9970 0.0000e+00
     -0.052 3.7258e-08     6.2562     75.681     36.630  36.612309     6.2000      8.872   184.4846 1.4634e+02     4.1541     -0.051     -0.074    24.9920 0.0000e+00
     -0.053 4.0984e-07     6.2332     75.395     36.590  36.568637     6.2859      8.874   184.6506 1.4665e+02     4.1445     -0.052     -0.075    24.9871 0.0000e+00
     -0.053      0.000     6.2122     75.133     36.549  36.524436     6.3268      8.877   184.8563 1.4679e+02     4.1477     -0.052     -0.075    24.9818 0.0000e+00
     -0.052      0.000     6.1937     74.904     36.551  36.522551     6.3358      8.880   184.9070 1.4682e+02     4.1616     -0.052     -0.075    24.9762 0.0000e+00
     -0.051      0.001     6.1756     74.678     36.577  36.545840     6.3484      8.881   185.0051 1.4687e+02     4.1605     -0.050     -0.073    24.9703 0.0000e+00
     -0.051      0.001     6.1563     74.438     36.587  36.551915     6.3782      8.881   185.2683 1.4697e+02     4.1640     -0.050     -0.072    24.9648 0.0000e+00
     -0.051      0.001     6.1375     74.204     36.572  36.532479     6.4295      8.881   185.3355 1.4709e+02     4.1731     -0.050     -0.073    24.9603 0.0000e+00
     -0.052      0.001     6.1221     74.010     36.544  36.501403     6.4545      8.881   185.2154 1.4725e+02     4.1493     -0.051     -0.074    24.9559 0.0000e+00
     -0.052      0.002     6.1076     73.829     36.540  36.493801     6.4499      8.880   185.2792 1.4745e+02     4.1510     -0.051     -0.074    24.9511 0.0000e+00
     -0.052      0.003     6.0915     73.629     36.554  36.504082     6.4105      8.879   185.5042 1.4750e+02     4.1930     -0.050     -0.072    24.9457 0.0000e+00
     -0.051      0.003     6.0750     73.423     36.552  36.498656     6.3374      8.879   185.6128 1.4734e+02     4.2308     -0.051     -0.073    24.9402 0.0000e+00
     -0.050      0.002     6.0601     73.238     36.547  36.491711     6.2911      8.881   185.6462 1.4715e+02     4.2725     -0.049     -0.071    24.9352 0.0000e+00
     -0.047      0.001     6.0461     73.063     36.542  36.483635     6.2734      8.881   185.7362 1.4711e+02     4.2691     -0.047     -0.068    24.9305 0.0000e+00
     -0.046      0.000     6.0317     72.883     36.527  36.464521     6.2426      8.882   185.8402 1.4721e+02     4.2820     -0.044     -0.065    24.9260 0.0000e+00
     -0.048      0.000     6.0174     72.704     36.517  36.451180     6.1944      8.882   185.9572 1.4727e+02     4.3971     -0.046     -0.067    24.9218 0.0000e+00
     -0.050     -0.001     6.0027     72.521     36.518  36.449380     6.1595      8.882   186.1190 1.4730e+02     4.4406     -0.050     -0.072    24.9185 0.0000e+00
     -0.051     -0.001     5.9879     72.337     36.514  36.442751     6.1522      8.879   186.3331 1.4729e+02     4.3806     -0.050     -0.073    24.9144 0.0000e+00
     -0.051     -0.001     5.9730     72.153     36.508  36.434553     6.1790      8.872   186.3953 1.4729e+02     4.3124     -0.051     -0.072    24.9092 0.0000e+00
     -0.050      0.000     5.9572     71.957     36.490  36.413773     6.2352      8.867   186.2691 1.4734e+02     4.2570     -0.049     -0.070    24.9044 0.0000e+00
     -0.049      0.000     5.9410     71.754     36.462  36.382071     6.2717      8.869   186.1833 1.4757e+02     4.2602     -0.048     -0.069    24.9001 0.0000e+00
     -0.049      0.000     5.9255     71.559     36.452  36.368857     6.2708      8.878   186.2190 1.4793e+02     4.2291     -0.048     -0.070    24.8971 0.0000e+00
     -0.050     -0.001     5.9102     71.368     36.468  36.381050     6.2615      8.887   186.4420 1.4812e+02     4.1550     -0.049     -0.071    24.8943 0.0000e+00
     -0.051     -0.001     5.8952     71.182     36.493  36.402436     6.2326      8.892   186.6427 1.4821e+02     4.1585     -0.050     -0.072    24.8902 0.0000e+00
     -0.051     -0.001     5.8822     71.019     36.531  36.436856     6.1782      8.891   186.6664 1.4816e+02     4.2105     -0.050     -0.072    24.8853 0.0000e+00
     -0.052      0.000     5.8723     70.895     36.576  36.479594     6.1468      8.884   186.7284 1.4785e+02     4.2345     -0.051     -0.074    24.8796 0.0000e+00
     -0.053      0.002     5.8652     70.805     36.573  36.474512     6.1476      8.874   186.7903 1.4757e+02     4.2035     -0.051     -0.074    24.8746 0.0000e+00
     -0.053      0.003     5.8606     70.747     36.539  36.438928     6.1791      8.867   186.7260 1.4727e+02     4.1719     -0.053     -0.076    24.8705 0.0000e+00
     -0.050      0.003     5.8586     70.722     36.532  36.430495     6.2321      8.867   186.7260 1.4696e+02     4.1875     -0.050     -0.073    24.8658 0.0000e+00
     -0.046      0.003     5.8571     70.700     36.539  36.436065     6.2656      8.875   186.8757 1.4690e+02     4.2099     -0.044     -0.065    24.8613 0.0000e+00
     -0.045      0.004     5.8550     70.671     36.548  36.442759     6.2810      8.886   186.9882 1.4708e+02     4.2291     -0.042     -0.061    24.8584 0.0000e+00
     -0.047      0.005     5.8532     70.648     36.553  36.447898     6.2985      8.894   187.0538 1.4728e+02     4.2357     -0.046     -0.067    24.8573 0.0000e+00
     -0.049      0.005     5.8522     70.636     36.540  36.434681     6.3208      8.897   187.1524 1.4723e+02     4.1987     -0.051     -0.073    24.8560 0.0000e+00
     -0.047      0.005     5.8521     70.632     36.517  36.410002     6.3394      8.894   187.2339 1.4709e+02     4.1790     -0.048     -0.069    24.8530 0.0000e+00
     -0.042      0.005     5.8523     70.631     36.513  36.403603     6.3479      8.888   187.3509 1.4704e+02     4.2104     -0.042     -0.060    24.8502 0.0000e+00
     -0.038      0.006     5.8511     70.611     36.533  36.420823     6.3327      8.886   187.5345 1.4697e+02     4.2116     -0.037     -0.054    24.8499 0.0000e+00
     -0.037      0.006     5.8481     70.571     36.543  36.427629     6.2932      8.887   187.7335 1.4696e+02     4.1635     -0.035     -0.051    24.8500 0.0000e+00
     -0.038      0.005     5.8461     70.543     36.539  36.422364     6.2652      8.888   187.8631 1.4697e+02     4.1479     -0.036     -0.053    24.8484 0.0000e+00
     -0.038      0.004     5.8459     70.537     36.539  36.420687     6.2610      8.888   187.8971 1.4692e+02     4.1761     -0.039     -0.057    24.8453 0.0000e+00
     -0.038      0.003     5.8451     70.524     36.528  36.407349     6.2604      8.888   187.9733 1.4677e+02     4.1681     -0.038     -0.055    24.8408 0.0000e+00
     -0.036      0.002     5.8420     70.481     36.511  36.388142     6.2488      8.889   188.0961 1.4666e+02     4.1429     -0.035     -0.050    24.8369 0.0000e+00
     -0.033      0.001     5.8364     70.408     36.505  36.379025     6.2308      8.892   188.2630 1.4668e+02     4.1458     -0.033     -0.047    24.8345 0.0000e+00
     -0.032      0.001     5.8297     70.322     36.489  36.360645     6.2173      8.895   188.4429 1.4671e+02     4.1421     -0.031     -0.046    24.8327 0.0000e+00
     -0.034      0.001     5.8234     70.242     36.488  36.356478     6.2236      8.898   188.5496 1.4671e+02     4.1596     -0.032     -0.047    24.8298 0.0000e+00
     -0.036      0.002     5.8181     70.174     36.527  36.392158     6.2516      8.902   188.6073 1.4674e+02     4.2044     -0.035     -0.052    24.8258 0.0000e+00
     -0.037      0.004     5.8118     70.095     36.547  36.410901     6.2713      8.904   188.7098 1.4674e+02     4.2269     -0.037     -0.054    24.8213 0.0000e+00
     -0.037      0.008     5.8045     70.004     36.529  36.392519     6.2683      8.904   188.9279 1.4663e+02     4.2170     -0.037     -0.053    24.8172 0.0000e+00
     -0.033      0.010     5.7981     69.925     36.498  36.360483     6.2619      8.903   189.0943 1.4629e+02     4.1767     -0.032     -0.047    24.8136 0.0000e+00
     -0.027      0.010     5.7930     69.862     36.480  36.341169     6.2774      8.902   189.1733 1.4563e+02     4.1669     -0.026     -0.039    24.8101 0.0000e+00
     -0.022      0.009     5.7901     69.828     36.488  36.349567     6.3084      8.903   189.1080 1.4497e+02     4.1900     -0.020     -0.030    24.8074 0.0000e+00
     -0.019      0.007     5.8038     70.025     36.455  36.334977     6.3236      8.904   188.9078 1.4472e+02     4.1812     -0.017     -0.024    24.8060 0.0000e+00
     -0.019      0.009     5.9111     71.440     36.348  36.291826     6.3235      8.903   188.7308 1.4490e+02     4.1527     -0.018     -0.026    24.8053 0.0000e+00
     -0.022      0.019     6.2443     75.673     36.225  36.272593     6.3157      8.894   188.1725 1.4519e+02     4.1805     -0.020     -0.030    24.8041 0.0000e+00
     -0.023      0.036     6.8488     83.193     36.153  36.293163     6.2940      8.883   187.2338 1.4492e+02     4.3035     -0.023     -0.035    24.8012 0.0000e+00
     -0.019      0.058     7.6160     92.640     36.153  36.350106     6.2720      8.878   186.5869 1.4248e+02     4.3900     -0.023     -0.033    24.8011 0.0000e+00
     -0.002      0.080     8.3957    102.197     36.163  36.389454     6.2616      8.877   186.3744 1.3188e+02     4.3712     -0.008     -0.012    24.8883 0.0000e+00
      0.031      0.097     9.0944    110.743     36.146  36.387813     6.2691      8.880   186.3848 1.1253e+02     4.3512      0.027      0.040    25.0715 0.0000e+00
      0.071      0.104     9.6603    117.657     36.144  36.393811     6.2989      8.886   186.5411 9.5573e+01     4.3617      0.071      0.104    25.2099 0.0000e+00
      0.106      0.100    10.0527    122.450     36.144  36.398461     6.3272      8.892   186.9732 8.6326e+01     4.3754      0.107      0.155    25.2770 0.0000e+00
      0.132      0.087    10.2537    124.906     36.124  36.380512     6.3447      8.898   190.4042 8.1978e+01     4.3944      0.133      0.192    25.3136 0.0000e+00
      0.151      0.068    10.2796    125.226     36.109  36.367382     6.4189      8.905   202.3006 7.9858e+01     4.3481      0.150      0.217    25.3318 0.0000e+00
      0.162      0.051    10.1866    124.096     36.107  36.366757     6.5538      8.914   218.0137 7.8146e+01     4.2426      0.160      0.233    25.3423 0.0000e+00
      0.167      0.039    10.0473    122.400     36.113  36.372948     6.6342      8.921   225.2607 7.7186e+01     4.2172      0.164      0.239    25.3468 0.0000e+00
      0.171      0.032     9.9108    120.737     36.119  36.378713     6.6461      8.923   226.1681 7.6188e+01     4.2247      0.165      0.240    25.3505 0.0000e+00
      0.178      0.028     9.7949    119.324     36.113  36.372937     6.5880      8.921   227.6086 7.3735e+01     4.1188      0.171      0.250    25.3526 0.0000e+00
      0.189      0.027     9.7029    118.202     36.107  36.366642     6.4644      8.919   222.0289 7.1369e+01     3.9747      0.185      0.269    25.3536 0.0000e+00
      0.199      0.027     9.6332    117.352     36.107  36.366119     6.4009      8.918   208.3490 7.0307e+01     3.9477      0.197      0.285    25.3540 0.0000e+00
      0.205      0.030     9.5787    116.690     36.107  36.366619     6.4089      8.917   199.5241 6.9765e+01     3.9754      0.202      0.293    25.3537 0.0000e+00
      0.207      0.035     9.5412    116.237     36.112  36.372684     6.4052      8.912   197.2381 6.9209e+01     3.9737      0.203      0.294    25.3532 0.0000e+00
      0.211      0.043     9.5242    116.032     36.114  36.375928     6.3471      8.905   196.0236 6.7911e+01     4.0495      0.206      0.297    25.3523 0.0000e+00
      0.220      0.053     9.5191    115.972     36.080  36.342313     6.2574      8.900   195.2501 6.5627e+01     4.2201      0.213      0.309    25.3521 0.0000e+00
      0.237      0.062     9.5199    115.984     36.021  36.283869     6.2116      8.897   194.7689 6.2862e+01     4.3584      0.230      0.333    25.3534 0.0000e+00
      0.262      0.067     9.5279    116.084     35.978  36.241009     6.2165      8.894   194.3364 6.0130e+01     4.4396      0.258      0.374    25.3551 0.0000e+00
      0.285      0.066     9.5391    116.223     35.942  36.205239     6.2887      8.895   193.8916 5.8046e+01     4.4696      0.283      0.411    25.3562 0.0000e+00
      0.304      0.059     9.5474    116.327     35.905  36.168981     6.4051      8.901   193.5208 5.6415e+01     4.4462      0.298      0.433    25.3568 0.0000e+00
      0.319      0.048     9.5538    116.409     35.918  36.183765     6.4561      8.905   193.3813 5.5390e+01     4.4005      0.315      0.457    25.3583 0.0000e+00
      0.329      0.038     9.5580    116.461     35.990  36.256938     6.4551      8.908   193.4946 5.5511e+01     4.3748      0.326      0.473    25.3595 0.0000e+00
      0.333      0.036     9.5580    116.460     36.025  36.291430     6.3939      8.909   193.7728 5.6436e+01     4.3491      0.327      0.475    25.3601 0.0000e+00
      0.333      0.041     9.5566    116.440     36.018  36.283185     6.2577      8.908   194.0776 5.7439e+01     4.2727      0.326      0.473    25.3618 0.0000e+00
      0.337      0.051     9.5510    116.369     36.021  36.284298     6.1683      8.906   194.3414 5.7668e+01     4.2146      0.326      0.474    25.3638 0.0000e+00
      0.351      0.066     9.5365    116.189     35.979  36.241368     6.1585      8.904   194.6389 5.6405e+01     4.1965      0.340      0.493    25.3641 0.0000e+00
      0.376      0.083     9.5204    115.996     35.882  36.145261     6.2315      8.903   194.9210 5.4385e+01     4.2976      0.369      0.536    25.3635 0.0000e+00
      0.403      0.098     9.5094    115.867     35.811  36.075122     6.3527      8.902   195.0851 5.2479e+01     4.5207      0.395      0.574    25.3621 0.0000e+00
      0.431      0.106     9.4981    115.736     35.762  36.028560     6.4017      8.901   195.1610 5.0120e+01     4.6359      0.421      0.609    25.3598 0.0000e+00
      0.463      0.107     9.4846    115.576     35.696  35.963420     6.3921      8.901   195.2360 4.7532e+01     4.6219      0.455      0.660    25.3583 0.0000e+00
      0.494      0.103     9.4733    115.442     35.654  35.922746     6.3561      8.901   195.3892 4.5321e+01     4.5054      0.486      0.705    25.3598 0.0000e+00
      0.520      0.100     9.4674    115.372     35.649  35.917903     6.2971      8.900   195.5511 4.3460e+01     4.3259      0.511      0.743    25.3633 0.0000e+00
      0.542      0.100     9.4672    115.371     35.636  35.904868     6.2663      8.896   195.6450 4.1904e+01     4.2204      0.533      0.774    25.3664 0.0000e+00
      0.562      0.105     9.4686    115.390     35.622  35.892185     6.2600      8.892   195.7502 4.0443e+01     4.1765      0.551      0.798    25.3688 0.0000e+00
      0.584      0.116     9.4656    115.354     35.622  35.891600     6.2661      8.890   195.9632 3.8889e+01     4.1612      0.571      0.828    25.3709 0.0000e+00
      0.612      0.130     9.4557    115.234     35.628  35.897794     6.3676      8.890   196.3272 3.7079e+01     4.1576      0.596      0.865    25.3712 0.0000e+00
      0.648      0.145     9.4416    115.063     35.633  35.903559     6.5506      8.893   196.7095 3.4962e+01     4.1631      0.631      0.916    25.3715 0.0000e+00
      0.694      0.156     9.4291    114.911     35.627  35.897783     6.6498      8.895   196.7994 3.2861e+01     4.1967      0.681      0.986    25.3733 0.0000e+00
      0.741      0.159     9.4226    114.833     35.620  35.891478     6.6577      8.895   196.6396 3.1111e+01     4.1982      0.730      1.058    25.3735 0.0000e+00
      0.786      0.152     9.4251    114.865     35.619  35.890842     6.6092      8.897   196.6703 2.9507e+01     4.1811      0.770      1.117    25.3728 0.0000e+00
      0.829      0.139     9.4367    115.008     35.618  35.890092     6.5134      8.897   196.9983 2.8016e+01     4.2034      0.814      1.181    25.3729 0.0000e+00
      0.866      0.127     9.4548    115.228     35.611  35.882413     6.4647      8.893   197.4220 2.7102e+01     4.2244      0.856      1.242    25.3735 0.0000e+00
      0.889      0.120     9.4755    115.476     35.591  35.861518     6.4614      8.888   197.7496 2.6603e+01     4.2214      0.875      1.269    25.3738 0.0000e+00
      0.904      0.118     9.4904    115.651     35.560  35.828013     6.4549      8.884   197.9480 2.5870e+01     4.1972      0.882      1.280    25.3750 0.0000e+00
      0.929      0.123     9.4894    115.632     35.530  35.794914     6.4500      8.880   198.0997 2.4736e+01     4.1757      0.906      1.315    25.3760 0.0000e+00
      0.966      0.135     9.4737    115.431     35.517  35.778924     6.4578      8.876   198.2942 2.3442e+01     4.1762      0.947      1.374    25.3759 0.0000e+00
      1.006      0.151     9.4607    115.262     35.503  35.761716     6.4750      8.871   198.5780 2.2189e+01     4.1723      0.987      1.432    25.3741 0.0000e+00
      1.046      0.166     9.4582    115.212     35.462  35.713900     6.5853      8.864   198.8644 2.0925e+01     4.2201      1.023      1.484    25.3706 0.0000e+00
      1.091      0.178     9.4562    115.150     35.407  35.645418     6.7895      8.851   199.5204 1.9633e+01     4.3263      1.068      1.548    25.3663 0.0000e+00
      1.139      0.188     9.4554    115.082     35.350  35.568904     6.8951      8.823   200.6589 1.8433e+01     4.3892      1.118      1.621    25.3626 0.0000e+00
      1.187      0.198     9.4601    115.066     35.294  35.487480     6.9056      8.780   201.9607 1.7322e+01     4.4001      1.165      1.689    25.3587 0.0000e+00
      1.237      0.204     9.4616    114.991     35.261  35.423141     7.0077      8.732   203.2144 1.6265e+01     4.3364      1.213      1.759    25.3521 0.0000e+00
      1.290      0.204     9.4443    114.674     35.300  35.426153     7.1927      8.687   204.0308 1.5208e+01     4.2289      1.262      1.831    25.3348 0.0000e+00
      1.349      0.197     9.3962    113.982     35.561  35.650886     7.2867      8.650   204.6893 1.4148e+01     4.1995      1.322      1.917    25.3048 0.0000e+00
      1.409      0.187     9.3171    112.918     36.052  36.107607     7.2801      8.621   205.4987 1.3287e+01     4.2245      1.386      2.012    25.2713 0.0000e+00
      1.458      0.176     9.2205    111.653     36.606  36.628747     7.2606      8.589   206.5036 1.2717e+01     4.2270      1.434      2.081    25.2278 0.0000e+00
      1.494      0.165     9.1196    110.345     37.133  37.124070     7.1694      8.544   207.8052 1.2272e+01     4.1983      1.466      2.125    25.1729 0.0000e+00
      1.525      0.156     9.0191    109.034     37.248  37.204997     7.0051      8.491   208.8463 1.1779e+01     4.1823      1.495      2.166    25.1203 0.0000e+00
      1.559      0.149     8.9190    107.705     36.868  36.781323     6.9193      8.437   209.4546 1.1213e+01     4.1862      1.528      2.215    25.0708 0.0000e+00
      1.598      0.148     8.8136    106.298     36.585  36.448203     6.9129      8.387   210.5140 1.0594e+01     4.1842      1.566      2.271    25.0229 0.0000e+00
      1.642      0.150     8.6918    104.693     36.541  36.353491     6.8627      8.345   212.1058 9.9882e+00     4.1891      1.610      2.336    24.9844 0.0000e+00
      1.683      0.151     8.5453    102.789     36.577  36.334857     6.7720      8.309   213.9020 9.4986e+00     4.1849      1.653      2.397    24.9412 0.0000e+00
      1.719      0.156     8.3791    100.621     36.724  36.413392     6.7258      8.270   216.0564 9.0461e+00     4.1644      1.684      2.443    24.8795 0.0000e+00
      1.756      0.168     8.2101     98.383     36.937  36.540666     6.7277      8.224   217.6772 8.5742e+00     4.1844      1.722      2.498    24.8072 0.0000e+00
      1.791      0.186     8.0514     96.230     37.170  36.666625     6.7851      8.176   218.4423 8.1633e+00     4.3358      1.758      2.551    24.7363 0.0000e+00
      1.830      0.206     7.9103     94.212     37.377  36.729225     6.8961      8.133   219.1128 7.6811e+00     4.5599      1.786      2.592    24.6708 0.0000e+00
      1.888      0.221     7.7914     92.398     37.484  36.662102     6.9573      8.096   219.9327 6.9695e+00     4.6659      1.842      2.671    24.5810 0.0000e+00
      1.965      0.228     7.6813     90.705     37.482  36.490038     6.9093      8.064   220.6980 6.2065e+00     4.6407      1.929      2.798    24.4627 0.0000e+00
      2.040      0.225     7.5511     88.835     37.374  36.236687     6.3166      8.034   221.1389 5.6500e+00     4.4392      2.007      2.911    24.3377 0.0000e+00
      2.101      0.210     7.3562     86.252     37.282  36.012562     5.2400      8.008   221.3922 5.3088e+00     4.1215      2.064      2.994    24.1501 0.0000e+00
      2.147      0.183     7.0479     82.383     37.334  35.939768     4.6543      7.988   221.6950 5.0447e+00     3.9731      2.108      3.058    23.8928 0.0000e+00
      2.186      0.153     6.6181     77.156     37.430  35.928075     4.5918      7.970   222.0465 4.7978e+00     3.9578      2.144      3.110    23.6578 0.0000e+00
      2.220      0.129     6.1039     71.007     37.460  35.871038     4.5491      7.954   222.3739 4.6083e+00     3.8447      2.180      3.163    23.4674 0.0000e+00
      2.246      0.113     5.5694     64.652     37.430  35.758198     4.4971      7.939   222.7280 4.4652e+00     3.6732      2.205      3.198    23.2901 0.0000e+00
      2.266      0.103     5.0753     58.783     37.402  35.643511     4.4770      7.925   223.0580 4.3119e+00     3.5932      2.219      3.219    23.1169 0.0000e+00
      2.290      0.098     4.6551     53.799     37.475  35.627642     4.4809      7.910   223.4387 4.1562e+00     3.5793      2.243      3.254    22.9780 0.0000e+00
      2.317      0.098     4.3341     49.993     37.688  35.756773     4.4895      7.892   224.1476 4.0170e+00     3.5973      2.272      3.297    22.8748 0.0000e+00
      2.342      0.104     4.1310     47.558     38.157  36.124835     4.6265      7.868   225.1761 3.8836e+00     3.6884      2.298      3.333    22.7663 0.0000e+00
      2.365      0.114     4.0314     46.283     38.829  36.647463     4.8965      7.838   226.3244 3.7513e+00     3.8576      2.318      3.362    22.6417 0.0000e+00
      2.390      0.128     4.0015     45.770     39.695  37.311337     5.0520      7.804   227.1906 3.5911e+00     3.9941      2.340      3.394    22.5234 0.0000e+00
      2.422      0.145     4.0112     45.692     41.969  39.259909     5.0643      7.769   227.7331 3.4058e+00     4.0261      2.373      3.442    22.4269 0.0000e+00
      2.461      0.165     4.0343     45.718     48.020  44.641432     4.9992      7.724   227.8072 3.2151e+00     4.0013      2.411      3.497    22.3549 0.0000e+00
      2.508      0.189     4.0444     45.533     57.786  53.318053     4.8900      7.651   219.0527 2.9935e+00     3.9687      2.456      3.563    22.2125 0.0000e+00
      2.561      0.214     3.9951     44.665     67.753  62.039447     4.8374      7.545   194.9305 2.7740e+00     3.9681      2.513      3.645    21.9907 0.0000e+00
      2.616      0.230     3.8293     42.531     75.076  68.251685     4.7953      7.434   167.7658 2.5829e+00     3.9941      2.565      3.721    21.8056 0.0000e+00
      2.676      0.232     3.5336     38.997     78.778  71.114907     4.3995      7.344   147.9496 2.3664e+00     3.9461      2.616      3.795    21.5547 0.0000e+00
      2.750      0.218     3.1277     34.309     79.918  71.653466     3.6817      7.279   132.5750 2.1254e+00     3.8153      2.695      3.908    21.1825 0.0000e+00
      2.825      0.193     2.6150     28.554     80.090  71.453807     3.2849      7.232   120.5680 1.9522e+00     3.7553      2.781      4.033    20.7974 0.0000e+00
      2.879      0.162     2.0092     21.894     79.801  71.054835     3.2417      7.194   112.7327 1.8775e+00     3.7708      2.834      4.111    20.4643 0.0000e+00
      2.906      0.131     1.3759     14.989     80.352  71.538327     3.2687      7.164   106.8431 1.8512e+00     3.8188      2.856      4.142    20.1412 0.0000e+00
      2.916      0.104     0.8028      8.747     82.330  73.290464     3.3358      7.143   101.4105 1.8401e+00     3.9088      2.859      4.147    19.7921 0.0000e+00
      2.926      0.088     0.3388      3.692     85.636  76.139152     3.3739      7.128    96.4341 1.8061e+00     3.9742      2.865      4.156    19.5474 0.0000e+00
      2.945      0.083     0.0002      0.007     89.661  79.503581     3.3890      7.117    91.5864 1.7363e+00     3.9988      2.886      4.187    19.4824 0.0000e+00
      2.971      0.084    -0.2060     -2.225     92.105  81.377679     3.5451      7.106    86.6769 1.6699e+00     3.9932      2.912      4.224    19.5176 0.0000e+00
      3.001      0.086    -0.2950     -3.182     92.430  81.419588     3.8366      7.094    81.2987 1.6194e+00     3.9673      2.943      4.268    19.5238 0.0000e+00
      3.030      0.087    -0.2909     -3.135     92.637  81.474253     3.9915      7.076    75.7736 1.5761e+00     3.9606      2.975      4.315    19.4765 0.0000e+00
      3.051      0.090    -0.2216     -2.387     95.605  84.012056     4.0124      7.051    70.9797 1.5556e+00     3.9730      2.997      4.346    19.3597 0.0000e+00
      3.062      0.093    -0.1286     -1.385     99.990  87.714839     4.0887      7.026    66.7863 1.5470e+00     3.9652      3.002      4.354    19.1573 0.0000e+00
      3.076      0.097    -0.0429     -0.463    101.288  88.545743     4.2062      7.002    63.1012 1.5067e+00     3.9576      3.009      4.365    19.0101 0.0000e+00
      3.105      0.098     0.0308      0.327    100.469  87.436572     4.2667      6.981    59.8931 1.4366e+00     3.9724      3.040      4.410    18.9568 0.0000e+00
      3.142      0.097     0.0920      0.977    100.422  87.041181     4.2782      6.966    56.7346 1.3757e+00     3.9606      3.083      4.472    18.9482 0.0000e+00
      3.177      0.092     0.1413      1.499    101.032  87.331132     4.2718      6.954    53.7349 1.3387e+00     3.9369      3.120      4.525    18.8976 0.0000e+00
      3.202      0.082     0.1851      1.962    101.497  87.630401     4.1794      6.943    51.1566 1.3174e+00     3.9306      3.144      4.560    18.7186 0.0000e+00
      3.216      0.071     0.2222      2.354    102.061  88.048401     4.0247      6.932    48.9636 1.2996e+00     3.9458      3.157      4.578    18.4982 0.0000e+00
      3.222      0.060     0.2508      2.653    103.201  88.882191     3.9451      6.922    47.0076 1.2726e+00     3.9677      3.159      4.582    18.3150 0.0000e+00
      3.230      0.050     0.2728      2.880    104.285  89.622902     3.9340      6.915    45.1451 1.2349e+00     3.9512      3.164      4.589    18.1836 0.0000e+00
      3.246      0.043     0.2876      3.032    104.695  89.806949     3.9189      6.911    42.9635 1.1902e+00     3.7764      3.182      4.615    18.1555 0.0000e+00
      3.265      0.042     0.2959      3.115    104.732  89.706046     3.8994      6.908    40.7631 1.1622e+00     3.4716      3.205      4.649    18.1577 0.0000e+00
      3.277      0.046     0.2990      3.146    104.866  89.740291     3.8833      6.905    39.5345 1.1702e+00     3.3184      3.216      4.666    18.0646 0.0000e+00
      3.282      0.052     0.2968      3.121    105.418  90.157201     3.8618      6.900    38.9485 1.1761e+00     3.2969      3.218      4.668    17.9572 0.0000e+00
      3.285      0.059     0.2906      3.050    106.498  90.861429     3.7301      6.895    38.5829 1.1482e+00     3.1201      3.218      4.667    17.8820 0.0000e+00
      3.298      0.064     0.2816      2.940    107.647  91.311957     3.4960      6.891    38.0397 1.1096e+00     2.8284      3.228      4.681    17.8134 0.0000e+00
      3.324      0.068     0.2715      2.816    108.450  91.336147     3.3741      6.889    36.6831 1.0876e+00     2.6996      3.260      4.727    17.7695 0.0000e+00
      3.354      0.068     0.2654      2.740    108.976  91.280456     3.3685      6.888    35.0855 1.0647e+00     2.7236      3.293      4.777    17.7813 0.0000e+00
      3.376      0.063     0.2624      2.702    109.373  91.338644     3.3552      6.886    33.6940 1.0247e+00     2.7822      3.315      4.808    17.7289 0.0000e+00
      3.389      0.052     0.2592      2.665    109.540  91.338681     3.3324      6.886    32.4210 9.9398e-01     2.8596      3.325      4.823    17.4329 0.0000e+00
      3.396      0.046     0.2577      2.648    109.530  91.280738     3.3221      6.886    31.8247 9.9073e-01     2.8963      3.331      4.831    17.0679 0.0000e+00
      3.400 -9.990e-29 -9.990e-29 -9.990e-29 -9.990e-29 -9.990e-29 -9.990e-29 -9.990e-29 -9.990e-29 9.9934e-01 -9.990e-29      3.334      4.837    16.8348 0.0000e+00
      3.403 -9.990e-29 -9.990e-29 -9.990e-29 -9.990e-29 -9.990e-29 -9.990e-29 -9.990e-29 -9.990e-29 1.0051e+00 -9.990e-29      3.337      4.840    16.7341 0.0000e+00
      3.407 -9.990e-29 -9.990e-29 -9.990e-29 -9.990e-29 -9.990e-29 -9.990e-29 -9.990e-29 -9.990e-29 1.0046e+00 -9.990e-29      3.342      4.846    16.6794 0.0000e+00
      3.408 -9.990e-29 -9.990e-29 -9.990e-29 -9.990e-29 -9.990e-29 -9.990e-29 -9.990e-29 -9.990e-29 1.0020e+00 -9.990e-29      3.344      4.850    16.6434 0.0000e+00
