* Sea-Bird SBE19plus  Data File:
* FileName = C:\DATA\073018_fcr50_0007.hex
* Software version 2.6.3.104 SB_Terminal.dll
* Temperature SN = 7809
* Conductivity SN = 7809
* System UpLoad Time = Jul 30 2018 16:27:10
* <ApplicationData>
* <Seaterm232>
* <SoftwareVersion>2.6.3.104</SoftwareVersion>
* <BuildDate>30-Jun-2017</BuildDate>
* </Seaterm232>
* </ApplicationData>
* cast   7 30 Jul 2018 14:35:09 samples 3053 to 3708, avg = 1, stop = mag switch
# nquan = 15
# nvalues = 478                         
# units = specified
# name 0 = depFM: Depth [fresh water, m]
# name 1 = dz/dtM: Descent Rate [m/s]
# name 2 = sbeox0Mg/L: Oxygen, SBE 43 [mg/l]
# name 3 = sbeox0PS: Oxygen, SBE 43 [% saturation]
# name 4 = specc: Specific Conductance [uS/cm]
# name 5 = c0uS/cm: Conductivity [uS/cm]
# name 6 = flECO-AFL: Fluorescence, WET Labs ECO-AFL/FL [mg/m^3]
# name 7 = ph: pH
# name 8 = orp: Oxidation Reduction Potential [mV]
# name 9 = par/sat/log: PAR/Logarithmic, Satlantic
# name 10 = turbWETntu0: Turbidity, WET Labs ECO [NTU]
# name 11 = prdM: Pressure, Strain Gauge [db]
# name 12 = prdE: Pressure, Strain Gauge [psi]
# name 13 = tv290C: Temperature [ITS-90, deg C]
# name 14 = flag:  0.000e+00
# span 0 =     -0.555,      9.452       
# span 1 =     -0.053,      0.230       
# span 2 =     0.1595,     8.8422       
# span 3 =      1.546,    106.557       
# span 4 =      0.648,     50.152       
# span 5 =   0.598511,  38.118924       
# span 6 =    -0.1929,     6.0807       
# span 7 =      6.146,      8.894       
# span 8 =   -26.1362,   301.7383       
# span 9 = 1.2549e-01, 1.6615e+02       
# span 10 =    -0.2658,    29.2701      
# span 11 =     -0.544,      9.270      
# span 12 =     -0.789,     13.446      
# span 13 =    11.9068,    25.6858      
# span 14 = 0.0000e+00, 0.0000e+00      
# interval = seconds: 0.25
# start_time = Jul 30 2018 14:35:09 [Instrument's time stamp, header]
# bad_flag = -9.990e-29
# <Sensors count="9" >
#   <sensor Channel="1" >
#     <!-- Count, Temperature -->
#     <TemperatureSensor SensorID="58" >
#       <SerialNumber>7809</SerialNumber>
#       <CalibrationDate>09-Mar-18</CalibrationDate>
#       <A0>1.21093245e-003</A0>
#       <A1>2.84356597e-004</A1>
#       <A2>-1.94507398e-006</A2>
#       <A3>2.12806664e-007</A3>
#       <Slope>1.00000000</Slope>
#       <Offset>0.0000</Offset>
#     </TemperatureSensor>
#   </sensor>
#   <sensor Channel="2" >
#     <!-- Frequency 0, Conductivity -->
#     <ConductivitySensor SensorID="3" >
#       <SerialNumber>7809</SerialNumber>
#       <CalibrationDate>09-Mar-18</CalibrationDate>
#       <UseG_J>1</UseG_J>
#       <!-- Cell const and series R are applicable only for wide range sensors. -->
#       <SeriesR>0.0000</SeriesR>
#       <CellConst>2000.0000</CellConst>
#       <ConductivityType>0</ConductivityType>
#       <Coefficients equation="0" >
#         <A>0.00000000e+000</A>
#         <B>0.00000000e+000</B>
#         <C>0.00000000e+000</C>
#         <D>0.00000000e+000</D>
#         <M>0.0</M>
#         <CPcor>-9.57000000e-008</CPcor>
#       </Coefficients>
#       <Coefficients equation="1" >
#         <G>-1.00672082e+000</G>
#         <H>1.26906489e-001</H>
#         <I>-1.40584351e-004</I>
#         <J>2.47837121e-005</J>
#         <CPcor>-9.57000000e-008</CPcor>
#         <CTcor>3.2500e-006</CTcor>
#         <!-- WBOTC not applicable unless ConductivityType = 1. -->
#         <WBOTC>0.00000000e+000</WBOTC>
#       </Coefficients>
#       <Slope>1.00000000</Slope>
#       <Offset>0.00000</Offset>
#     </ConductivitySensor>
#   </sensor>
#   <sensor Channel="3" >
#     <!-- Count, Pressure, Strain Gauge -->
#     <PressureSensor SensorID="46" >
#       <SerialNumber>7809</SerialNumber>
#       <CalibrationDate>07-Mar-18</CalibrationDate>
#       <PA0>-4.08176359e-002</PA0>
#       <PA1>4.85188419e-004</PA1>
#       <PA2>-3.51168169e-012</PA2>
#       <PTEMPA0>-5.37806900e+001</PTEMPA0>
#       <PTEMPA1>5.36620721e+001</PTEMPA1>
#       <PTEMPA2>4.87214332e-002</PTEMPA2>
#       <PTCA0>5.25213435e+005</PTCA0>
#       <PTCA1>1.79532409e+000</PTCA1>
#       <PTCA2>-2.84353509e-001</PTCA2>
#       <PTCB0>2.51668750e+001</PTCB0>
#       <PTCB1>3.75000000e-004</PTCB1>
#       <PTCB2>0.00000000e+000</PTCB2>
#       <Offset>0.000000</Offset>
#     </PressureSensor>
#   </sensor>
#   <sensor Channel="4" >
#     <!-- A/D voltage 0, pH -->
#     <pH_Sensor SensorID="43" >
#       <SerialNumber>0363</SerialNumber>
#       <CalibrationDate>16-Mar-18</CalibrationDate>
#       <Slope>4.6194</Slope>
#       <Offset>2.5947</Offset>
#     </pH_Sensor>
#   </sensor>
#   <sensor Channel="5" >
#     <!-- A/D voltage 1, Oxidation Reduction Potential -->
#     <OxidationReductionPotentialSensor SensorID="41" >
#       <SerialNumber>0363</SerialNumber>
#       <CalibrationDate>16-Mar-18</CalibrationDate>
#       <B>2.499480</B>
#       <M>-0.496195</M>
#       <Offset>0.0</Offset>
#     </OxidationReductionPotentialSensor>
#   </sensor>
#   <sensor Channel="6" >
#     <!-- A/D voltage 2, Oxygen, SBE 43 -->
#     <OxygenSensor SensorID="38" >
#       <SerialNumber>0434</SerialNumber>
#       <CalibrationDate>13-Mar-18</CalibrationDate>
#       <Use2007Equation>1</Use2007Equation>
#       <CalibrationCoefficients equation="0" >
#         <!-- Coefficients for Owens-Millard equation. -->
#         <Boc>0.0000</Boc>
#         <Soc>0.0000e+000</Soc>
#         <offset>0.0000</offset>
#         <Pcor>0.00e+000</Pcor>
#         <Tcor>0.0000</Tcor>
#         <Tau>0.0</Tau>
#       </CalibrationCoefficients>
#       <CalibrationCoefficients equation="1" >
#         <!-- Coefficients for Sea-Bird equation - SBE calibration in 2007 and later. -->
#         <Soc>4.5718e-001</Soc>
#         <offset>-0.6113</offset>
#         <A>-4.0649e-003</A>
#         <B> 2.0945e-004</B>
#         <C>-3.3182e-006</C>
#         <D0> 2.5826e+000</D0>
#         <D1> 1.92634e-004</D1>
#         <D2>-4.64803e-002</D2>
#         <E> 3.6000e-002</E>
#         <Tau20> 1.2200</Tau20>
#         <H1>-3.3000e-002</H1>
#         <H2> 5.0000e+003</H2>
#         <H3> 1.4500e+003</H3>
#       </CalibrationCoefficients>
#     </OxygenSensor>
#   </sensor>
#   <sensor Channel="7" >
#     <!-- A/D voltage 3, PAR/Logarithmic, Satlantic -->
#     <PARLog_SatlanticSensor SensorID="76" >
#       <SerialNumber>1122</SerialNumber>
#       <CalibrationDate>22-Jun-2017</CalibrationDate>
#       <a0>9.6090e-001</a0>
#       <a1>8.0780e-001</a1>
#       <Im>1.3589e+000</Im>
#       <Multiplier>1.0000e+000</Multiplier>
#     </PARLog_SatlanticSensor>
#   </sensor>
#   <sensor Channel="8" >
#     <!-- A/D voltage 4, Fluorometer, WET Labs ECO-AFL/FL -->
#     <FluoroWetlabECO_AFL_FL_Sensor SensorID="20" >
#       <SerialNumber>FLNTURT-2496</SerialNumber>
#       <CalibrationDate>25-Jan-2017</CalibrationDate>
#       <ScaleFactor>5.30000000e+001</ScaleFactor>
#       <!-- Dark output -->
#       <Vblank>0.0560</Vblank>
#     </FluoroWetlabECO_AFL_FL_Sensor>
#   </sensor>
#   <sensor Channel="9" >
#     <!-- A/D voltage 5, Turbidity Meter, WET Labs, ECO-NTU -->
#     <TurbidityMeter SensorID="67" >
#       <SerialNumber>FLNTURT-2496</SerialNumber>
#       <CalibrationDate>25-Jan-2017</CalibrationDate>
#       <ScaleFactor>176.000000</ScaleFactor>
#       <!-- Dark output -->
#       <DarkVoltage>0.072000</DarkVoltage>
#     </TurbidityMeter>
#   </sensor>
# </Sensors>
# datcnv_date = Jul 30 2018 16:35:51, 7.26.7.114 [datcnv_vars = 14]
# datcnv_in = C:\DATA\073018_fcr50.hex C:\DATA\SBE19plusV2_7809.xmlcon
# datcnv_skipover = 0
# datcnv_ox_hysteresis_correction = yes
# datcnv_ox_tau_correction = yes
# filter_date = Jul 30 2018 16:36:33, 7.26.7.114
# filter_in = C:\DATA\073018_fcr50.cnv
# filter_low_pass_tc_A = 0.030
# filter_low_pass_tc_B = 0.150
# filter_low_pass_A_vars = prdM prdE tv290C
# filter_low_pass_B_vars = depFM dz/dtM sbeox0Mg/L sbeox0PS specc c0uS/cm flECO-AFL ph orp par/sat/log turbWETntu0
# alignctd_date = Jul 30 2018 16:36:57, 7.26.7.114
# alignctd_in = C:\DATA\073018_fcr50.cnv
# alignctd_adv = dz/dtM 1.000, sbeox0Mg/L 1.000, sbeox0PS 1.000, specc 1.000, c0uS/cm 1.000, flECO-AFL 1.000, ph 1.000, orp 1.000, turbWETntu0 1.000                                                                                 
# file_type = ascii
*END*
     -0.554 -8.630e-20     8.8411     99.515      0.673   0.620899    -0.1818      6.373   -19.5555 1.3891e+02     0.0021     -0.543     -0.788    21.1730 0.0000e+00
     -0.554 -7.845e-21     8.8418     99.524      0.672   0.619869    -0.1833      6.374   -22.4928 1.3507e+02     0.0080     -0.543     -0.787    21.1732 0.0000e+00
     -0.554 -7.130e-22     8.8417     99.523      0.658   0.607529    -0.1789      6.374   -24.0815 1.2945e+02     0.0199     -0.544     -0.788    21.1735 0.0000e+00
     -0.554 -6.485e-23     8.8411     99.517      0.648   0.598511    -0.1744      6.373   -23.5357 1.2331e+02    -0.0058     -0.543     -0.787    21.1736 0.0000e+00
     -0.554 -5.895e-24     8.8416     99.522      0.691   0.637658    -0.1748      6.372   -23.2937 1.1811e+02    -0.0287     -0.544     -0.788    21.1735 0.0000e+00
     -0.554 -5.324e-25     8.8422     99.528      0.758   0.700377    -0.1832      6.373   -24.7683 1.1502e+02    -0.0137     -0.544     -0.788    21.1739 0.0000e+00
     -0.554 -9.532e-27     8.8417     99.523      0.782   0.722721    -0.1842      6.374   -26.1362 1.0869e+02    -0.0072     -0.544     -0.789    21.1740 0.0000e+00
     -0.554 4.2648e-25     8.8405     99.509      0.846   0.780989    -0.1779      6.374   -24.6042 9.8845e+01    -0.0716     -0.544     -0.788    21.1741 0.0000e+00
     -0.554 4.7396e-24     8.8385     99.488      1.041   0.960999    -0.1803      6.374   -22.1618 9.3512e+01    -0.1823     -0.544     -0.789    21.1742 0.0000e+00
     -0.554 5.2140e-23     8.8376     99.478      1.217   1.123645    -0.1773      6.374   -20.0080 9.1867e+01    -0.2166     -0.544     -0.788    21.1741 0.0000e+00
     -0.554 5.7354e-22     8.8378     99.481      1.258   1.162197    -0.1692      6.374   -16.8034 9.0435e+01    -0.1815     -0.543     -0.787    21.1744 0.0000e+00
     -0.554 6.3089e-21     8.8377     99.480      1.270   1.173481    -0.1740      6.373   -13.1848 8.8481e+01    -0.1235     -0.543     -0.788    21.1746 0.0000e+00
     -0.554 6.9398e-20     8.8380     99.483      1.365   1.260081    -0.1807      6.372    -7.4883 8.7404e+01    -0.0341     -0.543     -0.788    21.1747 0.0000e+00
     -0.554 7.6338e-19     8.8376     99.480      1.500   1.384880    -0.1759      6.371     2.9443 9.0082e+01     0.0143     -0.543     -0.787    21.1749 0.0000e+00
     -0.554 8.3971e-18     8.8375     99.479      1.531   1.414134    -0.1715      6.370    16.1603 9.2224e+01     0.0037     -0.543     -0.788    21.1750 0.0000e+00
     -0.554 9.2369e-17     8.8378     99.483      1.473   1.360119    -0.1739      6.369    27.2046 9.0537e+01    -0.0699     -0.544     -0.788    21.1752 0.0000e+00
     -0.555 1.0161e-15     8.8374     99.478      1.479   1.365934    -0.1764      6.369    32.8887 8.9412e+01    -0.1735     -0.544     -0.789    21.1754 0.0000e+00
     -0.555 1.1177e-14     8.8383     99.488      1.607   1.484448    -0.1743      6.372    34.0372 8.9033e+01    -0.2120     -0.544     -0.789    21.1756 0.0000e+00
     -0.554 1.2294e-13     8.8395     99.503      1.788   1.651596    -0.1759      6.375    31.2824 8.4620e+01    -0.2297     -0.543     -0.788    21.1758 0.0000e+00
     -0.554 1.3524e-12     8.8396     99.505      1.950   1.801530    -0.1873      6.378    27.2861 7.2604e+01    -0.2658     -0.543     -0.787    21.1758 0.0000e+00
     -0.554 1.4876e-11     8.8397     99.506      2.059   1.902146    -0.1929      6.378    27.5326 5.5510e+01    -0.2514     -0.544     -0.788    21.1759 0.0000e+00
     -0.554 1.6364e-10     8.8400     99.509      2.075   1.916897    -0.1880      6.378    30.2188 4.3050e+01    -0.2094     -0.544     -0.788    21.1761 0.0000e+00
     -0.554 1.8000e-09     8.8403     99.512      2.006   1.853052    -0.1745      6.379    30.8555 3.6042e+01    -0.2155     -0.544     -0.788    21.1763 0.0000e+00
     -0.554 1.9800e-08     8.8403     99.512      1.910   1.764357    -0.1667      6.380    32.9079 2.5575e+01    -0.2332     -0.544     -0.788    21.1764 0.0000e+00
     -0.554 2.1780e-07     8.8389     99.497      1.875   1.732313    -0.1757      6.382    67.1655 1.2861e+01    -0.2402     -0.544     -0.788    21.1768 0.0000e+00
     -0.554 4.0775e-07     8.8369     99.474      2.067   1.909527    -0.1742      6.387   145.9892 9.5142e+00    -0.2399     -0.544     -0.789    21.1768 0.0000e+00
     -0.554 3.2843e-07     8.8369     99.473      2.445   2.258208    -0.1663      6.393   212.7242 2.7199e+01    -0.2292     -0.542     -0.787    21.1770 0.0000e+00
     -0.554      0.000     8.8386     99.491      2.733   2.523676    -0.1724      6.394   233.3175 5.6035e+01    -0.2325     -0.543     -0.788    21.1766 0.0000e+00
     -0.554      0.000     8.8397     99.503      2.797   2.582592    -0.1746      6.391   233.1415 7.1576e+01    -0.2184     -0.544     -0.789    21.1773 0.0000e+00
     -0.554      0.000     8.8399     99.505      2.667   2.463210    -0.1746      6.389   231.2459 7.5668e+01    -0.1810     -0.544     -0.788    21.1758 0.0000e+00
     -0.554      0.002     8.8396     99.507      2.610   2.412016    -0.1817      6.388   234.0582 7.8038e+01    -0.1771     -0.543     -0.787    21.1774 0.0000e+00
     -0.554      0.008     8.8345     99.512      3.899   3.612474    -0.1782      6.398   237.5481 7.9809e+01    -0.2023     -0.543     -0.788    21.1735 0.0000e+00
     -0.554      0.023     8.7940     99.519      9.134   8.542461    -0.1680      6.538   253.5659 8.5578e+01    -0.2113     -0.544     -0.789    21.1784 0.0000e+00
     -0.554      0.044     8.6865     99.531     16.919  16.027031    -0.1686      6.899   287.6565 9.5852e+01    -0.1934     -0.543     -0.787    21.1694 0.0000e+00
     -0.549      0.066     8.5452     99.532     24.792  23.871871    -0.1675      7.336   300.8456 1.0571e+02    -0.1699     -0.543     -0.788    21.1834 0.0000e+00
     -0.529      0.087     8.4328     99.543     32.215  31.413317    -0.1640      7.691   293.6111 1.1362e+02    -0.1093     -0.528     -0.766    21.1604 0.0000e+00
     -0.489      0.103     8.3632     99.570     35.764  35.142102    -0.1264      7.960   288.3753 1.1882e+02     0.6608     -0.479     -0.696    21.2514 0.0000e+00
     -0.447      0.110     8.3181     99.590     35.910  35.492959    -0.0348      8.174   284.1728 1.2047e+02     2.0918     -0.432     -0.627    22.0068 0.0000e+00
     -0.417      0.107     8.2871     99.617     35.790  35.528757     0.0157      8.344   281.0870 1.2457e+02     2.9101     -0.409     -0.594    23.0583 0.0000e+00
     -0.392      0.095     8.2634     99.637     35.717  35.575142     0.0154      8.484   278.2542 1.3149e+02     3.5665     -0.386     -0.559    23.7541 0.0000e+00
     -0.369      0.080     8.2418     99.630     35.717  35.672852     0.1457      8.622   275.8191 1.3647e+02    10.1507     -0.358     -0.519    24.1617 0.0000e+00
     -0.354      0.070     8.2234     99.617     35.719  35.757476     0.8831      8.753   273.4986 1.4375e+02    22.2152     -0.344     -0.499    24.4398 0.0000e+00
     -0.344      0.066     8.2099     99.611     35.737  35.836184     2.0297      8.845   272.4813 1.5457e+02    28.7689     -0.339     -0.491    24.6474 0.0000e+00
     -0.332      0.070     8.1990     99.610     35.775  35.925851     2.6142      8.880   270.8326 1.6249e+02    29.2701     -0.329     -0.477    24.8015 0.0000e+00
     -0.316      0.081     8.1891     99.635     35.745  35.952384     2.7021      8.869   252.6173 1.6615e+02    28.7329     -0.311     -0.450    24.9384 0.0000e+00
     -0.296      0.097     8.1813     99.697     35.636  35.902986     3.2116      8.841   220.4487 1.6584e+02    22.4570     -0.293     -0.425    25.0611 0.0000e+00
     -0.268      0.115     8.1814     99.838     35.516  35.836858     4.1517      8.825   202.2950 1.5785e+02    10.9153     -0.265     -0.385    25.1393 0.0000e+00
     -0.235      0.134     8.1959    100.113     35.430  35.788142     4.6675      8.820   199.0057 1.4356e+02     4.6022     -0.231     -0.336    25.1969 0.0000e+00
     -0.196      0.150     8.2254    100.523     35.319  35.695151     4.7160      8.812   197.7139 1.3282e+02     4.0189     -0.195     -0.283    25.2816 0.0000e+00
     -0.155      0.160     8.2692    101.095     35.150  35.538323     4.7470      8.800   197.3459 1.2889e+02     3.9845     -0.150     -0.218    25.3738 0.0000e+00
     -0.112      0.160     8.3222    101.793     35.011  35.416476     4.7945      8.791   197.1370 1.2189e+02     4.0036     -0.114     -0.166    25.4527 0.0000e+00
     -0.063      0.149     8.3919    102.673     35.012  35.428840     4.8119      8.789   196.8220 1.0164e+02     4.0055     -0.063     -0.092    25.5134 0.0000e+00
     -0.014      0.129     8.4989    103.958     35.151  35.560788     4.8194      8.792   196.8069 7.8649e+01     4.0068     -0.006     -0.009    25.5288 0.0000e+00
      0.020      0.103     8.6218    105.412     35.285  35.677883     4.8300      8.796   196.8683 7.0321e+01     3.9286      0.026      0.037    25.5400 0.0000e+00
      0.038      0.071     8.7013    106.361     35.317  35.701223     4.8300      8.800   196.6186 7.1559e+01     3.8226      0.041      0.059    25.5773 0.0000e+00
      0.045      0.031     8.7168    106.557     35.329  35.715933     4.8374      8.804   196.1968 7.1316e+01     3.8232      0.045      0.065    25.6022 0.0000e+00
      0.050     -0.009     8.6974    106.337     35.399  35.792228     4.8467      8.809   195.8988 6.9806e+01     3.8446      0.048      0.071    25.5822 0.0000e+00
      0.051     -0.039     8.6599    105.887     35.464  35.861444     4.8128      8.817   195.7680 7.2415e+01     3.8076      0.057      0.082    25.5432 0.0000e+00
      0.035     -0.053     8.5942    105.090     35.391  35.790552     4.7405      8.822   195.9060 8.2970e+01     3.7415      0.043      0.062    25.5299 0.0000e+00
      0.000     -0.053     8.5073    104.036     35.170  35.570293     4.7076      8.822   196.1041 9.6137e+01     3.7166     -0.000      0.000    25.5409 0.0000e+00
     -0.035     -0.043     8.4167    102.921     35.026  35.421578     4.7182      8.822   196.1846 1.0048e+02     3.7513     -0.043     -0.062    25.5524 0.0000e+00
     -0.048     -0.028     8.3352    101.876     35.076  35.453441     4.7496      8.827   196.1916 9.5297e+01     3.7946     -0.058     -0.084    25.5556 0.0000e+00
     -0.038     -0.007     8.2689    101.001     35.220  35.574396     4.8026      8.835   196.1017 8.8208e+01     3.8127     -0.039     -0.057    25.5549 0.0000e+00
     -0.022      0.013     8.2079    100.219     35.336  35.677101     4.8254      8.844   196.0448 8.2523e+01     3.7874     -0.016     -0.025    25.5639 0.0000e+00
     -0.012      0.027     8.1368     99.349     35.338  35.678870     4.8143      8.853   196.1914 7.9484e+01     3.7638     -0.010     -0.014    25.5707 0.0000e+00
     -0.009      0.031     8.0523     98.328     35.251  35.595779     4.8152      8.859   196.4117 7.9613e+01     3.7712     -0.009     -0.013    25.5368 0.0000e+00
     -0.005      0.027     7.9582     97.185     35.215  35.561764     4.8180      8.862   196.5576 8.0025e+01     3.8155     -0.006     -0.009    25.4897 0.0000e+00
      0.003      0.021     7.8501     95.876     35.359  35.712250     4.8015      8.864   196.7511 7.8393e+01     3.9022      0.002      0.003    25.4690 0.0000e+00
      0.012      0.018     7.7290     94.421     35.589  35.954293     4.7821      8.864   197.0303 7.7169e+01     3.9352      0.013      0.018    25.4759 0.0000e+00
      0.018      0.016     7.6056     92.941     35.697  36.074467     4.7761      8.861   197.2663 7.8056e+01     3.9087      0.019      0.028    25.4851 0.0000e+00
      0.019      0.013     7.4879     91.526     35.698  36.085398     4.8024      8.856   197.2809 7.8668e+01     3.8868      0.020      0.028    25.4843 0.0000e+00
      0.018      0.010     7.3832     90.268     35.690  36.086476     4.8515      8.850   197.1213 7.8462e+01     3.8228      0.016      0.023    25.4889 0.0000e+00
      0.019      0.008     7.2938     89.201     35.680  36.087511     4.8741      8.847   196.9714 7.8177e+01     3.7453      0.017      0.025    25.5047 0.0000e+00
      0.024      0.007     7.2167     88.284     35.679  36.097921     4.8730      8.847   197.1033 7.7543e+01     3.7443      0.024      0.035    25.5250 0.0000e+00
      0.028      0.007     7.1557     87.561     35.656  36.085321     4.8757      8.851   197.4252 7.7459e+01     3.8402      0.028      0.041    25.5365 0.0000e+00
      0.029      0.007     7.1241     87.194     35.624  36.062227     4.8790      8.856   197.5939 7.7674e+01     3.9586      0.028      0.041    25.5483 0.0000e+00
      0.030      0.005     7.1386     87.385     35.628  36.072800     4.8758      8.862   197.6810 7.7922e+01     3.9866      0.028      0.041    25.5651 0.0000e+00
      0.031      0.003     7.2050     88.210     35.637  36.086112     4.8734      8.867   197.6175 7.7794e+01     3.9649      0.030      0.045    25.5812 0.0000e+00
      0.032      0.003     7.3188     89.614     35.642  36.096152     4.9059      8.872   197.6012 7.7013e+01     3.9705      0.033      0.048    25.5968 0.0000e+00
      0.031      0.005     7.4667     91.435     35.609  36.067152     4.9659      8.873   197.9134 7.6819e+01     3.9937      0.031      0.045    25.6087 0.0000e+00
      0.031      0.009     7.6248     93.378     35.529  35.989580     5.0009      8.869   198.1225 7.7006e+01     4.0007      0.029      0.042    25.6176 0.0000e+00
      0.031      0.013     7.7763     95.235     35.461  35.920509     5.0074      8.864   198.0645 7.6439e+01     3.9639      0.029      0.042    25.6244 0.0000e+00
      0.035      0.016     7.9082     96.845     35.410  35.867243     4.9987      8.861   197.8152 7.4700e+01     3.9459      0.033      0.047    25.6311 0.0000e+00
      0.044      0.020     8.0017     97.987     35.398  35.853718     4.9781      8.862   197.5164 7.3301e+01     3.9654      0.043      0.063    25.6379 0.0000e+00
      0.052      0.021     8.0466     98.541     35.426  35.884019     4.9605      8.862   197.6350 7.3172e+01     3.9869      0.053      0.077    25.6424 0.0000e+00
      0.057      0.021     8.0478     98.565     35.455  35.916009     4.9601      8.862   198.0458 7.2572e+01     4.0225      0.056      0.081    25.6437 0.0000e+00
      0.060      0.017     8.0149     98.172     35.458  35.922897     4.9643      8.865   198.2677 7.0797e+01     4.0294      0.059      0.085    25.6387 0.0000e+00
      0.065      0.012     7.9562     97.461     35.435  35.903790     4.9386      8.871   198.3385 6.9866e+01     4.0097      0.065      0.093    25.6349 0.0000e+00
      0.070      0.008     7.8785     96.515     35.405  35.875561     4.9063      8.877   198.2996 7.0600e+01     4.0283      0.070      0.102    25.6389 0.0000e+00
      0.071      0.006     7.7893     95.426     35.365  35.835670     4.9044      8.881   198.2280 7.1101e+01     4.0409      0.069      0.101    25.6445 0.0000e+00
      0.070      0.003     7.7001     94.336     35.330  35.802601     4.9064      8.883   198.2466 7.1126e+01     4.0098      0.068      0.099    25.6505 0.0000e+00
      0.070      0.001     7.6239     93.406     35.320  35.793342     4.8944      8.884   198.2666 7.1303e+01     4.0478      0.069      0.099    25.6563 0.0000e+00
      0.070 -8.159e-08     7.5730     92.786     35.312  35.787247     4.8873      8.887   198.3832 7.1270e+01     4.1658      0.068      0.098    25.6585 0.0000e+00
      0.070 -8.975e-07     7.5527     92.542     35.315  35.792432     4.8945      8.889   198.5386 7.1188e+01     4.2158      0.068      0.099    25.6599 0.0000e+00
      0.070      0.000     7.5603     92.643     35.312  35.792517     4.8984      8.890   198.6824 7.1302e+01     4.1947      0.069      0.100    25.6626 0.0000e+00
      0.070      0.000     7.5873     92.981     35.305  35.788274     4.9072      8.890   198.7448 7.1372e+01     4.1848      0.068      0.099    25.6640 0.0000e+00
      0.071     -0.001     7.6221     93.413     35.319  35.804656     4.9364      8.890   198.5195 7.1288e+01     4.1874      0.070      0.101    25.6651 0.0000e+00
      0.071     -0.003     7.6561     93.833     35.313  35.800033     4.9482      8.891   198.2812 7.1283e+01     4.1961      0.071      0.103    25.6692 0.0000e+00
      0.070     -0.005     7.6817     94.151     35.308  35.795905     4.9392      8.892   198.3579 7.1307e+01     4.1977      0.069      0.100    25.6735 0.0000e+00
      0.068     -0.005     7.6967     94.335     35.329  35.818264     4.9289      8.893   198.6730 7.1691e+01     4.0853      0.067      0.096    25.6777 0.0000e+00
      0.065     -0.004     7.7077     94.468     35.328  35.816284     4.9068      8.894   198.9076 7.2380e+01     3.8751      0.063      0.092    25.6817 0.0000e+00
      0.062     -0.002     7.7235     94.655     35.287  35.771963     4.8923      8.893   198.7852 7.2517e+01     3.7611      0.060      0.088    25.6839 0.0000e+00
      0.061      0.001     7.7468     94.933     35.246  35.727034     4.9012      8.892   198.4835 7.2094e+01     3.7446      0.059      0.086    25.6854 0.0000e+00
      0.063      0.004     7.7776     95.307     35.238  35.717703     4.9405      8.891   198.3573 7.1862e+01     3.7375      0.060      0.089    25.6858 0.0000e+00
      0.066      0.005     7.8186     95.809     35.243  35.722655     4.9910      8.891   198.2928 7.2047e+01     3.7361      0.065      0.094    25.6848 0.0000e+00
      0.069      0.005     7.8670     96.400     35.245  35.723394     5.0063      8.891   198.2193 7.1910e+01     3.7280      0.068      0.099    25.6817 0.0000e+00
      0.073      0.005     7.9079     96.894     35.251  35.726636     5.0057      8.891   198.1563 7.1397e+01     3.7301      0.072      0.105    25.6754 0.0000e+00
      0.073      0.007     7.9246     97.094     35.287  35.761847     5.0107      8.888   197.7898 7.1689e+01     3.7618      0.073      0.107    25.6715 0.0000e+00
      0.071      0.017     7.9156     96.979     35.357  35.831511     4.9933      8.881   197.1431 7.2777e+01     3.8363      0.070      0.101    25.6747 0.0000e+00
      0.068      0.039     7.8974     96.739     35.402  35.870191     4.9609      8.874   196.8762 7.3014e+01     3.9295      0.067      0.095    25.6755 0.0000e+00
      0.070      0.068     7.8954     96.694     35.327  35.784869     4.9495      8.873   198.4351 7.2036e+01     3.9728      0.066      0.096    25.6679 0.0000e+00
      0.085      0.095     7.9255     97.058     35.109  35.562125     4.9475      8.873   200.3316 6.8544e+01     3.9933      0.075      0.108    25.6653 0.0000e+00
      0.122      0.114     7.9769     97.702     34.881  35.336742     4.8725      8.872   199.7600 5.9864e+01     4.0253      0.111      0.160    25.6682 0.0000e+00
      0.176      0.120     8.0231     98.263     34.766  35.219517     4.7321      8.872   198.5788 4.8844e+01     4.0235      0.176      0.255    25.6549 0.0000e+00
      0.226      0.115     8.0427     98.439     34.796  35.224612     4.6558      8.877   198.3543 4.0651e+01     4.0025      0.232      0.336    25.6377 0.0000e+00
      0.255      0.106     8.0282     98.164     34.943  35.334780     4.6486      8.883   198.6799 3.6816e+01     3.9850      0.257      0.373    25.6345 0.0000e+00
      0.266      0.101     7.9886     97.610     35.105  35.471642     4.6632      8.885   199.3314 3.6425e+01     3.9636      0.262      0.381    25.6489 0.0000e+00
      0.270      0.106     7.9424     97.027     35.123  35.481905     4.6956      8.886   199.6929 3.6586e+01     3.9579      0.263      0.382    25.6624 0.0000e+00
      0.281      0.122     7.8980     96.510     34.964  35.331811     4.7180      8.889   200.0389 3.6014e+01     3.9468      0.267      0.387    25.6176 0.0000e+00
      0.314      0.141     7.8557     96.042     34.796  35.181386     4.7225      8.891   200.5907 3.5482e+01     3.9514      0.295      0.429    25.5464 0.0000e+00
      0.374      0.155     7.8263     95.715     34.726  35.124124     4.6850      8.892   200.9442 3.4544e+01     3.9214      0.363      0.528    25.5054 0.0000e+00
      0.441      0.161     7.8238     95.663     34.758  35.147642     4.6238      8.893   201.0432 3.3154e+01     3.8283      0.441      0.640    25.4970 0.0000e+00
      0.490      0.157     7.8439     95.859     34.841  35.211652     4.5987      8.893   201.0991 3.2112e+01     3.7723      0.489      0.709    25.5144 0.0000e+00
      0.518      0.146     7.8656     96.091     34.905  35.262818     4.5925      8.890   201.3622 3.1763e+01     3.7326      0.510      0.739    25.5496 0.0000e+00
      0.538      0.132     7.8693     96.120     34.969  35.321625     4.5942      8.888   202.0734 3.1746e+01     3.7746      0.525      0.761    25.5836 0.0000e+00
      0.563      0.123     7.8443     95.817     35.060  35.414510     4.6098      8.885   202.9864 3.1251e+01     3.8841      0.548      0.794    25.5614 0.0000e+00
      0.596      0.127     7.7895     95.178     35.129  35.496594     4.6250      8.882   203.5397 3.0307e+01     3.9275      0.584      0.848    25.5170 0.0000e+00
      0.632      0.138     7.7112     94.272     35.164  35.551863     4.6403      8.880   203.6875 2.9542e+01     3.9630      0.622      0.902    25.5051 0.0000e+00
      0.667      0.152     7.6190     93.194     35.165  35.574620     4.6480      8.879   203.7405 2.8934e+01     3.9777      0.653      0.947    25.4961 0.0000e+00
      0.706      0.163     7.5227     92.051     35.094  35.517694     4.6633      8.877   203.8364 2.8113e+01     3.9536      0.690      1.000    25.4911 0.0000e+00
      0.750      0.167     7.4348     90.995     34.943  35.371764     4.6969      8.877   203.9864 2.6980e+01     3.9458      0.735      1.065    25.5119 0.0000e+00
      0.797      0.163     7.3667     90.175     34.775  35.207663     4.7140      8.877   204.2636 2.5672e+01     3.9450      0.782      1.132    25.5465 0.0000e+00
      0.847      0.150     7.3233     89.642     34.691  35.121573     4.7136      8.878   204.5216 2.4383e+01     3.9741      0.831      1.205    25.5778 0.0000e+00
      0.893      0.128     7.2993     89.278     34.692  35.093107     4.6639      8.881   204.6963 2.3463e+01     3.9928      0.880      1.278    25.6034 0.0000e+00
      0.926      0.099     7.2831     88.933     34.716  35.054000     4.5636      8.886   204.8267 2.2986e+01     3.9573      0.914      1.326    25.6058 0.0000e+00
      0.945      0.069     7.2688     88.588     34.764  35.029762     4.5119      8.890   204.8933 2.2721e+01     3.9409      0.930      1.349    25.6153 0.0000e+00
      0.952      0.043     7.2548     88.293     34.841  35.054013     4.5169      8.892   205.0721 2.2600e+01     3.9482      0.936      1.357    25.6323 0.0000e+00
      0.952      0.026     7.2435     88.100     34.904  35.093054     4.5868      8.892   205.2686 2.2623e+01     3.8929      0.935      1.355    25.5912 0.0000e+00
      0.950      0.019     7.2385     88.030     34.935  35.120654     4.7052      8.893   205.3766 2.2667e+01     3.7905      0.932      1.351    25.4875 0.0000e+00
      0.950      0.022     7.2396     88.050     34.945  35.133629     4.7624      8.893   205.5171 2.2602e+01     3.7480      0.930      1.349    25.3631 0.0000e+00
      0.955      0.030     7.2426     88.090     34.932  35.122909     4.7737      8.893   205.6764 2.2460e+01     3.7755      0.934      1.356    25.2812 0.0000e+00
      0.966      0.040     7.2417     88.075     34.930  35.118078     4.7588      8.893   205.5818 2.2286e+01     3.7874      0.948      1.374    25.2559 0.0000e+00
      0.981      0.050     7.2315     87.952     34.950  35.138728     4.7017      8.893   205.2341 2.1988e+01     3.7700      0.961      1.394    25.2575 0.0000e+00
      0.998      0.058     7.2066     87.673     34.983  35.182033     4.6621      8.893   205.1716 2.1584e+01     3.7477      0.977      1.419    25.2657 0.0000e+00
      1.015      0.067     7.1617     87.179     35.038  35.260562     4.6569      8.892   205.6006 2.1236e+01     3.7322      0.996      1.445    25.2693 0.0000e+00
      1.030      0.082     7.1021     86.526     35.134  35.389523     4.7122      8.887   206.3769 2.0923e+01     3.7953      1.010      1.465    25.2624 0.0000e+00
      1.045      0.105     7.0473     85.933     35.245  35.534450     4.8249      8.877   207.2442 2.0512e+01     3.9008      1.023      1.484    25.2577 0.0000e+00
      1.066      0.134     7.0171     85.614     35.304  35.615446     4.8895      8.863   207.6561 1.9885e+01     3.9388      1.042      1.510    25.2721 0.0000e+00
      1.100      0.166     7.0199     85.657     35.291  35.606618     4.8954      8.842   207.7430 1.8943e+01     3.9497      1.071      1.553    25.3050 0.0000e+00
      1.151      0.196     7.0561     86.076     35.250  35.554758     4.9061      8.813   208.4674 1.7742e+01     3.9724      1.123      1.628    25.3562 0.0000e+00
      1.216      0.219     7.1238     86.863     35.209  35.496566     5.0465      8.778   209.7039 1.6463e+01     3.9386      1.191      1.729    25.4114 0.0000e+00
      1.286      0.230     7.2153     87.928     35.146  35.411162     5.3057      8.739   210.6478 1.5267e+01     3.8466      1.263      1.831    25.4458 0.0000e+00
      1.351      0.226     7.3162     89.093     35.048  35.284357     5.4401      8.702   211.4477 1.4240e+01     3.7746      1.328      1.926    25.4488 0.0000e+00
      1.411      0.207     7.4114     90.189     34.960  35.170236     5.4403      8.672   212.1481 1.3367e+01     3.7395      1.384      2.009    25.4289 0.0000e+00
      1.464      0.178     7.4864     91.057     34.920  35.111139     5.4547      8.647   212.4917 1.2644e+01     3.6050      1.439      2.088    25.4059 0.0000e+00
      1.509      0.147     7.5320     91.591     34.895  35.077951     5.4944      8.626   212.7626 1.2162e+01     3.3394      1.486      2.155    25.3758 0.0000e+00
      1.539      0.119     7.5504     91.814     34.905  35.086556     5.5160      8.605   213.2720 1.1909e+01     3.1514      1.514      2.197    25.3306 0.0000e+00
      1.558      0.099     7.5505     91.817     34.969  35.151652     5.5136      8.580   214.1769 1.1721e+01     3.1028      1.528      2.218    25.2900 0.0000e+00
      1.573      0.087     7.5447     91.737     34.987  35.166307     5.4840      8.549   215.1855 1.1504e+01     3.0876      1.541      2.236    25.2615 0.0000e+00
      1.588      0.081     7.5419     91.683     34.903  35.073175     5.4246      8.516   215.7446 1.1259e+01     3.0896      1.556      2.257    25.2503 0.0000e+00
      1.608      0.077     7.5380     91.617     34.816  34.978387     5.3926      8.489   216.1185 1.0944e+01     3.1270      1.573      2.282    25.2541 0.0000e+00
      1.634      0.075     7.5227     91.420     34.816  34.973027     5.4015      8.468   216.6950 1.0589e+01     3.1428      1.601      2.322    25.2585 0.0000e+00
      1.661      0.072     7.4912     91.025     34.856  35.008362     5.4583      8.450   217.2948 1.0344e+01     3.1283      1.633      2.369    25.2536 0.0000e+00
      1.679      0.069     7.4445     90.441     34.879  35.024485     5.5647      8.432   217.8642 1.0223e+01     3.1344      1.651      2.395    25.2381 0.0000e+00
      1.688      0.067     7.3875     89.731     34.903  35.040924     5.6304      8.411   218.7618 1.0097e+01     3.1561      1.654      2.399    25.2242 0.0000e+00
      1.699      0.070     7.3274     88.986     34.948  35.080064     5.6465      8.386   220.1455 9.9095e+00     3.1465      1.663      2.412    25.2198 0.0000e+00
      1.715      0.081     7.2739     88.317     34.993  35.116594     5.6946      8.351   221.6030 9.7031e+00     3.1098      1.682      2.439    25.2141 0.0000e+00
      1.734      0.103     7.2397     87.857     34.998  35.101478     5.7713      8.308   222.7899 9.4706e+00     3.1095      1.698      2.464    25.2006 0.0000e+00
      1.758      0.129     7.2392     87.740     34.968  35.024318     5.8116      8.262   223.7412 9.1531e+00     3.1428      1.721      2.498    25.1917 0.0000e+00
      1.792      0.153     7.2812     88.061     34.969  34.945817     5.8231      8.218   224.7596 8.6900e+00     3.1761      1.753      2.542    25.1825 0.0000e+00
      1.840      0.173     7.3632     88.830     35.033  34.914441     5.8367      8.178   226.0690 8.1116e+00     3.1768      1.800      2.610    25.1741 0.0000e+00
      1.898      0.185     7.4732     89.946     35.107  34.898887     5.8937      8.143   227.1826 7.5805e+00     3.1210      1.864      2.703    25.1583 0.0000e+00
      1.955      0.186     7.5897     91.173     35.166  34.884672     6.0057      8.116   227.6418 7.1516e+00     3.0819      1.918      2.783    25.0946 0.0000e+00
      2.005      0.176     7.6894     92.235     35.207  34.869496     6.0797      8.095   227.7488 6.7799e+00     3.1008      1.966      2.852    24.9674 0.0000e+00
      2.050      0.160     7.7620     92.995     35.226  34.842349     6.0807      8.075   227.9603 6.4576e+00     3.1358      2.012      2.918    24.8194 0.0000e+00
      2.088      0.142     7.8094     93.463     35.235  34.810444     5.9907      8.055   228.3933 6.1956e+00     3.0468      2.051      2.975    24.6888 0.0000e+00
      2.117      0.126     7.8366     93.687     35.203  34.737760     5.8363      8.036   229.0263 6.0000e+00     2.8173      2.078      3.014    24.5850 0.0000e+00
      2.140      0.112     7.8608     93.791     35.137  34.598660     5.7488      8.017   229.5907 5.8132e+00     2.6813      2.096      3.041    24.5092 0.0000e+00
      2.167      0.100     7.9121     93.970     35.174  34.462393     5.7226      8.000   229.7967 5.6043e+00     2.6542      2.124      3.080    24.4486 0.0000e+00
      2.196      0.090     8.0202     94.603     35.332  34.360285     5.4469      7.985   230.1407 5.4320e+00     2.5497      2.157      3.127    24.3909 0.0000e+00
      2.220      0.088     8.1822     95.895     35.471  34.252945     4.9145      7.966   231.1691 5.3163e+00     2.3643      2.180      3.162    24.3374 0.0000e+00
      2.238      0.096     8.3377     97.225     35.594  34.180486     4.6162      7.938   232.4216 5.2355e+00     2.2741      2.197      3.187    24.2902 0.0000e+00
      2.251      0.112     8.4316     97.822     35.797  34.182629     4.5691      7.908   233.2394 5.1689e+00     2.2822      2.209      3.204    24.0450 0.0000e+00
      2.268      0.132     8.4585     97.537     36.074  34.215060     4.3730      7.882   233.8295 5.0159e+00     2.1877      2.216      3.214    23.5951 0.0000e+00
      2.303      0.150     8.4326     96.641     36.363  34.254689     4.0277      7.861   234.3080 4.7018e+00     2.0174      2.247      3.258    23.2407 0.0000e+00
      2.362      0.163     8.3688     95.439     36.588  34.280340     3.8401      7.844   234.4644 4.3514e+00     1.9322      2.316      3.359    23.0114 0.0000e+00
      2.424      0.163     8.2685     93.974     36.716  34.270878     3.8050      7.829   234.6027 4.1052e+00     1.9198      2.385      3.459    22.7741 0.0000e+00
      2.474      0.148     8.1232     92.162     36.781  34.267138     3.6500      7.817   235.0336 3.9277e+00     1.8974      2.428      3.523    22.4217 0.0000e+00
      2.510      0.122     7.9457     90.138     36.819  34.298539     3.3710      7.804   235.6304 3.8045e+00     1.8146      2.467      3.577    22.0628 0.0000e+00
      2.532      0.094     7.7746     88.209     36.851  34.332954     3.2258      7.791   236.2261 3.7667e+00     1.7427      2.490      3.610    21.8199 0.0000e+00
      2.541      0.071     7.6344     86.542     36.854  34.302154     3.2273      7.777   236.9019 3.7562e+00     1.7303      2.493      3.616    21.6359 0.0000e+00
      2.546      0.057     7.5211     85.188     36.824  34.243682     3.2424      7.764   237.6071 3.7097e+00     1.7253      2.494      3.617    21.5392 0.0000e+00
      2.559      0.053     7.4245     84.165     36.808  34.261105     3.3524      7.749   238.1278 3.6260e+00     1.7739      2.506      3.635    21.5642 0.0000e+00
      2.577      0.058     7.3409     83.333     36.885  34.385830     3.5558      7.734   238.4648 3.5737e+00     1.8909      2.529      3.669    21.6154 0.0000e+00
      2.591      0.071     7.2821     82.561     37.110  34.544956     3.6712      7.716   238.7564 3.5582e+00     1.9499      2.543      3.688    21.5340 0.0000e+00
      2.604      0.085     7.2553     81.821     37.456  34.660585     3.6815      7.695   239.1582 3.5075e+00     1.9375      2.550      3.698    21.4430 0.0000e+00
      2.624      0.099     7.2401     81.069     37.871  34.767287     3.6797      7.673   239.8811 3.4101e+00     1.9540      2.568      3.724    21.5135 0.0000e+00
      2.655      0.115     7.1905     79.973     38.283  34.881897     3.6870      7.648   241.1305 3.2938e+00     1.9667      2.601      3.773    21.6610 0.0000e+00
      2.690      0.135     7.0481     77.903     38.646  34.966119     3.6864      7.619   242.6494 3.1987e+00     1.9383      2.639      3.829    21.6409 0.0000e+00
      2.725      0.156     6.7808     74.493     38.976  35.023041     3.6632      7.591   243.6193 3.1193e+00     1.9167      2.673      3.876    21.2929 0.0000e+00
      2.762      0.167     6.4022     69.921     39.280  35.061653     3.4613      7.568   243.7369 3.0141e+00     1.8267      2.705      3.923    20.8768 0.0000e+00
      2.809      0.165     5.9422     64.581     39.481  35.051531     3.0844      7.551   243.6414 2.8739e+00     1.6444      2.749      3.987    20.5515 0.0000e+00
      2.866      0.152     5.4251     58.796     39.573  35.027442     2.8740      7.536   243.7544 2.7221e+00     1.5434      2.812      4.078    20.2328 0.0000e+00
      2.921      0.132     4.8889     52.944     39.598  35.024337     2.8475      7.521   244.0714 2.6176e+00     1.5217      2.875      4.171    19.9260 0.0000e+00
      2.954      0.111     4.3820     47.478     39.562  35.013962     2.7910      7.505   244.5488 2.5836e+00     1.4429      2.906      4.214    19.6108 0.0000e+00
      2.964      0.093     3.9429     42.748     39.552  35.029070     2.6962      7.486   245.0529 2.5699e+00     1.3219      2.908      4.217    19.3394 0.0000e+00
      2.967      0.084     3.6077     39.095     39.636  35.080010     2.6484      7.466   245.6060 2.5377e+00     1.2492      2.907      4.217    19.2166 0.0000e+00
      2.977      0.084     3.3982     36.746     39.779  35.121675     2.6443      7.446   246.3325 2.5010e+00     1.2659      2.914      4.227    19.1997 0.0000e+00
      3.000      0.093     3.2987     35.550     39.962  35.151592     2.6098      7.427   247.2114 2.4530e+00     1.2492      2.936      4.259    19.2407 0.0000e+00
      3.035      0.107     3.2684     35.087     40.177  35.187485     2.5531      7.410   247.8867 2.3743e+00     1.1388      2.972      4.311    19.3071 0.0000e+00
      3.076      0.121     3.2640     34.880     40.444  35.237843     2.5283      7.393   248.2176 2.3006e+00     1.0907      3.019      4.379    19.2756 0.0000e+00
      3.109      0.131     3.2475     34.475     40.766  35.252068     2.5218      7.378   248.6309 2.2636e+00     1.0948      3.056      4.432    19.1627 0.0000e+00
      3.133      0.137     3.2015     33.711     41.050  35.168562     2.5117      7.363   249.2704 2.2274e+00     1.0671      3.069      4.450    18.9865 0.0000e+00
      3.163      0.140     3.1273     32.675     41.279  35.053531     2.4801      7.346   249.8403 2.1562e+00     1.0603      3.095      4.487    18.7830 0.0000e+00
      3.204      0.143     3.0146     31.288     41.539  35.004226     2.4236      7.328   250.1868 2.0779e+00     1.0736      3.144      4.560    18.6133 0.0000e+00
      3.246      0.148     2.8580     29.491     41.833  35.016740     2.3895      7.308   250.5351 2.0230e+00     1.0753      3.185      4.620    18.2706 0.0000e+00
      3.285      0.154     2.6730     27.436     42.160  35.077501     2.3805      7.288   251.0400 1.9712e+00     1.0809      3.221      4.672    17.8111 0.0000e+00
      3.325      0.156     2.4864     25.385     42.525  35.166940     2.3239      7.267   251.5592 1.9159e+00     1.0802      3.261      4.730    17.4373 0.0000e+00
      3.363      0.150     2.3234     23.595     42.835  35.208561     2.2105      7.249   251.9946 1.8745e+00     1.0669      3.298      4.783    17.1171 0.0000e+00
      3.402      0.140     2.1891     22.132     43.039  35.199345     2.1398      7.235   252.3461 1.8283e+00     1.0728      3.334      4.835    16.8377 0.0000e+00
      3.444      0.129     2.0741     20.905     43.324  35.309384     2.1310      7.223   252.7131 1.7795e+00     1.0912      3.378      4.900    16.6016 0.0000e+00
      3.481      0.119     1.9648     19.754     43.867  35.649568     2.1409      7.209   253.1618 1.7531e+00     1.1058      3.422      4.963    16.3516 0.0000e+00
      3.504      0.113     1.8554     18.600     44.540  36.072665     2.1671      7.194   253.7269 1.7322e+00     1.0963      3.439      4.988    16.0766 0.0000e+00
      3.520      0.112     1.7492     17.472     45.162  36.422848     2.1995      7.176   254.2978 1.7037e+00     1.0678      3.447      5.001    15.8583 0.0000e+00
      3.541      0.114     1.6457     16.372     45.652  36.643612     2.2107      7.157   254.8162 1.6712e+00     1.0663      3.471      5.033    15.7394 0.0000e+00
      3.572      0.116     1.5319     15.175     45.957  36.708857     2.1932      7.138   255.4342 1.6326e+00     1.0789      3.501      5.077    15.6439 0.0000e+00
      3.611      0.115     1.3945     13.765     46.142  36.703281     2.1627      7.121   256.0056 1.5910e+00     1.0678      3.539      5.133    15.5041 0.0000e+00
      3.652      0.109     1.2323     12.135     46.261  36.703068     2.1355      7.106   256.3050 1.5586e+00     1.0535      3.584      5.199    15.3310 0.0000e+00
      3.686      0.097     1.0458     10.289     46.314  36.706177     2.1210      7.092   256.6448 1.5290e+00     1.0593      3.620      5.251    15.1338 0.0000e+00
      3.705      0.085     0.8461      8.321     46.385  36.740831     2.1065      7.078   257.2741 1.5096e+00     1.0766      3.637      5.275    14.9257 0.0000e+00
      3.713      0.075     0.6531      6.416     46.602  36.867932     2.0810      7.063   257.8914 1.5152e+00     1.1097      3.641      5.281    14.7424 0.0000e+00
      3.721      0.072     0.4808      4.715     46.931  37.035862     2.0608      7.046   258.3441 1.5163e+00     1.1247      3.646      5.289    14.6393 0.0000e+00
      3.736      0.078     0.3408      3.334     47.278  37.182951     2.0548      7.028   258.7041 1.5034e+00     1.1050      3.662      5.312    14.6193 0.0000e+00
      3.758      0.091     0.2413      2.353     47.836  37.502704     2.0630      7.010   259.3180 1.4861e+00     1.0854      3.683      5.342    14.6096 0.0000e+00
      3.785      0.105     0.1826      1.776     48.583  37.979460     2.1052      6.991   260.2601 1.4612e+00     1.1309      3.710      5.381    14.5737 0.0000e+00
      3.819      0.116     0.1595      1.546     48.935  38.118924     2.1698      6.973   260.9755 1.4261e+00     1.2285      3.745      5.432    14.4739 0.0000e+00
      3.854      0.122     0.1607      1.551     48.753  37.791107     2.2007      6.954   261.4295 1.3847e+00     1.2578      3.781      5.484    14.3106 0.0000e+00
      3.886      0.123     0.1736      1.668     48.584  37.446320     2.1850      6.933   261.8769 1.3577e+00     1.2412      3.812      5.529    14.1870 0.0000e+00
      3.917      0.119     0.1887      1.804     48.679  37.317014     2.1094      6.912   262.4272 1.3390e+00     1.2108      3.840      5.570    14.0978 0.0000e+00
      3.947      0.111     0.2059      1.961     48.880  37.307454     1.9942      6.892   263.0922 1.3037e+00     1.1654      3.871      5.614    13.9666 0.0000e+00
      3.977      0.104     0.2394      2.274     49.062  37.330539     1.9321      6.875   263.7231 1.2657e+00     1.1491      3.900      5.657    13.7671 0.0000e+00
      4.004      0.101     0.3127      2.965     49.184  37.341894     1.9190      6.860   264.2903 1.2449e+00     1.1365      3.930      5.700    13.5263 0.0000e+00
      4.024      0.100     0.4466      4.227     49.244  37.317598     1.8532      6.845   264.7018 1.2309e+00     1.2574      3.949      5.726    13.3128 0.0000e+00
      4.043      0.098     0.6428      6.072     49.311  37.290814     1.7433      6.832   264.9998 1.2125e+00     1.5426      3.960      5.742    13.1403 0.0000e+00
      4.069      0.095     0.8898      8.392     49.396  37.272076     1.6928      6.822   265.4838 1.1869e+00     1.7157      3.988      5.785    13.0275 0.0000e+00
      4.102      0.097     1.1694     11.007     49.436  37.218008     1.6834      6.812   266.1660 1.1546e+00     1.7632      4.024      5.838    12.9544 0.0000e+00
      4.129      0.106     1.4553     13.661     49.493  37.145224     1.6757      6.797   266.7092 1.1340e+00     1.9647      4.053      5.880    12.8928 0.0000e+00
      4.147      0.117     1.7268     16.156     49.618  37.090747     1.6824      6.781   267.1477 1.1259e+00     2.3211      4.067      5.897    12.8129 0.0000e+00
      4.167      0.127     1.9691     18.363     49.783  37.067390     1.6827      6.765   267.8539 1.0973e+00     2.5314      4.080      5.915    12.7170 0.0000e+00
      4.202      0.138     2.1738     20.222     49.918  37.053236     1.6692      6.750   268.6227 1.0440e+00     2.6462      4.116      5.971    12.6564 0.0000e+00
      4.248      0.149     2.3522     21.846     50.008  37.046551     1.6197      6.738   269.1301 9.9732e-01     3.7707      4.167      6.043    12.5393 0.0000e+00
      4.294      0.158     2.5198     23.381     50.070  37.050006     1.5349      6.728   269.5148 9.6903e-01     5.8738      4.212      6.108    12.3713 0.0000e+00
      4.338      0.161     2.6806     24.860     50.077  37.031426     1.4899      6.718   269.8319 9.4919e-01     7.0468      4.254      6.170    12.2137 0.0000e+00
      4.380      0.157     2.8351     26.287     50.067  37.012463     1.4893      6.709   270.0397 9.2315e-01     7.1809      4.297      6.232    12.0936 0.0000e+00
      4.417      0.151     2.9823     27.649     50.072  37.011308     1.4810      6.701   270.2203 8.8747e-01     7.2508      4.332      6.283    12.0288 0.0000e+00
      4.452      0.146     3.1155     28.883     50.083  37.017452     1.3714      6.693   270.4668 8.5758e-01     7.8003      4.364      6.330    11.9884 0.0000e+00
      4.488      0.141     3.2254     29.899     50.095  37.023214     1.1660      6.685   270.7822 8.3462e-01     8.8513      4.400      6.383    11.9673 0.0000e+00
      4.524      0.134     3.3014     30.602     50.090  37.017438     1.0472      6.676   271.1086 8.0802e-01     9.4601      4.436      6.435    11.9575 0.0000e+00
      4.561      0.124     3.3399     30.960     50.081  37.011141     1.0287      6.668   271.4026 7.7704e-01     9.5771      4.474      6.489    11.9550 0.0000e+00
      4.595      0.112     3.3499     31.053     50.079  37.010610     0.9515      6.663   271.7554 7.4840e-01    10.2043      4.508      6.539    11.9533 0.0000e+00
      4.625      0.100     3.3424     30.984     50.078  37.011027     0.8029      6.658   272.3629 7.3186e-01    11.3367      4.537      6.581    11.9500 0.0000e+00
      4.647      0.094     3.3216     30.791     50.085  37.016187     0.7201      6.650   273.0693 7.1751e-01    11.9457      4.561      6.616    11.9475 0.0000e+00
      4.661      0.095     3.2891     30.490     50.076  37.009466     0.7128      6.638   273.4983 7.0641e-01    12.0139      4.571      6.630    11.9484 0.0000e+00
      4.674      0.101     3.2533     30.159     50.053  36.993290     0.7242      6.626   273.6783 6.9927e-01    12.1307      4.579      6.640    11.9491 0.0000e+00
      4.698      0.108     3.2208     29.857     50.078  37.011184     0.7487      6.616   273.6971 6.7941e-01    12.3197      4.602      6.675    11.9506 0.0000e+00
      4.735      0.113     3.1902     29.571     50.114  37.035230     0.7603      6.611   273.6406 6.5031e-01    12.4079      4.640      6.731    11.9509 0.0000e+00
      4.778      0.115     3.1623     29.311     50.110  37.029919     0.7538      6.607   273.5969 6.0770e-01    12.4338      4.689      6.801    11.9504 0.0000e+00
      4.813      0.113     3.1382     29.086     50.087  37.010489     0.7165      6.602   273.5128 5.6032e-01    12.6628      4.727      6.855    11.9525 0.0000e+00
      4.836      0.104     3.1161     28.881     50.062  36.990882     0.6497      6.598   273.5697 5.3867e-01    13.0413      4.743      6.880    11.9516 0.0000e+00
      4.855      0.094     3.0971     28.704     50.053  36.983442     0.6070      6.595   273.8557 5.3131e-01    13.2249      4.760      6.904    11.9480 0.0000e+00
      4.876      0.086     3.0820     28.563     50.056  36.984067     0.5959      6.591   274.2171 5.1722e-01    13.2355      4.781      6.935    11.9458 0.0000e+00
      4.896      0.084     3.0683     28.434     50.077  36.998428     0.6077      6.585   274.4978 5.0451e-01    13.2609      4.801      6.964    11.9431 0.0000e+00
      4.916      0.086     3.0557     28.316     50.122  37.030020     0.6397      6.578   274.6678 4.8896e-01    13.2878      4.820      6.991    11.9414 0.0000e+00
      4.938      0.088     3.0447     28.214     50.148  37.048396     0.6598      6.572   274.8970 4.6986e-01    13.2859      4.841      7.022    11.9417 0.0000e+00
      4.962      0.086     3.0338     28.114     50.123  37.030029     0.6673      6.565   275.2903 4.5060e-01    13.2687      4.866      7.057    11.9403 0.0000e+00
      4.988      0.085     3.0241     28.024     50.081  36.998532     0.6658      6.558   275.8956 4.2468e-01    13.2018      4.891      7.094    11.9385 0.0000e+00
      5.012      0.087     3.0167     27.955     50.063  36.985211     0.6604      6.549   276.6221 4.0779e-01    13.0568      4.918      7.134    11.9366 0.0000e+00
      5.030      0.093     3.0113     27.905     50.078  36.996024     0.6667      6.538   277.1051 4.0601e-01    12.9196      4.936      7.160    11.9359 0.0000e+00
      5.044      0.102     3.0084     27.878     50.086  37.002205     0.6773      6.526   277.2625 3.9806e-01    12.8559      4.942      7.168    11.9369 0.0000e+00
      5.065      0.113     3.0077     27.871     50.079  36.996419     0.6785      6.516   277.3201 3.7607e-01    12.8654      4.961      7.194    11.9362 0.0000e+00
      5.100      0.124     3.0066     27.861     50.069  36.989599     0.6539      6.509   277.3714 3.4679e-01    12.9436      5.000      7.252    11.9357 0.0000e+00
      5.142      0.131     3.0043     27.840     50.059  36.983265     0.6184      6.504   277.3664 3.1865e-01    13.0383      5.043      7.315    11.9361 0.0000e+00
      5.184      0.132     3.0030     27.828     50.059  36.983361     0.6073      6.502   277.3458 2.8952e-01    13.0641      5.084      7.375    11.9353 0.0000e+00
      5.222      0.127     3.0017     27.817     50.069  36.990763     0.6118      6.501   277.4654 2.6179e-01    13.0429      5.126      7.433    11.9350 0.0000e+00
      5.252      0.117     3.0001     27.802     50.094  37.009230     0.6087      6.498   277.6950 2.4876e-01    13.1474      5.154      7.474    11.9362 0.0000e+00
      5.274      0.108     2.9990     27.792     50.103  37.016056     0.5976      6.494   277.8851 2.4273e-01    13.3515      5.171      7.501    11.9367 0.0000e+00
      5.295      0.099     2.9968     27.771     50.095  37.009769     0.5972      6.489   277.9566 2.4063e-01    13.4349      5.191      7.530    11.9366 0.0000e+00
      5.320      0.093     2.9954     27.758     50.078  36.996743     0.6128      6.484   277.9576 2.3894e-01    13.4538      5.215      7.565    11.9367 0.0000e+00
      5.347      0.090     2.9974     27.777     50.062  36.985618     0.6026      6.480   278.2409 2.2891e-01    13.5802      5.243      7.605    11.9365 0.0000e+00
      5.372      0.092     2.9989     27.792     50.083  37.002310     0.5660      6.475   279.1454 2.2004e-01    13.7733      5.270      7.644    11.9373 0.0000e+00
      5.393      0.098     2.9977     27.782     50.090  37.007981     0.5470      6.464   280.1178 2.1926e-01    13.8656      5.291      7.674    11.9369 0.0000e+00
      5.410      0.102     2.9958     27.763     50.067  36.990660     0.5370      6.453   280.3609 2.2066e-01    13.8723      5.305      7.694    11.9357 0.0000e+00
      5.432      0.102     2.9946     27.751     50.057  36.983455     0.5190      6.446   280.2779 2.0761e-01    14.0067      5.322      7.718    11.9369 0.0000e+00
      5.467      0.097     2.9935     27.741     50.058  36.984401     0.4950      6.444   280.4053 1.8279e-01    14.2091      5.357      7.770    11.9391 0.0000e+00
      5.507      0.092     2.9919     27.728     50.082  37.002096     0.4770      6.441   280.9551 1.6586e-01    14.2747      5.407      7.843    11.9396 0.0000e+00
      5.535      0.091     2.9909     27.719     50.087  37.006824     0.4753      6.436   281.8493 1.5516e-01    14.2806      5.436      7.883    11.9386 0.0000e+00
      5.544      0.091     2.9892     27.703     50.047  36.978043     0.4927      6.431   282.3552 1.5796e-01    14.3114      5.439      7.888    11.9381 0.0000e+00
      5.549      0.089     2.9870     27.682     50.039  36.971748     0.5232      6.426   282.4254 1.7208e-01    14.3119      5.436      7.886    11.9382 0.0000e+00
      5.568      0.088     2.9868     27.679     50.072  36.994232     0.5308      6.423   282.3535 1.6854e-01    14.2861      5.451      7.907    11.9386 0.0000e+00
      5.605      0.091     2.9869     27.679     50.077  36.995786     0.5208      6.422   282.2610 1.5235e-01    14.3052      5.497      7.971    11.9400 0.0000e+00
      5.642      0.099     2.9852     27.664     50.070  36.990521     0.5218      6.420   282.5974 1.4555e-01    14.3284      5.541      8.036    11.9416 0.0000e+00
      5.667      0.108     2.9842     27.655     50.073  36.994109     0.5245      6.415   283.2372 1.4552e-01    14.3527      5.561      8.066    11.9408 0.0000e+00
      5.682      0.108     2.9856     27.669     50.047  36.975643     0.5257      6.410   283.5441 1.3882e-01    14.4463      5.569      8.077    11.9376 0.0000e+00
      5.703      0.101     2.9866     27.678     50.023  36.957827     0.5265      6.406   283.4686 1.3152e-01    14.5143      5.585      8.102    11.9353 0.0000e+00
      5.737      0.091     2.9858     27.670     50.039  36.969282     0.5247      6.404   283.3567 1.2835e-01    14.5348      5.624      8.158    11.9355 0.0000e+00
      5.774      0.082     2.9844     27.657     50.064  36.987090     0.5135      6.404   283.6541 1.2592e-01    14.5110      5.668      8.222    11.9370 0.0000e+00
      5.797      0.077     2.9843     27.656     50.057  36.982560     0.4925      6.400   284.3961 1.2567e-01    14.4396      5.691      8.254    11.9382 0.0000e+00
      5.806      0.076     2.9850     27.662     50.050  36.978035     0.4824      6.391   285.0155 1.2564e-01    14.3736      5.696      8.261    11.9382 0.0000e+00
      5.809      0.079     2.9842     27.655     50.073  36.995901     0.4825      6.384   285.2922 1.2583e-01    14.3241      5.697      8.262    11.9368 0.0000e+00
      5.818      0.087     2.9826     27.641     50.088  37.007991     0.4936      6.380   285.4192 1.2602e-01    14.4203      5.699      8.265    11.9362 0.0000e+00
      5.845      0.100     2.9804     27.621     50.073  36.997161     0.5256      6.375   285.6910 1.2586e-01    14.6515      5.724      8.303    11.9372 0.0000e+00
      5.887      0.115     2.9791     27.608     50.067  36.992020     0.5469      6.369   285.9973 1.2568e-01    14.7699      5.775      8.376    11.9379 0.0000e+00
      5.929      0.130     2.9793     27.612     50.089  37.009356     0.5397      6.362   286.0252 1.2567e-01    14.7528      5.819      8.440    11.9391 0.0000e+00
      5.959      0.139     2.9799     27.619     50.094  37.016177     0.5125      6.356   286.0272 1.2566e-01    14.7500      5.845      8.478    11.9405 0.0000e+00
      5.987      0.138     2.9811     27.632     50.082  37.010969     0.4849      6.353   286.1940 1.2565e-01    14.7668      5.868      8.510    11.9403 0.0000e+00
      6.023      0.133     2.9819     27.640     50.079  37.009918     0.4813      6.351   286.4940 1.2565e-01    14.7727      5.903      8.562    11.9392 0.0000e+00
      6.066      0.130     2.9821     27.642     50.069  37.003470     0.4876      6.349   286.6428 1.2566e-01    14.7606      5.951      8.632    11.9396 0.0000e+00
      6.102      0.130     2.9817     27.640     50.059  36.996536     0.4964      6.347   286.3588 1.2568e-01    14.6809      5.989      8.687    11.9437 0.0000e+00
      6.127      0.127     2.9810     27.632     50.053  36.989607     0.5142      6.345   286.0712 1.2569e-01    14.5719      6.007      8.713    11.9486 0.0000e+00
      6.155      0.118     2.9806     27.626     50.050  36.983216     0.5289      6.343   286.0909 1.2572e-01    14.5113      6.031      8.746    11.9483 0.0000e+00
      6.190      0.105     2.9800     27.618     50.053  36.982791     0.5359      6.343   286.2523 1.2570e-01    14.4968      6.071      8.806    11.9492 0.0000e+00
      6.224      0.092     2.9786     27.605     50.056  36.984466     0.5343      6.344   286.4743 1.2568e-01    14.4889      6.109      8.860    11.9523 0.0000e+00
      6.247      0.077     2.9781     27.600     50.081  37.003468     0.5103      6.345   286.4527 1.2570e-01    14.4770      6.130      8.891    11.9479 0.0000e+00
      6.261      0.060     2.9803     27.620     50.106  37.021948     0.4753      6.345   286.1632 1.2569e-01    14.5050      6.140      8.905    11.9422 0.0000e+00
      6.271      0.044     2.9834     27.650     50.100  37.017328     0.4593      6.345   286.0707 1.2565e-01    14.5534      6.150      8.920    11.9404 0.0000e+00
      6.278      0.036     2.9862     27.675     50.092  37.011138     0.4640      6.346   286.1934 1.2562e-01    14.5439      6.157      8.931    11.9401 0.0000e+00
      6.281      0.036     2.9887     27.699     50.090  37.010627     0.4679      6.347   286.3570 1.2561e-01    14.5110      6.159      8.933    11.9409 0.0000e+00
      6.284      0.044     2.9907     27.720     50.087  37.011148     0.4606      6.346   286.5000 1.2560e-01    14.5220      6.161      8.936    11.9411 0.0000e+00
      6.294      0.055     2.9919     27.734     50.088  37.017443     0.4585      6.345   286.6328 1.2558e-01    14.5249      6.168      8.947    11.9403 0.0000e+00
      6.311      0.068     2.9918     27.737     50.086  37.023217     0.4697      6.342   286.7575 1.2556e-01    14.4850      6.187      8.973    11.9401 0.0000e+00
      6.336      0.082     2.9912     27.734     50.073  37.017436     0.4776      6.340   286.8893 1.2555e-01    14.4663      6.213      9.012    11.9411 0.0000e+00
      6.361      0.094     2.9909     27.729     50.068  37.011083     0.4702      6.336   287.2807 1.2554e-01    14.4815      6.239      9.048    11.9434 0.0000e+00
      6.386      0.104     2.9900     27.717     50.075  37.009929     0.4628      6.329   287.8754 1.2556e-01    14.4865      6.261      9.081    11.9488 0.0000e+00
      6.412      0.112     2.9882     27.697     50.075  37.003472     0.4715      6.322   288.4019 1.2562e-01    14.4963      6.288      9.121    11.9579 0.0000e+00
      6.440      0.115     2.9855     27.670     50.072  36.996537     0.5019      6.316   288.7421 1.2566e-01    14.5078      6.315      9.160    11.9639 0.0000e+00
      6.470      0.110     2.9827     27.641     50.067  36.989598     0.5359      6.311   288.8042 1.2566e-01    14.5033      6.341      9.197    11.9591 0.0000e+00
      6.507      0.100     2.9809     27.624     50.060  36.983102     0.5432      6.309   288.7228 1.2566e-01    14.5037      6.381      9.255    11.9507 0.0000e+00
      6.542      0.085     2.9802     27.618     50.056  36.981520     0.5347      6.310   288.6183 1.2564e-01    14.5127      6.423      9.315    11.9457 0.0000e+00
      6.562      0.070     2.9799     27.617     50.038  36.970470     0.5247      6.311   288.5730 1.2559e-01    14.5204      6.440      9.342    11.9408 0.0000e+00
      6.568      0.058     2.9810     27.628     50.043  36.976557     0.5052      6.311   288.8645 1.2557e-01    14.5360      6.442      9.344    11.9360 0.0000e+00
      6.571      0.053     2.9830     27.648     50.061  36.991582     0.4830      6.310   289.3895 1.2559e-01    14.5797      6.442      9.343    11.9354 0.0000e+00
      6.576      0.056     2.9845     27.663     50.016  36.961555     0.4676      6.309   289.5859 1.2558e-01    14.5907      6.446      9.350    11.9377 0.0000e+00
      6.590      0.069     2.9852     27.672     49.972  36.931145     0.4570      6.307   289.5177 1.2557e-01    14.5461      6.459      9.368    11.9401 0.0000e+00
      6.612      0.084     2.9862     27.680     49.988  36.941549     0.4646      6.303   289.5975 1.2565e-01    14.5296      6.482      9.401    11.9421 0.0000e+00
      6.640      0.098     2.9872     27.685     50.022  36.960285     0.4863      6.300   289.8628 1.2571e-01    14.5428      6.512      9.444    11.9432 0.0000e+00
      6.671      0.108     2.9883     27.690     50.042  36.967088     0.4896      6.298   290.2295 1.2568e-01    14.5542      6.543      9.488    11.9470 0.0000e+00
      6.702      0.111     2.9889     27.692     50.042  36.960261     0.4769      6.297   290.5047 1.2567e-01    14.5454      6.574      9.535    11.9516 0.0000e+00
      6.732      0.108     2.9876     27.677     50.022  36.941271     0.4705      6.294   290.6083 1.2573e-01    14.5275      6.602      9.576    11.9487 0.0000e+00
      6.759      0.103     2.9867     27.666     50.008  36.928055     0.4771      6.293   290.6221 1.2576e-01    14.5208      6.628      9.613    11.9404 0.0000e+00
      6.785      0.098     2.9890     27.686     50.010  36.927525     0.4828      6.292   290.5854 1.2567e-01    14.4949      6.656      9.653    11.9326 0.0000e+00
      6.808      0.096     2.9912     27.705     50.022  36.934862     0.4751      6.289   290.6819 1.2558e-01    14.4891      6.679      9.686    11.9257 0.0000e+00
      6.827      0.096     2.9914     27.707     50.047  36.953230     0.4663      6.285   291.0137 1.2559e-01    14.5119      6.695      9.708    11.9213 0.0000e+00
      6.849      0.097     2.9930     27.723     50.056  36.959029     0.4681      6.283   291.3275 1.2561e-01    14.5261      6.713      9.737    11.9188 0.0000e+00
      6.875      0.098     2.9937     27.729     50.032  36.941439     0.4786      6.281   291.4653 1.2561e-01    14.5396      6.742      9.778    11.9168 0.0000e+00
      6.905      0.098     2.9916     27.709     50.018  36.931149     0.4840      6.278   291.5612 1.2562e-01    14.5519      6.772      9.822    11.9157 0.0000e+00
      6.933      0.098     2.9898     27.692     50.059  36.961662     0.4776      6.275   291.5404 1.2562e-01    14.5534      6.801      9.864    11.9155 0.0000e+00
      6.958      0.094     2.9874     27.671     50.100  36.992731     0.4747      6.273   291.3855 1.2563e-01    14.5575      6.825      9.898    11.9151 0.0000e+00
      6.980      0.087     2.9846     27.646     50.093  36.989161     0.4777      6.273   291.4094 1.2564e-01    14.5708      6.844      9.925    11.9146 0.0000e+00
      7.002      0.078     2.9825     27.627     50.081  36.982024     0.4761      6.272   291.6576 1.2559e-01    14.5613      6.867      9.959    11.9149 0.0000e+00
      7.023      0.073     2.9797     27.602     50.062  36.969963     0.4740      6.269   292.0630 1.2561e-01    14.5955      6.889      9.992    11.9156 0.0000e+00
      7.039      0.071     2.9766     27.575     50.060  36.970390     0.4710      6.266   292.4395 1.2567e-01    14.6799      6.904     10.014    11.9163 0.0000e+00
      7.051      0.070     2.9751     27.563     50.081  36.987185     0.4669      6.264   292.3377 1.2564e-01    14.7259      6.914     10.028    11.9170 0.0000e+00
      7.066      0.070     2.9756     27.567     50.074  36.982450     0.4700      6.262   291.9511 1.2558e-01    14.7550      6.926     10.046    11.9187 0.0000e+00
      7.088      0.072     2.9761     27.572     50.065  36.976666     0.4815      6.259   292.1531 1.2553e-01    14.7573      6.951     10.082    11.9211 0.0000e+00
      7.110      0.079     2.9748     27.560     50.070  36.980774     0.5053      6.255   292.9734 1.2550e-01    14.7237      6.975     10.116    11.9240 0.0000e+00
      7.128      0.089     2.9725     27.539     50.054  36.968599     0.5274      6.249   293.6949 1.2553e-01    14.7142      6.991     10.139    11.9251 0.0000e+00
      7.145      0.101     2.9727     27.540     50.040  36.956510     0.5372      6.243   294.0797 1.2559e-01    14.7349      7.006     10.162    11.9250 0.0000e+00
      7.169      0.112     2.9759     27.568     50.051  36.961660     0.5403      6.239   294.0120 1.2563e-01    14.7597      7.026     10.190    11.9255 0.0000e+00
      7.202      0.123     2.9783     27.588     50.062  36.967331     0.5202      6.236   293.5654 1.2567e-01    14.7693      7.060     10.241    11.9258 0.0000e+00
      7.241      0.128     2.9793     27.596     50.057  36.961552     0.4868      6.235   293.3260 1.2568e-01    14.7595      7.102     10.301    11.9262 0.0000e+00
      7.281      0.123     2.9797     27.599     50.050  36.955313     0.4772      6.236   293.2680 1.2565e-01    14.7640      7.139     10.355    11.9240 0.0000e+00
      7.319      0.109     2.9788     27.591     50.051  36.955417     0.4858      6.237   293.1220 1.2566e-01    14.7939      7.178     10.411    11.9211 0.0000e+00
      7.350      0.087     2.9795     27.598     50.060  36.962810     0.4900      6.239   293.0234 1.2568e-01    14.7542      7.212     10.461    11.9184 0.0000e+00
      7.369      0.063     2.9807     27.611     50.081  36.981182     0.4911      6.241   292.9367 1.2563e-01    14.6192      7.231     10.487    11.9164 0.0000e+00
      7.375      0.043     2.9797     27.603     50.084  36.986967     0.4897      6.243   292.8478 1.2560e-01    14.5350      7.234     10.492    11.9153 0.0000e+00
      7.375      0.031     2.9783     27.591     50.058  36.969226     0.4822      6.245   292.8948 1.2565e-01    14.5301      7.232     10.490    11.9146 0.0000e+00
      7.375      0.029     2.9787     27.595     50.042  36.957260     0.4742      6.245   293.0749 1.2572e-01    14.5904      7.231     10.488    11.9157 0.0000e+00
      7.378      0.036     2.9803     27.608     50.062  36.969349     0.4761      6.245   293.2185 1.2575e-01    14.7154      7.232     10.490    11.9185 0.0000e+00
      7.387      0.046     2.9809     27.612     50.092  36.988332     0.4867      6.244   293.4270 1.2573e-01    14.7897      7.241     10.502    11.9224 0.0000e+00
      7.404      0.053     2.9823     27.623     50.106  36.996189     0.4915      6.243   293.7880 1.2570e-01    14.7554      7.258     10.527    11.9249 0.0000e+00
      7.427      0.055     2.9835     27.635     50.111  37.000824     0.5348      6.243   294.0569 1.2565e-01    14.6977      7.284     10.564    11.9238 0.0000e+00
      7.448      0.055     2.9820     27.623     50.080  36.980838     0.6328      6.243   294.1824 1.2564e-01    14.7030      7.308     10.600    11.9208 0.0000e+00
      7.460      0.055     2.9806     27.613     50.026  36.945136     0.7033      6.241   294.4459 1.2568e-01    14.7278      7.319     10.615    11.9175 0.0000e+00
      7.465      0.058     2.9801     27.608     50.031  36.950326     0.7247      6.236   295.0047 1.2573e-01    14.7231      7.321     10.618    11.9148 0.0000e+00
      7.470      0.066     2.9790     27.598     50.071  36.980057     0.7265      6.231   295.5189 1.2570e-01    14.7073      7.322     10.620    11.9145 0.0000e+00
      7.483      0.078     2.9786     27.594     50.083  36.986969     0.6609      6.227   295.6730 1.2564e-01    14.7194      7.332     10.635    11.9193 0.0000e+00
      7.510      0.090     2.9790     27.596     50.064  36.970362     0.5373      6.225   295.4917 1.2562e-01    14.7469      7.362     10.678    11.9247 0.0000e+00
      7.545      0.099     2.9777     27.583     50.064  36.969849     0.4723      6.225   295.2189 1.2559e-01    14.7651      7.401     10.734    11.9253 0.0000e+00
      7.579      0.103     2.9755     27.563     50.079  36.980766     0.4727      6.224   295.4722 1.2558e-01    14.7564      7.435     10.783    11.9251 0.0000e+00
      7.607      0.106     2.9746     27.555     50.070  36.975303     0.4775      6.219   296.4034 1.2559e-01    14.7642      7.463     10.824    11.9233 0.0000e+00
      7.629      0.109     2.9738     27.548     50.060  36.967324     0.4761      6.211   297.2716 1.2560e-01    14.8289      7.484     10.854    11.9202 0.0000e+00
      7.646      0.112     2.9720     27.530     50.035  36.947817     0.4739      6.205   297.5386 1.2563e-01    14.8680      7.496     10.872    11.9186 0.0000e+00
      7.669      0.113     2.9718     27.527     50.014  36.930028     0.4788      6.204   297.3075 1.2564e-01    14.9004      7.513     10.896    11.9191 0.0000e+00
      7.707      0.112     2.9731     27.539     50.032  36.942819     0.4980      6.205   296.9723 1.2564e-01    14.8848      7.555     10.958    11.9213 0.0000e+00
      7.752      0.111     2.9733     27.542     50.073  36.975424     0.5228      6.207   296.8413 1.2567e-01    14.7714      7.610     11.036    11.9206 0.0000e+00
      7.784      0.108     2.9730     27.540     50.112  37.006606     0.5308      6.209   296.8425 1.2571e-01    14.6887      7.640     11.080    11.9186 0.0000e+00
      7.801      0.101     2.9720     27.533     50.102  37.002193     0.5305      6.210   296.9013 1.2573e-01    14.6786      7.650     11.095    11.9164 0.0000e+00
      7.817      0.089     2.9707     27.523     50.076  36.985607     0.5372      6.210   296.9498 1.2576e-01    14.7108      7.662     11.113    11.9160 0.0000e+00
      7.839      0.079     2.9696     27.513     50.091  36.996647     0.5379      6.211   296.8263 1.2578e-01    14.7416      7.687     11.150    11.9188 0.0000e+00
      7.864      0.072     2.9671     27.491     50.106  37.008623     0.5298      6.211   296.6988 1.2574e-01    14.7466      7.715     11.189    11.9206 0.0000e+00
      7.884      0.065     2.9645     27.467     50.100  37.003350     0.5220      6.212   296.5265 1.2568e-01    14.7409      7.733     11.216    11.9239 0.0000e+00
      7.900      0.057     2.9644     27.465     50.092  36.996420     0.5174      6.213   296.2920 1.2566e-01    14.7324      7.748     11.238    11.9268 0.0000e+00
      7.913      0.048     2.9657     27.475     50.083  36.988358     0.5196      6.215   296.3586 1.2565e-01    14.7358      7.762     11.258    11.9269 0.0000e+00
      7.921      0.043     2.9663     27.481     50.057  36.969405     0.5213      6.215   296.5573 1.2567e-01    14.7212      7.769     11.268    11.9275 0.0000e+00
      7.926      0.042     2.9662     27.481     50.039  36.957845     0.5197      6.216   296.7151 1.2572e-01    14.7086      7.773     11.273    11.9271 0.0000e+00
      7.934      0.046     2.9663     27.482     50.063  36.975642     0.5186      6.216   296.7175 1.2571e-01    14.7353      7.779     11.283    11.9256 0.0000e+00
      7.945      0.051     2.9670     27.488     50.088  36.994004     0.5259      6.215   296.4141 1.2568e-01    14.7389      7.789     11.298    11.9237 0.0000e+00
      7.961      0.057     2.9664     27.483     50.080  36.989269     0.5435      6.214   296.1449 1.2568e-01    14.7218      7.805     11.322    11.9239 0.0000e+00
      7.980      0.064     2.9644     27.468     50.064  36.981922     0.5394      6.212   296.1291 1.2565e-01    14.7122      7.827     11.352    11.9269 0.0000e+00
      7.998      0.069     2.9627     27.454     50.040  36.968704     0.5223      6.212   296.3956 1.2564e-01    14.7140      7.844     11.378    11.9273 0.0000e+00
      8.015      0.074     2.9612     27.441     50.024  36.956520     0.5290      6.210   296.8716 1.2566e-01    14.7438      7.859     11.400    11.9249 0.0000e+00
      8.032      0.079     2.9611     27.437     50.038  36.961661     0.5470      6.206   297.1531 1.2567e-01    14.7676      7.876     11.423    11.9259 0.0000e+00
      8.051      0.084     2.9642     27.462     50.054  36.967332     0.5568      6.202   296.9593 1.2566e-01    14.7575      7.896     11.451    11.9319 0.0000e+00
      8.073      0.086     2.9692     27.505     50.054  36.961548     0.5459      6.199   296.6796 1.2562e-01    14.7135      7.915     11.480    11.9384 0.0000e+00
      8.098      0.085     2.9695     27.505     50.050  36.955253     0.5160      6.196   296.6967 1.2562e-01    14.6933      7.938     11.513    11.9385 0.0000e+00
      8.127      0.081     2.9644     27.457     50.051  36.954742     0.4897      6.194   296.9073 1.2566e-01    14.7266      7.970     11.560    11.9315 0.0000e+00
      8.152      0.074     2.9615     27.430     50.050  36.955367     0.4764      6.192   297.1617 1.2570e-01    14.7504      8.000     11.603    11.9238 0.0000e+00
      8.166      0.066     2.9623     27.440     50.056  36.962808     0.4735      6.191   297.3635 1.2569e-01    14.7365      8.011     11.618    11.9184 0.0000e+00
      8.176      0.058     2.9624     27.442     50.078  36.981185     0.4918      6.190   297.5399 1.2566e-01    14.7107      8.015     11.624    11.9151 0.0000e+00
      8.188      0.055     2.9621     27.439     50.087  36.986975     0.5229      6.189   297.8318 1.2566e-01    14.7137      8.029     11.644    11.9137 0.0000e+00
      8.201      0.064     2.9610     27.426     50.067  36.969281     0.5378      6.184   298.1397 1.2562e-01    14.7422      8.044     11.667    11.9153 0.0000e+00
      8.212      0.083     2.9595     27.411     50.056  36.957827     0.5336      6.178   298.3375 1.2557e-01    14.7493      8.052     11.679    11.9191 0.0000e+00
      8.227      0.106     2.9616     27.429     50.083  36.975540     0.5087      6.172   298.8468 1.2560e-01    14.7699      8.063     11.693    11.9211 0.0000e+00
      8.256      0.127     2.9660     27.468     50.108  36.992861     0.4764      6.167   299.4798 1.2560e-01    14.8689      8.090     11.733    11.9200 0.0000e+00
      8.300      0.142     2.9691     27.498     50.087  36.976671     0.4649      6.163   299.4528 1.2560e-01    14.9699      8.138     11.804    11.9170 0.0000e+00
      8.349      0.150     2.9721     27.526     50.078  36.970375     0.4613      6.162   299.2082 1.2569e-01    14.9836      8.190     11.878    11.9136 0.0000e+00
      8.396      0.149     2.9748     27.551     50.091  36.980260     0.4507      6.163   299.1031 1.2568e-01    14.9436      8.235     11.943    11.9112 0.0000e+00
      8.436      0.138     2.9739     27.543     50.075  36.969127     0.4470      6.164   298.9561 1.2555e-01    14.8830      8.277     12.005    11.9102 0.0000e+00
      8.467      0.120     2.9734     27.539     50.066  36.962822     0.4542      6.166   299.2378 1.2549e-01    14.8001      8.305     12.046    11.9098 0.0000e+00
      8.491      0.100     2.9768     27.570     50.072  36.967565     0.4547      6.167   299.8419 1.2556e-01    14.7337      8.325     12.076    11.9097 0.0000e+00
      8.514      0.086     2.9782     27.584     50.065  36.962940     0.4532      6.168   300.2376 1.2562e-01    14.7215      8.351     12.112    11.9106 0.0000e+00
      8.533      0.079     2.9785     27.587     50.075  36.970428     0.4641      6.167   300.4082 1.2562e-01    14.7742      8.371     12.141    11.9116 0.0000e+00
      8.546      0.078     2.9809     27.610     50.105  36.994578     0.4764      6.165   300.3563 1.2566e-01    14.8532      8.381     12.155    11.9115 0.0000e+00
      8.560      0.079     2.9831     27.632     50.110  37.000827     0.4823      6.164   300.2981 1.2565e-01    14.8832      8.391     12.170    11.9118 0.0000e+00
      8.581      0.080     2.9856     27.655     50.085  36.982456     0.4796      6.165   300.4794 1.2558e-01    14.8931      8.411     12.200    11.9119 0.0000e+00
      8.610      0.085     2.9873     27.671     50.059  36.963039     0.4626      6.166   300.8270 1.2554e-01    14.8813      8.445     12.248    11.9121 0.0000e+00
      8.636      0.094     2.9850     27.651     50.049  36.956639     0.4328      6.163   301.2322 1.2558e-01    14.8013      8.473     12.290    11.9147 0.0000e+00
      8.655      0.107     2.9815     27.617     50.066  36.968606     0.4130      6.157   301.5922 1.2561e-01    14.7483      8.488     12.312    11.9178 0.0000e+00
      8.673      0.122     2.9788     27.591     50.084  36.980667     0.4162      6.151   301.7383 1.2560e-01    14.7600      8.502     12.331    11.9176 0.0000e+00
      8.700      0.134     2.9743     27.549     50.079  36.975402     0.4343      6.150   301.4507 1.2560e-01    14.7601      8.526     12.365    11.9166 0.0000e+00
      8.742      0.141     2.9681     27.491     50.070  36.968472     0.4568      6.150   300.9533 1.2560e-01    14.7499      8.568     12.426    11.9179 0.0000e+00
      8.794      0.140     2.9645     27.458     50.058  36.960410     0.4684      6.150   300.7145 1.2560e-01    14.7574      8.626     12.510    11.9175 0.0000e+00
      8.844      0.130     2.9646     27.459     50.031  36.941457     0.4729      6.152   300.7149 1.2559e-01    14.7595      8.679     12.588    11.9157 0.0000e+00
      8.879      0.111     2.9670     27.482     50.015  36.929897     0.4751      6.156   300.7862 1.2559e-01    14.7460      8.713     12.637    11.9145 0.0000e+00
      8.898      0.091     2.9699     27.509     50.039  36.947695     0.4676      6.158   300.7157 1.2559e-01    14.7460      8.729     12.662    11.9135 0.0000e+00
      8.906      0.079     2.9722     27.531     50.062  36.966068     0.4647      6.156   300.4651 1.2559e-01    14.7600      8.736     12.671    11.9143 0.0000e+00
      8.912      0.078     2.9760     27.566     50.054  36.961448     0.4682      6.152   300.3379 1.2561e-01    14.7622      8.738     12.674    11.9160 0.0000e+00
      8.925      0.084     2.9802     27.606     50.046  36.955371     0.4639      6.149   300.3814 1.2563e-01    14.7420      8.746     12.685    11.9157 0.0000e+00
      8.951      0.094     2.9826     27.627     50.049  36.956120     0.4670      6.149   300.5604 1.2564e-01    14.7292      8.772     12.722    11.9152 0.0000e+00
      8.991      0.103     2.9834     27.634     50.069  36.970502     0.4687      6.150   300.7822 1.2564e-01    14.7608      8.818     12.788    11.9169 0.0000e+00
      9.028      0.110     2.9830     27.629     50.114  37.002200     0.4573      6.150   300.8266 1.2569e-01    14.7885      8.861     12.851    11.9190 0.0000e+00
      9.053      0.113     2.9826     27.624     50.142  37.021731     0.4584      6.150   300.5804 1.2574e-01    14.7892      8.881     12.881    11.9188 0.0000e+00
      9.073      0.111     2.9823     27.622     50.136  37.016071     0.4640      6.150   300.3003 1.2571e-01    14.8298      8.894     12.900    11.9169 0.0000e+00
      9.097      0.106     2.9815     27.614     50.112  36.997290     0.4606      6.149   300.3653 1.2567e-01    14.9129      8.919     12.934    11.9161 0.0000e+00
      9.127      0.104     2.9799     27.599     50.096  36.985229     0.4631      6.148   300.5926 1.2567e-01    14.9710      8.950     12.981    11.9155 0.0000e+00
      9.160      0.105     2.9790     27.591     50.113  36.997302     0.4663      6.148   300.6397 1.2562e-01    14.9517      8.984     13.030    11.9139 0.0000e+00
      9.189      0.104     2.9790     27.589     50.141  37.016197     0.4624      6.149   300.6768 1.2556e-01    14.8020      9.014     13.074    11.9123 0.0000e+00
      9.211      0.096     2.9773     27.572     50.152  37.023108     0.4614      6.149   300.8687 1.2557e-01    14.5945      9.032     13.100    11.9115 0.0000e+00
      9.235      0.082     2.9745     27.547     50.145  37.017327     0.4643      6.149   300.8948 1.2560e-01    14.5190      9.054     13.131    11.9117 0.0000e+00
      9.260      0.067     2.9724     27.527     50.134  37.009828     0.4697      6.150   300.6473 1.2564e-01    14.5600      9.085     13.177    11.9114 0.0000e+00
      9.280      0.055     2.9705     27.510     50.114  36.995978     0.4712      6.151   300.4586 1.2570e-01    14.5715      9.106     13.207    11.9095 0.0000e+00
      9.287      0.048     2.9659     27.467     50.087  36.976920     0.4637      6.151   300.7643 1.2570e-01    14.5362      9.110     13.213    11.9077 0.0000e+00
      9.288      0.048     2.9579     27.394     50.077  36.969985     0.4624      6.150   301.3315 1.2567e-01    14.4992      9.108     13.210    11.9068 0.0000e+00
      9.292      0.054     2.9524     27.343     50.086  36.975656     0.4737      6.148   301.6374 1.2566e-01    14.4900      9.109     13.211    11.9075 0.0000e+00
      9.303      0.062     2.9505     27.325     50.096  36.981951     0.4807      6.147   301.6241 1.2567e-01    14.5479      9.118     13.224    11.9093 0.0000e+00
      9.326      0.069     2.9472     27.294     50.098  36.982575     0.4741      6.146   301.3425 1.2571e-01    14.6495      9.141     13.259    11.9104 0.0000e+00
      9.358      0.072     2.9431     27.256     50.098  36.983191     0.4668      6.146   301.1587 1.2571e-01    14.7125      9.179     13.313    11.9099 0.0000e+00
      9.386      0.069     2.9411     27.238     50.105  36.989400     0.4663      6.147   301.2943 1.2566e-01    14.7289      9.209     13.358    11.9089 0.0000e+00
      9.401      0.060     2.9396     27.225     50.110  36.994125     0.4860      6.149   301.5203 1.2563e-01    14.7262      9.222     13.374    11.9084 0.0000e+00
      9.408      0.047     2.9392     27.222     50.086  36.976794     0.5213      6.150   301.4813 1.2561e-01    14.7101      9.227     13.381    11.9077 0.0000e+00
      9.413      0.035     2.9417     27.244     50.077  36.970442     0.5348      6.151   301.2526 1.2560e-01    14.6870      9.232     13.390    11.9075 0.0000e+00
      9.419      0.027     2.9448     27.273     50.092  36.980847     0.5306      6.151   301.1645 1.2558e-01    14.6909      9.237     13.397    11.9087 0.0000e+00
      9.426      0.024     2.9480     27.303     50.085  36.975544     0.5349      6.152   301.1044 1.2557e-01    14.7259      9.244     13.407    11.9104 0.0000e+00
      9.433      0.024     2.9499     27.320     50.077  36.969851     0.5406      6.152   301.0425 1.2561e-01    14.7439      9.251     13.418    11.9109 0.0000e+00
      9.439 -9.990e-29 -9.990e-29 -9.990e-29 -9.990e-29 -9.990e-29 -9.990e-29 -9.990e-29 -9.990e-29 1.2564e-01 -9.990e-29      9.257     13.426    11.9106 0.0000e+00
      9.445 -9.990e-29 -9.990e-29 -9.990e-29 -9.990e-29 -9.990e-29 -9.990e-29 -9.990e-29 -9.990e-29 1.2563e-01 -9.990e-29      9.263     13.435    11.9104 0.0000e+00
      9.450 -9.990e-29 -9.990e-29 -9.990e-29 -9.990e-29 -9.990e-29 -9.990e-29 -9.990e-29 -9.990e-29 1.2561e-01 -9.990e-29      9.268     13.443    11.9105 0.0000e+00
      9.452 -9.990e-29 -9.990e-29 -9.990e-29 -9.990e-29 -9.990e-29 -9.990e-29 -9.990e-29 -9.990e-29 1.2561e-01 -9.990e-29      9.270     13.446    11.9106 0.0000e+00
