* Sea-Bird SBE19plus  Data File:
* FileName = C:\R\Reservoirs\Data\DataNotYetUploadedToEDI\Raw_CTD\RawDownloads\073124_ccr88_S8188_0009.hex
* Software version 2.8.0.119
* Temperature SN = 8188
* Conductivity SN = 8188
* System UpLoad Time = Aug 02 2024 14:07:21
* <ApplicationData>
* <Seaterm232>
* <SoftwareVersion>2.8.0.119</SoftwareVersion>
* <BuildDate>07-Nov-2018</BuildDate>
* </Seaterm232>
* </ApplicationData>
* <InstrumentState>
* <HardwareData DeviceType='SBE19plus' SerialNumber='01908188'>
*
*    <Manufacturer>Sea-Bird Electronics, Inc.</Manufacturer>
*
*    <FirmwareVersion>3.1.8</FirmwareVersion>
*
*    <FirmwareDate>Mar  9 2016 16:22:29</FirmwareDate>
*
*    <CommandSetVersion>1.4</CommandSetVersion>
*
*    <PCBAssembly PCBSerialNum='260079' AssemblyNum='41054K'/>
*
*    <PCBAssembly PCBSerialNum='260083' AssemblyNum='41059E'/>
*
*    <PCBAssembly PCBSerialNum='260085' AssemblyNum='41606B'/>
*
*    <PCBAssembly PCBSerialNum='260081' AssemblyNum='41967C'/>
*
*    <MfgDate>30 Mar 2022</MfgDate>
*
*    <InternalSensors>
*
*       <Sensor id='Main Temperature'>
*
*          <type>temperature0</type>
*
*          <SerialNumber>01908188</SerialNumber>
*
*       </Sensor>
*
*       <Sensor id='Main Conductivity'>
*
*          <type>conductivity-0</type>
*
*          <SerialNumber>01908188</SerialNumber>
*
*       </Sensor>
*
*       <Sensor id='Main Pressure'>
*
*          <type>strain-0</type>
*
*          <SerialNumber>12220741</SerialNumber>
*
*       </Sensor>
*
*    </InternalSensors>
*
*    <ExternalSensors>
*
*       <Sensor id='volt 0'>
*
*          <type>CHL</type>
*
*          <SerialNumber>FLNTURT-7096</SerialNumber>
*
*       </Sensor>
*
*       <Sensor id='volt 1'>
*
*          <type>NTU</type>
*
*          <SerialNumber>FLNTURT-7096</SerialNumber>
*
*       </Sensor>
*
*       <Sensor id='volt 2'>
*
*          <type>OXY</type>
*
*          <SerialNumber>43-4269</SerialNumber>
*
*       </Sensor>
*
*       <Sensor id='volt 3'>
*
*          <type>not assigned</type>
*
*          <SerialNumber>not assigned</SerialNumber>
*
*       </Sensor>
*
*       <Sensor id='volt 4'>
*
*          <type>PAR</type>
*
*          <SerialNumber>PARLOGICSW-2209</SerialNumber>
*
*       </Sensor>
*
*       <Sensor id='volt 5'>
*
*          <type>not assigned</type>
*
*          <SerialNumber>not assigned</SerialNumber>
*
*       </Sensor>
*
*       <Sensor id='serial'>
*
*          <type>WETLABS</type>
*
*          <SerialNumber>FL3-7350</SerialNumber>
*
*       </Sensor>
*
*    </ExternalSensors>
*
* </HardwareData>
* <StatusData DeviceType='SBE19plus' SerialNumber='01908188'>
*
*    <DateTime>2024-08-02T14:04:34</DateTime>
*
*    <LoggingState>not logging</LoggingState>
*
*    <EventSummary numEvents='0'/>
*
*    <Power>
*
*       <vMain>12.5</vMain>
*
*       <vLith>8.6</vLith>
*
*       <iMain>61.8</iMain>
*
*       <iPump>49.3</iPump>
*
*       <iExt01>22.3</iExt01>
*
*       <iExt2345>20.5</iExt2345>
*
*       <iSerial>54.0</iSerial>
*
*    </Power>
*
*    <MemorySummary>
*
*       <Bytes>301425</Bytes>
*
*       <Samples>12057</Samples>
*
*       <SamplesFree>2619868</SamplesFree>
*
*       <SampleLength>25</SampleLength>
*
*       <Profiles>11</Profiles>
*
*    </MemorySummary>
*
* </StatusData>
* <ConfigurationData DeviceType='SBE19plus' SerialNumber='01908188'>
*
*    <ProfileMode>
*
*       <ScansToAverage>1</ScansToAverage>
*
*       <MinimumCondFreq>2</MinimumCondFreq>
*
*       <PumpDelay>90</PumpDelay>
*
*       <AutoRun>no</AutoRun>
*
*       <IgnoreSwitch>no</IgnoreSwitch>
*
*    </ProfileMode>
*
*    <Battery>
*
*       <Type>alkaline</Type>
*
*       <CutOff>7.5</CutOff>
*
*    </Battery>
*
*    <DataChannels>
*
*       <ExtVolt0>yes</ExtVolt0>
*
*       <ExtVolt1>yes</ExtVolt1>
*
*       <ExtVolt2>yes</ExtVolt2>
*
*       <ExtVolt3>no</ExtVolt3>
*
*       <ExtVolt4>yes</ExtVolt4>
*
*       <ExtVolt5>no</ExtVolt5>
*
*       <SBE38>no</SBE38>
*
*       <WETLABS>yes</WETLABS>
*
*       <OPTODE>no</OPTODE>
*
*       <SBE63>no</SBE63>
*
*       <SeaFET>no</SeaFET>
*
*       <GTD>no</GTD>
*
*    </DataChannels>
*
*    <EchoCharacters>yes</EchoCharacters>
*
*    <OutputExecutedTag>yes</OutputExecutedTag>
*
*    <OutputFormat>raw HEX</OutputFormat>
*
* </ConfigurationData>
* <CalibrationCoefficients DeviceType='SBE19plus' SerialNumber='01908188'>
*
*    <Calibration format='TEMP1' id='Main Temperature'>
*
*       <SerialNum>01908188</SerialNum>
*
*       <CalDate>07-May-24</CalDate>
*
*       <TA0>1.249325e-03</TA0>
*
*       <TA1>2.751683e-04</TA1>
*
*       <TA2>-1.314205e-06</TA2>
*
*       <TA3>1.914222e-07</TA3>
*
*       <TOFFSET>0.000000e+00</TOFFSET>
*
*    </Calibration>
*
*    <Calibration format='WBCOND0' id='Main Conductivity'>
*
*       <SerialNum>01908188</SerialNum>
*
*       <CalDate>07-May-24</CalDate>
*
*       <G>-1.014855e+00</G>
*
*       <H>1.444624e-01</H>
*
*       <I>-3.430060e-04</I>
*
*       <J>4.842261e-05</J>
*
*       <CPCOR>-9.570000e-08</CPCOR>
*
*       <CTCOR>3.250000e-06</CTCOR>
*
*       <CSLOPE>1.000000e+00</CSLOPE>
*
*    </Calibration>
*
*    <Calibration format='STRAIN0' id='Main Pressure'>
*
*       <SerialNum>12220741</SerialNum>
*
*       <CalDate>03-Apr-24</CalDate>
*
*       <PA0>7.209200e-02</PA0>
*
*       <PA1>4.836684e-04</PA1>
*
*       <PA2>-3.501227e-12</PA2>
*
*       <PTCA0>5.244614e+05</PTCA0>
*
*       <PTCA1>2.020364e+01</PTCA1>
*
*       <PTCA2>-6.074616e-01</PTCA2>
*
*       <PTCB0>2.522087e+01</PTCB0>
*
*       <PTCB1>5.750000e-04</PTCB1>
*
*       <PTCB2>0.000000e+00</PTCB2>
*
*       <PTEMPA0>-5.770713e+01</PTEMPA0>
*
*       <PTEMPA1>5.343973e+01</PTEMPA1>
*
*       <PTEMPA2>-5.775530e-01</PTEMPA2>
*
*       <POFFSET>7.020000e-01</POFFSET>
*
*       <PRANGE>1.600000e+02</PRANGE>
*
*    </Calibration>
*
*    <Calibration format='VOLT0' id='Volt 0'>
*
*       <OFFSET>-4.657200e-02</OFFSET>
*
*       <SLOPE>1.248989e+00</SLOPE>
*
*    </Calibration>
*
*    <Calibration format='VOLT0' id='Volt 1'>
*
*       <OFFSET>-4.600800e-02</OFFSET>
*
*       <SLOPE>1.249849e+00</SLOPE>
*
*    </Calibration>
*
*    <Calibration format='VOLT0' id='Volt 2'>
*
*       <OFFSET>-4.668000e-02</OFFSET>
*
*       <SLOPE>1.250379e+00</SLOPE>
*
*    </Calibration>
*
*    <Calibration format='VOLT0' id='Volt 3'>
*
*       <OFFSET>-4.643200e-02</OFFSET>
*
*       <SLOPE>1.251002e+00</SLOPE>
*
*    </Calibration>
*
*    <Calibration format='VOLT0' id='Volt 4'>
*
*       <OFFSET>-4.606100e-02</OFFSET>
*
*       <SLOPE>1.249962e+00</SLOPE>
*
*    </Calibration>
*
*    <Calibration format='VOLT0' id='Volt 5'>
*
*       <OFFSET>-4.642700e-02</OFFSET>
*
*       <SLOPE>1.248530e+00</SLOPE>
*
*    </Calibration>
*
*    <Calibration format='FREQ0' id='external frequency channel'>
*
*       <EXTFREQSF>1.000018e+00</EXTFREQSF>
*
*    </Calibration>
*
* </CalibrationCoefficients>
* <EventCounters DeviceType='SBE19plus' SerialNumber='01908188'>
*
*    <EventSummary numEvents='0'/>
*
* </EventCounters></InstrumentState>
* <Headers>
*
* cast   9 01 Aug 2024 06:40:09 samples 8823 to 9402, avg = 1, stop = mag switch
*
# nquan = 16
# nvalues = 580                         
# units = specified
# name 0 = depFM: Depth [fresh water, m]
# name 1 = dz/dtM: Descent Rate [m/s]
# name 2 = sbeox0Mg/L: Oxygen, SBE 43 [mg/l]
# name 3 = sbeox0PS: Oxygen, SBE 43 [% saturation]
# name 4 = specc: Specific Conductance [uS/cm]
# name 5 = c0uS/cm: Conductivity [uS/cm]
# name 6 = wetCDOM: Fluorescence, WET Labs CDOM [mg/m^3]
# name 7 = flECO-AFL: Fluorescence, WET Labs ECO-AFL/FL [mg/m^3]
# name 8 = flECO-AFL1: Fluorescence, WET Labs ECO-AFL/FL, 2 [mg/m^3]
# name 9 = flECO-AFL2: Fluorescence, WET Labs ECO-AFL/FL, 3 [mg/m^3]
# name 10 = par/sat/log: PAR/Logarithmic, Satlantic
# name 11 = turbWETntu0: Turbidity, WET Labs ECO [NTU]
# name 12 = prdM: Pressure, Strain Gauge [db]
# name 13 = prdE: Pressure, Strain Gauge [psi]
# name 14 = tv290C: Temperature [ITS-90, deg C]
# name 15 = flag:  0.000e+00
# span 0 =     -0.470,      4.045       
# span 1 =     -0.518,      0.195       
# span 2 =     4.4070,     9.1188       
# span 3 =     55.763,    117.346       
# span 4 =      3.797,    118.248       
# span 5 =   3.664289, 126.014776       
# span 6 =    -4.5000,   367.2000       
# span 7 =    -0.2579,     3.1869       
# span 8 =    -2.1300,     3.4080       
# span 9 =    -2.0304,     0.4230       
# span 10 = 3.1155e+00, 3.4033e+01      
# span 11 =     0.0983,    93.7129      
# span 12 =     -0.461,      3.967      
# span 13 =     -0.669,      5.753      
# span 14 =    21.8984,    28.4052      
# span 15 = 0.0000e+00, 0.0000e+00      
# interval = seconds: 0.25
# start_time = Aug 01 2024 06:40:09 [Instrument's time stamp, header]
# bad_flag = -9.990e-29
# <Sensors count="10" >
#   <sensor Channel="1" >
#     <!-- Count, Temperature -->
#     <TemperatureSensor SensorID="58" >
#       <SerialNumber>8188</SerialNumber>
#       <CalibrationDate>07-May-24</CalibrationDate>
#       <A0>1.24932504e-003</A0>
#       <A1>2.75168293e-004</A1>
#       <A2>-1.31420465e-006</A2>
#       <A3>1.91422179e-007</A3>
#       <Slope>1.00000000</Slope>
#       <Offset>0.0000</Offset>
#     </TemperatureSensor>
#   </sensor>
#   <sensor Channel="2" >
#     <!-- Frequency 0, Conductivity -->
#     <ConductivitySensor SensorID="3" >
#       <SerialNumber>8188</SerialNumber>
#       <CalibrationDate>07-May-24</CalibrationDate>
#       <UseG_J>1</UseG_J>
#       <!-- Cell const and series R are applicable only for wide range sensors. -->
#       <SeriesR>0.0000</SeriesR>
#       <CellConst>2000.0000</CellConst>
#       <ConductivityType>0</ConductivityType>
#       <Coefficients equation="0" >
#         <A>0.00000000e+000</A>
#         <B>0.00000000e+000</B>
#         <C>0.00000000e+000</C>
#         <D>0.00000000e+000</D>
#         <M>0.0</M>
#         <CPcor>-9.57000000e-008</CPcor>
#       </Coefficients>
#       <Coefficients equation="1" >
#         <G>-1.01485473e+000</G>
#         <H>1.44462400e-001</H>
#         <I>-3.43006030e-004</I>
#         <J>4.84226116e-005</J>
#         <CPcor>-9.57000000e-008</CPcor>
#         <CTcor>3.2500e-006</CTcor>
#         <!-- WBOTC not applicable unless ConductivityType = 1. -->
#         <WBOTC>0.00000000e+000</WBOTC>
#       </Coefficients>
#       <Slope>1.00000000</Slope>
#       <Offset>0.00000</Offset>
#     </ConductivitySensor>
#   </sensor>
#   <sensor Channel="3" >
#     <!-- Count, Pressure, Strain Gauge -->
#     <PressureSensor SensorID="46" >
#       <SerialNumber>8188</SerialNumber>
#       <CalibrationDate>03-Apr-24</CalibrationDate>
#       <PA0>7.20920045e-002</PA0>
#       <PA1>4.83668449e-004</PA1>
#       <PA2>-3.50122678e-012</PA2>
#       <PTEMPA0>-5.77071299e+001</PTEMPA0>
#       <PTEMPA1>5.34397285e+001</PTEMPA1>
#       <PTEMPA2>-5.77553003e-001</PTEMPA2>
#       <PTCA0>5.24461366e+005</PTCA0>
#       <PTCA1>2.02036405e+001</PTCA1>
#       <PTCA2>-6.07461634e-001</PTCA2>
#       <PTCB0>2.52208750e+001</PTCB0>
#       <PTCB1>5.75000000e-004</PTCB1>
#       <PTCB2>0.00000000e+000</PTCB2>
#       <Offset>0.000000</Offset>
#     </PressureSensor>
#   </sensor>
#   <sensor Channel="4" >
#     <!-- A/D voltage 0, Fluorometer, WET Labs ECO-AFL/FL -->
#     <FluoroWetlabECO_AFL_FL_Sensor SensorID="20" >
#       <SerialNumber>FLNTURT-7096</SerialNumber>
#       <CalibrationDate>21-Mar-2024</CalibrationDate>
#       <ScaleFactor>5.00000000e+001</ScaleFactor>
#       <!-- Dark output -->
#       <Vblank>0.0710</Vblank>
#     </FluoroWetlabECO_AFL_FL_Sensor>
#   </sensor>
#   <sensor Channel="5" >
#     <!-- A/D voltage 1, Turbidity Meter, WET Labs, ECO-NTU -->
#     <TurbidityMeter SensorID="67" >
#       <SerialNumber>FLNTURT-7096</SerialNumber>
#       <CalibrationDate>21-Mar-2024</CalibrationDate>
#       <ScaleFactor>198.000000</ScaleFactor>
#       <!-- Dark output -->
#       <DarkVoltage>0.070000</DarkVoltage>
#     </TurbidityMeter>
#   </sensor>
#   <sensor Channel="6" >
#     <!-- A/D voltage 2, Oxygen, SBE 43 -->
#     <OxygenSensor SensorID="38" >
#       <SerialNumber>4269</SerialNumber>
#       <CalibrationDate>08-May-24</CalibrationDate>
#       <Use2007Equation>1</Use2007Equation>
#       <CalibrationCoefficients equation="0" >
#         <!-- Coefficients for Owens-Millard equation. -->
#         <Boc>0.0000</Boc>
#         <Soc>0.0000e+000</Soc>
#         <offset>0.0000</offset>
#         <Pcor>0.00e+000</Pcor>
#         <Tcor>0.0000</Tcor>
#         <Tau>0.0</Tau>
#       </CalibrationCoefficients>
#       <CalibrationCoefficients equation="1" >
#         <!-- Coefficients for Sea-Bird equation - SBE calibration in 2007 and later. -->
#         <Soc>4.3983e-001</Soc>
#         <offset>-0.4978</offset>
#         <A>-4.5504e-003</A>
#         <B> 2.4929e-004</B>
#         <C>-4.1306e-006</C>
#         <D0> 2.5826e+000</D0>
#         <D1> 1.92634e-004</D1>
#         <D2>-4.64803e-002</D2>
#         <E> 3.6000e-002</E>
#         <Tau20> 1.9700</Tau20>
#         <H1>-3.3000e-002</H1>
#         <H2> 5.0000e+003</H2>
#         <H3> 1.4500e+003</H3>
#       </CalibrationCoefficients>
#     </OxygenSensor>
#   </sensor>
#   <sensor Channel="7" >
#     <!-- A/D voltage 3, PAR/Logarithmic, Satlantic -->
#     <PARLog_SatlanticSensor SensorID="76" >
#       <SerialNumber>2209</SerialNumber>
#       <CalibrationDate>14-Jan-2022</CalibrationDate>
#       <a0>9.8861e-001</a0>
#       <a1>8.0845e-001</a1>
#       <Im>1.3589e+000</Im>
#       <Multiplier>1.0000e+000</Multiplier>
#     </PARLog_SatlanticSensor>
#   </sensor>
#   <sensor Channel="8" >
#     <!-- Serial RS-232, Fluorometer, WET Labs ECO-AFL/FL, 2 -->
#     <FluoroWetlabECO_AFL_FL_Sensor SensorID="20" >
#       <SerialNumber>FL3-7350</SerialNumber>
#       <CalibrationDate>10-Mar-2022</CalibrationDate>
#       <ScaleFactor>4.26000000e-002</ScaleFactor>
#       <!-- Dark output -->
#       <Vblank>50.0000</Vblank>
#     </FluoroWetlabECO_AFL_FL_Sensor>
#   </sensor>
#   <sensor Channel="9" >
#     <!-- Serial RS-232, Fluorometer, WET Labs ECO-AFL/FL, 3 -->
#     <FluoroWetlabECO_AFL_FL_Sensor SensorID="20" >
#       <SerialNumber>FL3-7350</SerialNumber>
#       <CalibrationDate>10-Mar-2022</CalibrationDate>
#       <ScaleFactor>4.23000000e-002</ScaleFactor>
#       <!-- Dark output -->
#       <Vblank>48.0000</Vblank>
#     </FluoroWetlabECO_AFL_FL_Sensor>
#   </sensor>
#   <sensor Channel="10" >
#     <!-- Serial RS-232, Fluorometer, WET Labs ECO CDOM -->
#     <FluoroWetlabCDOM_Sensor SensorID="19" >
#       <SerialNumber>FL3-7350</SerialNumber>
#       <CalibrationDate>10-Mar-2022</CalibrationDate>
#       <ScaleFactor>0.090</ScaleFactor>
#       <!-- Dark output -->
#       <Vblank>50.000</Vblank>
#     </FluoroWetlabCDOM_Sensor>
#   </sensor>
# </Sensors>
# datcnv_date = Aug 02 2024 14:31:43, 7.26.7.129 [datcnv_vars = 15]
# datcnv_in = C:\R\Reservoirs\Data\DataNotYetUploadedToEDI\Raw_CTD\RawDownloads\090124_ccr90_S8188009.hex C:\R\Reservoirs\Data\DataNotYetUploadedToEDI\Raw_CTD\RawDownloads\SBE19plusV2_8188_start20240601.xmlcon
# datcnv_skipover = 0
# datcnv_ox_hysteresis_correction = yes
# datcnv_ox_tau_correction = yes
# filter_date = Aug 02 2024 14:33:18, 7.26.7.129
# filter_in = C:\R\Reservoirs\Data\DataNotYetUploadedToEDI\Raw_CTD\RawDownloads\090124_ccr90_S8188009.cnv
# filter_low_pass_tc_A = 0.500
# filter_low_pass_tc_B = 1.000
# filter_low_pass_A_vars = sbeox0Mg/L sbeox0PS specc c0uS/cm tv290C
# filter_low_pass_B_vars = depFM dz/dtM prdM prdE
# alignctd_date = Aug 02 2024 14:33:58, 7.26.7.129
# alignctd_in = C:\R\Reservoirs\Data\DataNotYetUploadedToEDI\Raw_CTD\RawDownloads\090124_ccr90_S8188009.cnv
# alignctd_adv = dz/dtM 1.000, sbeox0PS 1.000, specc 1.000, c0uS/cm 1.000, flECO-AFL 1.000, turbWETntu0 1.000                                                                                                                        
# file_type = ascii
*END*
     -0.462      0.013     8.9583    102.272      3.797   3.664289    -4.5000    -0.2502    -2.1300    -2.0304 2.4976e+01     2.6060     -0.453     -0.657    21.8984 0.0000e+00
     -0.458      0.016     8.9580    102.273      4.892   4.759690    -4.5000    -0.2312    -2.1300    -2.0304 2.4455e+01     2.6060     -0.450     -0.652    21.9021 0.0000e+00
     -0.454      0.021     8.9573    102.274      6.732   6.599859    -4.5000    -0.2579    -2.1300    -2.0304 2.4101e+01     2.6664     -0.446     -0.646    21.9084 0.0000e+00
     -0.449      0.027     8.9558    102.273      9.808   9.675507     3.6000    -0.2083     0.0852     0.1692 2.3712e+01     4.9173     -0.440     -0.639    21.9189 0.0000e+00
     -0.442      0.035     8.9530    102.272     14.948  14.814762     3.6000    -0.1816     0.0852     0.1692 2.0242e+01     4.9475     -0.433     -0.629    21.9365 0.0000e+00
     -0.433      0.045     8.9483    102.275     23.541  23.404002     3.6000    -0.1854     0.0852     0.1692 1.6986e+01     4.9324     -0.425     -0.616    21.9661 0.0000e+00
     -0.422      0.057     8.9404    102.288     37.891  37.745623     3.6000    -0.2045     0.0852     0.1692 1.5582e+01     4.9022     -0.414     -0.600    22.0155 0.0000e+00
     -0.407      0.073     8.9269    102.320     58.469  58.498207     3.6000    -0.1434     0.0852     0.1692 1.5181e+01    15.0537     -0.399     -0.579    22.0979 0.0000e+00
     -0.388      0.093     8.9045    102.373     79.838  80.583554     3.6900    -0.1701     0.0852     0.0846 1.6723e+01    15.0688     -0.381     -0.552    22.2354 0.0000e+00
     -0.364      0.114     8.8674    102.441     95.528  97.532108     3.6900    -0.1549     0.0852     0.0846 1.8257e+01    15.0084     -0.357     -0.517    22.4646 0.0000e+00
     -0.333      0.136     8.8065    102.536    104.818 108.222894     3.6900    -0.1282     0.0852     0.0846 1.9093e+01    14.8875     -0.326     -0.473    22.8468 0.0000e+00
     -0.294      0.156     8.7090    102.686    110.046 114.680802     3.6900     0.5051     0.0852     0.0846 1.9768e+01     0.1890     -0.288     -0.417    23.4654 0.0000e+00
     -0.248      0.173     8.5768    102.926    112.928 118.511974     4.1400     0.4860     0.0852     0.1269 1.9768e+01     0.2041     -0.243     -0.353    24.3171 0.0000e+00
     -0.199      0.185     8.4363    103.278    114.479 120.732101     4.1400     0.4784     0.0852     0.1269 2.2114e+01     0.2645     -0.195     -0.282    25.2420 0.0000e+00
     -0.147      0.193     8.3150    103.741    115.264 121.945246     4.1400     0.5013     0.0852     0.1269 2.5287e+01     0.2645     -0.145     -0.209    26.0734 0.0000e+00
     -0.096      0.195     8.2248    104.301    115.616 122.534945     4.1400     0.4517     0.0852     0.1269 2.1695e+01     0.2796     -0.094     -0.136    26.7421 0.0000e+00
     -0.045      0.193     8.1687    104.939    115.783 122.790504    17.9100     0.4135     0.0852     0.2115 1.8687e+01     0.2343     -0.044     -0.064    27.2387 0.0000e+00
      0.005      0.188     8.1447    105.628    115.916 122.898106    17.9100     0.4212     0.0852     0.2115 1.7142e+01     0.2947      0.005      0.007    27.5828 0.0000e+00
      0.053      0.182     8.1478    106.326    116.069 122.974462    17.9100     0.4173     0.0852     0.2115 6.8326e+00     0.2041      0.052      0.075    27.8048 0.0000e+00
      0.099      0.173     8.1724    106.984    116.249 123.105933    17.9100     0.4097     0.0852     0.2115 9.5027e+00     0.4005      0.097      0.141    27.9331 0.0000e+00
      0.143      0.164     8.2140    107.568    116.401 123.285554    11.7900     0.4212     0.0426     0.2538 9.1839e+00     0.4458      0.140      0.203    27.9877 0.0000e+00
      0.183      0.153     8.2680    108.071    116.461 123.437190    11.7900     0.4021     0.0426     0.2538 8.1742e+00     0.4911      0.180      0.261    27.9863 0.0000e+00
      0.221      0.142     8.3268    108.506    116.451 123.543270    11.7900     0.4288     0.0426     0.2538 6.8535e+00     0.3703      0.217      0.314    27.9570 0.0000e+00
      0.256      0.129     8.3813    108.897    116.460 123.664104    11.7900     0.4898     0.0426     0.2538 6.2761e+00     0.0983      0.251      0.364    27.9359 0.0000e+00
      0.288      0.116     8.4254    109.271    116.524 123.829920    11.7900     0.5013     0.0426     0.2538 6.5877e+00     0.2494      0.282      0.410    27.9465 0.0000e+00
      0.317      0.101     8.4586    109.670    116.600 123.988908    12.0600     0.4708     0.0426     0.2538 6.3062e+00     0.2947      0.311      0.450    27.9863 0.0000e+00
      0.341      0.087     8.4850    109.952    116.640 124.089439    12.0600     0.4822     0.0426     0.2538 6.4084e+00     0.1890      0.334      0.485    28.0372 0.0000e+00
      0.360      0.074     8.5083    109.524    116.636 124.124313    12.0600     0.4135     0.0426     0.2538 6.5307e+00     0.2192      0.353      0.513    28.0857 0.0000e+00
      0.376      0.062     8.5312    107.731    116.603 124.112832    12.0600     0.4135     0.0426     0.2538 6.5563e+00     0.2192      0.368      0.534    28.1275 0.0000e+00
      0.388      0.052     8.5573    104.458    116.575 124.093951    11.8800     0.4212     0.0426     0.1692 6.7838e+00     0.1890      0.381      0.552    28.1615 0.0000e+00
      0.399      0.044     8.5755    100.072    116.560 124.080640    11.8800     0.4517     0.0426     0.1692 6.8728e+00     0.1588      0.392      0.568    28.1865 0.0000e+00
      0.409      0.037     8.5396     95.103    116.529 124.041341    11.8800     0.5547     0.0426     0.1692 7.1875e+00     0.3098      0.402      0.582    28.2033 0.0000e+00
      0.418      0.032     8.3983     90.113    116.444 123.937564    11.8800     0.5585     0.0426     0.1692 7.3135e+00     0.1588      0.410      0.595    28.2133 0.0000e+00
      0.426      0.028     8.1424     85.636    116.283 123.745635    11.9700     0.5585     0.0426     0.1692 7.1377e+00     0.1739      0.418      0.606    28.2182 0.0000e+00
      0.432      0.025     7.8003     82.128    116.106 123.534410    11.9700     0.5585     0.0426     0.1692 7.2251e+00     0.2343      0.424      0.614    28.2191 0.0000e+00
      0.437      0.022     7.4133     79.861    116.038 123.439621    11.9700     0.5013     0.0426     0.1692 7.1052e+00     0.2947      0.429      0.622    28.2166 0.0000e+00
      0.442      0.019     7.0250     78.748    116.091 123.478003    11.9700     0.4708     0.0426     0.1692 7.0040e+00     0.2494      0.434      0.629    28.2108 0.0000e+00
      0.447      0.017     6.6769     78.379    116.183 123.563760    11.9700     0.4860     0.0426     0.1692 6.9964e+00     0.2494      0.439      0.636    28.2022 0.0000e+00
      0.451      0.015     6.4046     78.297    116.265 123.641739    11.9700     0.4784     0.0426     0.1269 7.2031e+00     0.2947      0.443      0.642    28.1923 0.0000e+00
      0.455      0.014     6.2289     78.216    116.328 123.700724    11.9700     0.4593     0.0426     0.1269 7.2739e+00     0.1890      0.446      0.646    28.1827 0.0000e+00
      0.458      0.014     6.1429     78.036    116.377 123.744438    11.9700     0.4708     0.0426     0.1269 7.1191e+00     0.1437      0.449      0.651    28.1749 0.0000e+00
      0.461      0.014     6.1148     77.800    116.418 123.780539    11.9700     0.4822     0.0426     0.1269 7.3550e+00     0.2947      0.452      0.655    28.1696 0.0000e+00
      0.464      0.014     6.1089     77.648    116.454 123.812651    11.9700     0.4593     0.0852     0.1692 7.4953e+00     0.1588      0.455      0.660    28.1657 0.0000e+00
      0.468      0.014     6.1030     77.737    116.485 123.841333    11.9700     0.5394     0.0852     0.1692 7.5739e+00     0.2494      0.459      0.665    28.1622 0.0000e+00
      0.471      0.015     6.0893     78.173    116.520 123.876235    11.9700     0.5699     0.0852     0.1692 7.7084e+00     0.2192      0.462      0.671    28.1587 0.0000e+00
      0.475      0.015     6.0712     79.001    116.557 123.918660    11.9700     0.5394     0.0852     0.1692 7.7319e+00     0.1890      0.466      0.676    28.1556 0.0000e+00
      0.480      0.015     6.0596     80.147    116.578 123.947912    11.8800     0.5356     0.0852     0.0846 7.8487e+00     0.1588      0.470      0.682    28.1530 0.0000e+00
      0.484      0.015     6.0668     81.428    116.574 123.951784    11.8800     0.5356     0.0852     0.0846 7.9275e+00     0.2041      0.474      0.688    28.1509 0.0000e+00
      0.487      0.015     6.1009     82.645    116.554 123.939313    11.8800     0.5356     0.0852     0.0846 7.9967e+00     0.2947      0.478      0.693    28.1499 0.0000e+00
      0.491      0.015     6.1654     83.650    116.534 123.927181    11.8800     0.5127     0.0852     0.0846 7.9777e+00     0.1739      0.482      0.699    28.1510 0.0000e+00
      0.495      0.014     6.2545     84.387    116.523 123.924155    11.8800     0.5318     0.0852     0.2115 8.2116e+00     0.2494      0.486      0.704    28.1538 0.0000e+00
      0.499      0.012     6.3541     84.856    116.517 123.925429    11.8800     0.4822     0.0852     0.2115 8.2725e+00     0.5062      0.489      0.709    28.1574 0.0000e+00
      0.502      0.010     6.4486     85.067    116.513 123.927342    11.8800     0.4593     0.0852     0.2115 8.2330e+00     0.4005      0.492      0.714    28.1612 0.0000e+00
      0.505      0.008     6.5266     85.037    116.512 123.930405    11.8800     0.4593     0.0852     0.2115 8.3719e+00     0.4760      0.495      0.717    28.1653 0.0000e+00
      0.506      0.006     6.5836     84.815    116.516 123.935433    11.8800     0.4860     0.0852     0.2115 8.4542e+00     0.5364      0.497      0.720    28.1691 0.0000e+00
      0.507      0.004     6.6198     84.459    116.506 123.923762    11.8800     0.4708     0.0426     0.1692 8.4011e+00     0.3854      0.498      0.721    28.1725 0.0000e+00
      0.508      0.003     6.6359     83.999    116.446 123.852267    11.8800     0.4746     0.0426     0.1692 8.5225e+00     0.3552      0.498      0.722    28.1752 0.0000e+00
      0.508      0.003     6.6335     83.420    116.328 123.711884    11.8800     0.4784     0.0426     0.1692 8.6757e+00     0.5515      0.498      0.722    28.1768 0.0000e+00
      0.508      0.004     6.6161     82.700    116.231 123.591216    11.8800     0.4593     0.0426     0.1692 8.8509e+00     0.4458      0.498      0.722    28.1773 0.0000e+00
      0.509      0.005     6.5884     81.869    116.238 123.582125    11.9700     0.5318     0.0852     0.1692 8.8259e+00     0.4458      0.499      0.723    28.1765 0.0000e+00
      0.510      0.006     6.5528     81.033    116.319 123.656175    11.9700     0.5432     0.0852     0.1692 8.6268e+00     0.4156      0.501      0.726    28.1733 0.0000e+00
      0.512      0.007     6.5084     80.305    116.404 123.737085    11.9700     0.5470     0.0852     0.1692 8.7078e+00     0.4911      0.503      0.729    28.1670 0.0000e+00
      0.514      0.008     6.4531     79.717    116.450 123.774408    11.9700     0.5356     0.0852     0.1692 8.8336e+00     0.4156      0.505      0.731    28.1593 0.0000e+00
      0.516      0.009     6.3891     79.193    116.436 123.744084    12.0600     0.4898     0.0426     0.2115 8.8432e+00     0.4911      0.507      0.734    28.1524 0.0000e+00
      0.519      0.009     6.3243     78.628    116.370 123.654031    12.0600     0.4936     0.0426     0.2115 8.7229e+00     0.4911      0.509      0.737    28.1473 0.0000e+00
      0.521      0.008     6.2680     77.965    116.293 123.550258    12.0600     0.4898     0.0426     0.2115 8.7514e+00     0.4609      0.512      0.741    28.1430 0.0000e+00
      0.524      0.007     6.2226     77.219    116.284 123.519125    12.0600     0.4822     0.0426     0.2115 8.7819e+00     0.5364      0.514      0.745    28.1379 0.0000e+00
      0.526      0.005     6.1825     76.476    116.366 123.592340    12.0600     0.5051     0.0426     0.2115 8.6118e+00     0.2343      0.517      0.749    28.1313 0.0000e+00
      0.528      0.002     6.1393     75.865    116.463 123.693396    11.9700     0.4746     0.0426     0.2538 8.4744e+00     0.3098      0.518      0.751    28.1230 0.0000e+00
      0.528      0.000     6.0886     75.501    116.502 123.735207    11.9700     0.4822     0.0426     0.2538 8.5428e+00     0.2192      0.518      0.751    28.1135 0.0000e+00
      0.527     -0.002     6.0313     75.407    116.459 123.682908    11.9700     0.4708     0.0426     0.2538 8.6964e+00     0.2494      0.516      0.749    28.1042 0.0000e+00
      0.525     -0.003     5.9739     75.506    116.365 123.568569    11.9700     0.4517     0.0426     0.2538 8.9301e+00     0.2494      0.515      0.746    28.0985 0.0000e+00
      0.523     -0.004     5.9263     75.683    116.299 123.483736    11.9700     0.5013     0.0426     0.2538 9.0178e+00     0.3552      0.513      0.744    28.0975 0.0000e+00
      0.522     -0.003     5.8979     75.853    116.318 123.493811    11.9700     0.4708     0.0426     0.2538 8.9943e+00     0.4156      0.512      0.743    28.0977 0.0000e+00
      0.522     -0.002     5.8908     75.975    116.390 123.571473    11.9700     0.4593     0.0426     0.2538 8.9301e+00     0.4609      0.512      0.743    28.0949 0.0000e+00
      0.522     -0.002     5.8992     76.045    116.461 123.655404    11.9700     0.4746     0.0426     0.2538 9.0257e+00     0.4005      0.512      0.742    28.0887 0.0000e+00
      0.521     -0.001     5.9137     76.065    116.498 123.705970    11.9700     0.4975     0.0426     0.2115 9.1461e+00     0.4458      0.511      0.742    28.0820 0.0000e+00
      0.521      0.000     5.9274     76.013    116.493 123.708647    11.9700     0.4936     0.0426     0.2115 9.0315e+00     0.5364      0.511      0.741    28.0781 0.0000e+00
      0.521      0.001     5.9369     75.847    116.459 123.674152    11.9700     0.4479     0.0426     0.2115 8.9553e+00     0.5666      0.511      0.741    28.0784 0.0000e+00
      0.521      0.001     5.9420     75.536    116.408 123.615294    11.9700     0.4784     0.0426     0.2115 8.8316e+00     0.5062      0.511      0.741    28.0822 0.0000e+00
      0.522      0.002     5.9430     75.088    116.346 123.540386    11.9700     0.4860     0.0852     0.2115 8.8355e+00     0.1588      0.512      0.742    28.0870 0.0000e+00
      0.523      0.002     5.9386     74.555    116.276 123.455459    11.9700     0.4708     0.0852     0.2115 8.8643e+00     0.2494      0.513      0.743    28.0904 0.0000e+00
      0.523      0.002     5.9256     74.026    116.198 123.365873    11.9700     0.4860     0.0852     0.2115 8.7286e+00     0.2494      0.513      0.745    28.0911 0.0000e+00
      0.524      0.002     5.9015     73.596    116.114 123.271746    11.9700     0.4784     0.0852     0.2115 8.7002e+00     0.1134      0.514      0.746    28.0891 0.0000e+00
      0.525      0.002     5.8669     73.330    116.014 123.159982    11.9700     0.5509     0.0852     0.2115 8.7495e+00     0.4156      0.515      0.746    28.0851 0.0000e+00
      0.525      0.001     5.8257     73.245    115.896 123.026784    11.8800     0.5470     0.0426     0.2115 8.8933e+00     0.4307      0.515      0.747    28.0807 0.0000e+00
      0.525      0.001     5.7846     73.297    115.772 122.880646    11.8800     0.5356     0.0426     0.2115 8.9087e+00     0.4760      0.515      0.747    28.0775 0.0000e+00
      0.525      0.000     5.7512     73.397    115.649 122.728611    11.8800     0.5242     0.0426     0.2115 8.8817e+00     0.4156      0.515      0.747    28.0755 0.0000e+00
      0.525      0.000     5.7307     73.441    115.533 122.580148    11.8800     0.5280     0.0426     0.2115 8.9223e+00     0.4609      0.515      0.747    28.0733 0.0000e+00
      0.525      0.000     5.7245     73.347    115.434 122.447681    11.8800     0.5318     0.0426     0.1692 9.0512e+00     0.6120      0.515      0.747    28.0695 0.0000e+00
      0.525      0.000     5.7292     73.064    115.356 122.337893    11.8800     0.4860     0.0426     0.1692 9.0807e+00     0.4307      0.515      0.747    28.0632 0.0000e+00
      0.525      0.000     5.7379     72.586    115.294 122.245513    11.8800     0.5585     0.0426     0.1692 8.9631e+00     0.4156      0.515      0.747    28.0542 0.0000e+00
      0.525      0.000     5.7425     71.953    115.239 122.161910    11.8800     0.5280     0.0426     0.1692 8.8297e+00     0.4458      0.515      0.747    28.0432 0.0000e+00
      0.525     -0.001     5.7364     71.234    115.185 122.080791    11.8800     0.5089     0.0852     0.1692 8.7400e+00     0.4307      0.515      0.746    28.0312 0.0000e+00
      0.525     -0.001     5.7154     70.495    115.133 122.002529    11.8800     0.5394     0.0852     0.1692 8.8106e+00     0.5062      0.515      0.746    28.0193 0.0000e+00
      0.525     -0.001     5.6791     69.789    115.082 121.926258    11.8800     0.5280     0.0852     0.1692 8.8106e+00     0.5364      0.515      0.746    28.0078 0.0000e+00
      0.524     -0.001     5.6307     69.145    115.027 121.845642    11.8800     0.5394     0.0852     0.1692 8.9437e+00     0.2947      0.514      0.746    27.9970 0.0000e+00
      0.524     -0.001     5.5754     68.577    114.970 121.763187    11.8800     0.5356     0.0852     0.1692 8.9553e+00     0.1739      0.514      0.746    27.9865 0.0000e+00
      0.524     -0.001     5.5185     68.082    114.920 121.688912    11.9700     0.5280     0.0426     0.1692 9.0178e+00     0.1739      0.514      0.745    27.9765 0.0000e+00
      0.524     -0.001     5.4642     67.649    114.881 121.627015    11.9700     0.5280     0.0426     0.1692 9.0198e+00     0.2494      0.514      0.745    27.9667 0.0000e+00
      0.524     -0.001     5.4147     67.257    114.849 121.572991    11.9700     0.5547     0.0426     0.1692 8.9670e+00     0.3854      0.514      0.745    27.9571 0.0000e+00
      0.523     -0.001     5.3712     66.883    114.820 121.524436    11.9700     0.5394     0.0426     0.1692 9.0709e+00     0.4760      0.513      0.744    27.9477 0.0000e+00
      0.523     -0.001     5.3333     66.514    114.797 121.484404    11.8800     0.5356     0.0426     0.1692 8.9904e+00     0.5213      0.513      0.744    27.9383 0.0000e+00
      0.523     -0.001     5.3002     66.144    114.781 121.454223    11.8800     0.5547     0.0426     0.1692 8.9651e+00     0.4609      0.513      0.744    27.9293 0.0000e+00
      0.523     -0.001     5.2703     65.772    114.766 121.425842    11.8800     0.5127     0.0426     0.1692 8.9963e+00     0.4760      0.513      0.744    27.9208 0.0000e+00
      0.523     -0.001     5.2417     65.406    114.743 121.389694    11.8800     0.5051     0.0426     0.1692 8.9301e+00     0.5515      0.513      0.743    27.9130 0.0000e+00
      0.522     -0.001     5.2135     65.063    114.721 121.352141    11.7900     0.5318     0.0426     0.1692 8.9768e+00     0.4911      0.512      0.743    27.9062 0.0000e+00
      0.522     -0.001     5.1850     64.754    114.713 121.329175    11.7900     0.5432     0.0426     0.1692 8.9787e+00     0.4458      0.512      0.742    27.9004 0.0000e+00
      0.522     -0.000     5.1563     64.477    114.720 121.322672    11.7900     0.5509     0.0426     0.1692 9.0551e+00     0.5213      0.512      0.742    27.8951 0.0000e+00
      0.522      0.001     5.1281     64.226    114.731 121.322894    11.7900     0.5356     0.0426     0.1692 9.0630e+00     0.4005      0.512      0.742    27.8896 0.0000e+00
      0.522      0.002     5.1017     64.003    114.742 121.325900    11.8800     0.5051     0.0426     0.1692 9.0906e+00     0.4609      0.512      0.742    27.8835 0.0000e+00
      0.522      0.003     5.0781     63.825    114.755 121.332492    11.8800     0.5203     0.0426     0.1692 9.1939e+00     0.3854      0.512      0.743    27.8772 0.0000e+00
      0.523      0.005     5.0569     63.723    114.776 121.348428    11.8800     0.5432     0.0426     0.1692 9.1342e+00     0.5213      0.513      0.743    27.8713 0.0000e+00
      0.524      0.007     5.0377     63.723    114.809 121.377957    11.8800     0.5509     0.0426     0.1692 9.2701e+00     0.4911      0.514      0.745    27.8664 0.0000e+00
      0.526      0.010     5.0205     63.833    114.819 121.382943    11.8800     0.5738     0.0426     0.1692 9.0867e+00     0.5515      0.516      0.747    27.8624 0.0000e+00
      0.529      0.012     5.0069     64.040    114.770 121.316707    11.7900     0.5547     0.0852     0.2115 9.0041e+00     0.5213      0.519      0.752    27.8591 0.0000e+00
      0.533      0.014     4.9991     64.289    114.697 121.209596    11.7900     0.5203     0.0852     0.2115 9.0021e+00     0.4609      0.523      0.758    27.8565 0.0000e+00
      0.537      0.014     4.9994     64.496    114.660 121.113066    11.7900     0.5394     0.0852     0.2115 9.0159e+00     0.5062      0.527      0.764    27.8543 0.0000e+00
      0.542      0.013     5.0082     64.591    114.673 121.039380    11.7900     0.5242     0.0852     0.2115 8.7324e+00     0.3703      0.532      0.771    27.8515 0.0000e+00
      0.546      0.011     5.0249     64.544    114.729 120.992887    11.8800     0.5280     0.0426     0.2115 8.7457e+00     0.4307      0.536      0.777    27.8456 0.0000e+00
      0.549      0.007     5.0457     64.362    114.798 120.965181    11.8800     0.4822     0.0426     0.2115 8.7743e+00     0.4911      0.538      0.780    27.8322 0.0000e+00
      0.550      0.003     5.0642     64.085    114.849 120.936865    11.8800     0.4746     0.0426     0.2115 8.7647e+00     0.5062      0.539      0.782    27.8074 0.0000e+00
      0.550     -0.002     5.0751     63.767    114.885 120.908386    11.8800     0.4517     0.0426     0.2115 8.6908e+00     0.4760      0.539      0.782    27.7693 0.0000e+00
      0.549     -0.007     5.0755     63.465    114.924 120.884151    11.7900     0.4860     0.0426     0.1692 8.7514e+00     0.4609      0.539      0.781    27.7232 0.0000e+00
      0.547     -0.013     5.0651     63.228    114.982 120.867700    11.7900     0.4784     0.0426     0.1692 8.9301e+00     0.4458      0.537      0.778    27.6794 0.0000e+00
      0.544     -0.020     5.0465     63.098    115.080 120.870645    11.7900     0.4860     0.0426     0.1692 8.8991e+00     0.5213      0.533      0.773    27.6441 0.0000e+00
      0.538     -0.029     5.0241     63.101    115.225 120.899769    11.7900     0.4860     0.0426     0.1692 8.9301e+00     0.4458      0.528      0.766    27.6152 0.0000e+00
      0.531     -0.041     5.0028     63.272    115.426 120.960832    11.7900     0.4822     0.0426     0.1692 8.8933e+00     0.4156      0.520      0.755    27.5868 0.0000e+00
      0.520     -0.054     4.9872     63.678    115.686 121.054111    11.7900     0.4669     0.0426     0.2538 8.7116e+00     0.4911      0.510      0.739    27.5530 0.0000e+00
      0.506     -0.070     4.9808     64.435    115.991 121.162462    11.7900     0.4708     0.0426     0.2538 8.7286e+00     0.4458      0.496      0.719    27.5101 0.0000e+00
      0.486     -0.086     4.9859     65.683    116.295 121.262757    11.7900     0.4975     0.0426     0.2538 8.9475e+00     0.4911      0.477      0.691    27.4566 0.0000e+00
      0.462     -0.101     5.0053     67.510    116.549 121.343716    11.7900     0.4784     0.0426     0.2538 9.4184e+00     0.4911      0.453      0.657    27.3924 0.0000e+00
      0.432     -0.114     5.0445     69.907    116.724 121.398909    11.7900     0.4288     0.0426     0.2538 1.0760e+01     0.5364      0.424      0.615    27.3150 0.0000e+00
      0.399     -0.122     5.1130     72.757    116.815 121.429046    11.7900     0.4097     0.0426     0.2538 1.1498e+01     0.4458      0.391      0.567    27.2241 0.0000e+00
      0.363     -0.126     5.2208     75.845    116.826 121.438160    11.7900     0.4288     0.0426     0.2538 1.3119e+01     0.4911      0.356      0.516    27.1306 0.0000e+00
      0.327     -0.124     5.3736     78.908    116.767 121.424681    11.7900     0.4173     0.0426     0.2538 1.4015e+01     0.4760      0.321      0.465    27.0515 0.0000e+00
      0.294     -0.119     5.5695     81.726    116.686 121.403029    11.8800     0.4097     0.0852     0.2115 1.4301e+01     0.5213      0.289      0.418    26.9968 0.0000e+00
      0.265     -0.113     5.7991     84.098    116.649 121.389444    11.8800     0.4288     0.0852     0.2115 1.3492e+01     0.5364      0.260      0.377    26.9690 0.0000e+00
      0.240     -0.107     6.0451     85.791    116.670 121.384310    11.8800     0.3906     0.0852     0.2115 1.4710e+01     0.4458      0.235      0.341    26.9678 0.0000e+00
      0.216     -0.101     6.2866     86.632    116.725 121.388251    11.8800     0.4097     0.0852     0.2115 1.4663e+01     0.4458      0.212      0.307    26.9885 0.0000e+00
      0.191     -0.096     6.5080     86.581    116.777 121.398310    11.8800     0.4059     0.0426     0.2115 1.5374e+01     0.5817      0.187      0.271    27.0150 0.0000e+00
      0.165     -0.090     6.6957     85.721    116.795 121.409162    11.8800     0.4440     0.0426     0.2115 2.3522e+01     0.4760      0.162      0.235    27.0258 0.0000e+00
      0.140     -0.081     6.8321     84.239    116.763 121.421696    11.8800     0.3983     0.0426     0.2115 2.2104e+01     0.4458      0.137      0.199    27.0142 0.0000e+00
      0.118     -0.068     6.9021     82.346    116.671 121.431254    11.8800     0.4288     0.0426     0.2115 2.2688e+01     0.4911      0.115      0.167    26.9914 0.0000e+00
      0.100     -0.053     6.9005     80.210    116.521 121.424388    11.8800     0.4860     0.0426     0.2115 2.3333e+01     1.0047      0.098      0.143    26.9726 0.0000e+00
      0.089     -0.037     6.8326     77.980    116.347 121.399282    11.8800     0.4708     0.0426     0.2115 2.3774e+01     0.9594      0.087      0.126    26.9690 0.0000e+00
      0.083     -0.021     6.7124     75.799    116.189 121.367255    11.8800     0.5051     0.0426     0.2115 2.2649e+01     0.9594      0.082      0.118    26.9887 0.0000e+00
      0.082     -0.006     6.5565     73.774    116.068 121.339780    11.8800     0.4860     0.0426     0.2115 2.3333e+01     0.9443      0.080      0.117    27.0342 0.0000e+00
      0.084      0.006     6.3793     71.965    115.984 121.323535    11.8800     0.4173     0.0426     0.2115 2.2076e+01     1.1709      0.082      0.119    27.0980 0.0000e+00
      0.088      0.016     6.1945     70.416    115.923 121.318191    11.8800     0.4059     0.0426     0.2115 2.1700e+01     1.1407      0.086      0.125    27.1650 0.0000e+00
      0.093      0.023     6.0150     69.159    115.875 121.322323    11.8800     0.4173     0.0426     0.2115 2.1013e+01     1.1860      0.091      0.133    27.2221 0.0000e+00
      0.100      0.030     5.8497     68.220    115.835 121.333035    11.8800     0.4059     0.0426     0.2115 2.0225e+01     1.2011      0.098      0.143    27.2645 0.0000e+00
      0.109      0.035     5.7029     67.607    115.796 121.345184    11.8800     0.4822     0.0426     0.2115 1.9726e+01     1.3522      0.107      0.155    27.2954 0.0000e+00
      0.119      0.040     5.5775     67.298    115.753 121.354009    11.9700     0.4708     0.0426     0.0846 1.6759e+01     1.3975      0.116      0.169    27.3208 0.0000e+00
      0.130      0.044     5.4756     67.228    115.714 121.365868    11.9700     0.4631     0.0426     0.0846 1.9130e+01     1.4881      0.127      0.185    27.3442 0.0000e+00
      0.142      0.048     5.3989     67.311    115.690 121.395927    11.9700     0.4746     0.0426     0.0846 1.7830e+01     1.4881      0.139      0.202    27.3668 0.0000e+00
      0.155      0.052     5.3482     67.461    115.674 121.446202    11.9700     0.4097     0.0426     0.0846 1.5921e+01     2.1226      0.152      0.220    27.3896 0.0000e+00
      0.169      0.055     5.3215     67.617    115.648 121.506096    11.9700     0.3945     0.0852     0.2538 1.4344e+01     2.2132      0.165      0.240    27.4129 0.0000e+00
      0.183      0.059     5.3137     67.740    115.601 121.561579    11.9700     0.3678     0.0852     0.2538 1.4599e+01     2.1981      0.179      0.260    27.4358 0.0000e+00
      0.198      0.062     5.3180     67.807    115.527 121.595445    11.9700     0.4288     0.0852     0.2538 1.2657e+01     2.2132      0.194      0.282    27.4596 0.0000e+00
      0.215      0.065     5.3271     67.802    115.439 121.604730    11.9700     0.4631     0.0852     0.2538 1.2742e+01     1.5183      0.211      0.305    27.4886 0.0000e+00
      0.232      0.068     5.3358     67.722    115.377 121.619924    11.9700     0.4631     0.0852     0.2538 1.2126e+01     1.3824      0.228      0.330    27.5262 0.0000e+00
      0.250      0.070     5.3412     67.568    115.370 121.677087    11.8800     0.4822     0.0426     0.1269 1.1221e+01     1.5032      0.245      0.356    27.5717 0.0000e+00
      0.269      0.072     5.3418     67.359    115.401 121.775460    11.8800     0.4708     0.0426     0.1269 1.0458e+01     1.4579      0.263      0.382    27.6199 0.0000e+00
      0.287      0.073     5.3373     67.140    115.421 121.875262    11.8800     0.4860     0.0426     0.1269 1.0005e+01     0.4609      0.281      0.408    27.6638 0.0000e+00
      0.306      0.074     5.3278     66.951    115.389 121.923091    11.8800     0.4669     0.0426     0.1269 9.4471e+00     0.5213      0.300      0.435    27.6988 0.0000e+00
      0.325      0.074     5.3130     66.794    115.292 121.893700    11.7900     0.4669     0.0426     0.2115 8.9378e+00     0.5062      0.319      0.462    27.7266 0.0000e+00
      0.344      0.073     5.2939     66.633    115.164 121.813264    11.7900     0.4593     0.0426     0.2115 8.2223e+00     0.4911      0.338      0.489    27.7552 0.0000e+00
      0.364      0.071     5.2736     66.416    115.051 121.728352    11.7900     0.5013     0.0426     0.2115 7.8487e+00     0.4458      0.357      0.517    27.7890 0.0000e+00
      0.382      0.068     5.2553     66.096    114.981 121.670334    11.7900     0.4669     0.0426     0.2115 7.5821e+00     0.5062      0.375      0.544    27.8248 0.0000e+00
      0.400      0.064     5.2400     65.660    114.968 121.661749    11.9700     0.4479     0.0852     0.1692 7.2078e+00     0.3552      0.393      0.569    27.8564 0.0000e+00
      0.416      0.059     5.2252     65.130    115.014 121.706306    11.9700     0.4708     0.0852     0.1692 7.0959e+00     0.3854      0.408      0.592    27.8804 0.0000e+00
      0.429      0.054     5.2068     64.547    115.082 121.769876    11.9700     0.4975     0.0852     0.1692 7.0025e+00     0.5515      0.422      0.611    27.8952 0.0000e+00
      0.442      0.051     5.1810     63.964    115.143 121.823401    11.9700     0.4975     0.0852     0.1692 6.9268e+00     0.4911      0.434      0.629    27.9023 0.0000e+00
      0.453      0.048     5.1467     63.445    115.172 121.851145    11.9700     0.5013     0.0852     0.1692 6.9615e+00     0.4458      0.445      0.645    27.9044 0.0000e+00
      0.465      0.046     5.1052     63.046    115.146 121.834498    11.7900     0.4708     0.0426     0.1269 6.9088e+00     0.4911      0.456      0.661    27.9029 0.0000e+00
      0.477      0.045     5.0599     62.775    115.079 121.783027    11.7900     0.4860     0.0426     0.1269 7.1129e+00     0.5213      0.468      0.678    27.8990 0.0000e+00
      0.488      0.044     5.0146     62.574    114.999 121.721016    11.7900     0.4631     0.0426     0.1269 7.2361e+00     0.4609      0.479      0.695    27.8946 0.0000e+00
      0.500      0.043     4.9740     62.367    114.920 121.655936    11.7900     0.4936     0.0426     0.1269 7.4563e+00     0.5364      0.491      0.711    27.8932 0.0000e+00
      0.511      0.041     4.9424     62.096    114.857 121.594442    11.8800     0.4631     0.0852     0.2115 7.4904e+00     0.5515      0.501      0.727    27.8976 0.0000e+00
      0.521      0.039     4.9204     61.742    114.827 121.548142    11.8800     0.4936     0.0852     0.2115 7.6152e+00     0.4156      0.511      0.741    27.9061 0.0000e+00
      0.531      0.036     4.9038     61.312    114.837 121.520692    11.8800     0.4593     0.0852     0.2115 7.5937e+00     0.4760      0.520      0.755    27.9161 0.0000e+00
      0.540      0.034     4.8868     60.840    114.889 121.512773    11.8800     0.4708     0.0852     0.2115 7.7252e+00     0.4458      0.529      0.767    27.9242 0.0000e+00
      0.548      0.033     4.8654     60.366    114.979 121.526271    11.7900     0.4708     0.0426     0.0846 7.7723e+00     0.5364      0.537      0.779    27.9263 0.0000e+00
      0.556      0.032     4.8382     59.941    115.079 121.548774    11.7900     0.4784     0.0426     0.0846 7.8096e+00     0.4609      0.545      0.790    27.9199 0.0000e+00
      0.564      0.032     4.8059     59.619    115.153 121.554270    11.7900     0.4746     0.0426     0.0846 7.8368e+00     0.5364      0.552      0.801    27.9037 0.0000e+00
      0.572      0.032     4.7711     59.426    115.198 121.536221    11.7900     0.4708     0.0426     0.0846 7.9207e+00     0.5213      0.560      0.813    27.8765 0.0000e+00
      0.580      0.032     4.7369     59.344    115.238 121.513816    11.7900     0.4784     0.0852     0.1692 7.9881e+00     0.4458      0.569      0.825    27.8408 0.0000e+00
      0.589      0.032     4.7066     59.335    115.282 121.501082    11.7900     0.5432     0.0852     0.1692 8.0421e+00     0.5666      0.577      0.837    27.8044 0.0000e+00
      0.597      0.032     4.6841     59.362    115.318 121.490618    11.7900     0.5280     0.0852     0.1692 8.0788e+00     0.6120      0.585      0.849    27.7727 0.0000e+00
      0.605      0.032     4.6713     59.404    115.339 121.475632    11.7900     0.5509     0.0852     0.1692 8.3483e+00     0.5213      0.593      0.861    27.7442 0.0000e+00
      0.613      0.031     4.6672     59.438    115.350 121.456126    11.7900     0.5432     0.0852     0.1692 8.4873e+00     0.5062      0.601      0.872    27.7166 0.0000e+00
      0.621      0.031     4.6686     59.448    115.349 121.428898    11.8800     0.5547     0.0852     0.0846 8.6174e+00     0.4458      0.608      0.883    27.6909 0.0000e+00
      0.628      0.030     4.6725     59.428    115.345 121.400690    11.8800     0.5013     0.0852     0.0846 8.5428e+00     0.4307      0.616      0.894    27.6698 0.0000e+00
      0.636      0.030     4.6771     59.372    115.343 121.373981    11.8800     0.5432     0.0852     0.0846 8.6719e+00     0.4307      0.623      0.904    27.6535 0.0000e+00
      0.644      0.030     4.6809     59.285    115.337 121.341647    11.8800     0.5356     0.0852     0.0846 8.8470e+00     0.4156      0.631      0.915    27.6401 0.0000e+00
      0.651      0.029     4.6826     59.175    115.334 121.311069    11.8800     0.5585     0.0426     0.2115 8.8586e+00     0.2494      0.638      0.926    27.6288 0.0000e+00
      0.659      0.029     4.6819     59.044    115.348 121.296095    11.8800     0.5280     0.0426     0.2115 8.7819e+00     0.2947      0.646      0.937    27.6182 0.0000e+00
      0.666      0.028     4.6784     58.891    115.376 121.296732    11.8800     0.5280     0.0426     0.2115 8.7685e+00     0.2041      0.653      0.947    27.6075 0.0000e+00
      0.673      0.028     4.6724     58.730    115.410 121.309146    11.8800     0.5280     0.0426     0.2115 8.7609e+00     0.2645      0.660      0.957    27.5963 0.0000e+00
      0.680      0.028     4.6648     58.587    115.451 121.336647    11.7900     0.5165     0.0426     0.1692 8.7419e+00     0.3098      0.667      0.967    27.5844 0.0000e+00
      0.687      0.028     4.6554     58.491    115.487 121.368563    11.7900     0.5432     0.0426     0.1692 8.7400e+00     0.4458      0.673      0.977    27.5718 0.0000e+00
      0.693      0.029     4.6444     58.473    115.496 121.377398    11.7900     0.5623     0.0426     0.1692 8.7628e+00     0.4609      0.680      0.986    27.5594 0.0000e+00
      0.700      0.029     4.6326     58.529    115.480 121.361508    11.7900     0.5509     0.0426     0.1692 8.9553e+00     0.4005      0.687      0.996    27.5490 0.0000e+00
      0.708      0.030     4.6219     58.615    115.472 121.348663    11.7900     0.5394     0.0426     0.1692 9.0257e+00     0.4005      0.694      1.007    27.5425 0.0000e+00
      0.716      0.030     4.6146     58.679    115.498 121.361445    11.7900     0.5432     0.0426     0.1692 8.9885e+00     0.2192      0.702      1.019    27.5399 0.0000e+00
      0.724      0.030     4.6131     58.699    115.566 121.403260    11.7900     0.5356     0.0426     0.1692 9.0178e+00     0.2041      0.710      1.031    27.5398 0.0000e+00
      0.732      0.031     4.6175     58.677    115.664 121.463255    11.7900     0.5738     0.0426     0.1692 9.0748e+00     0.2494      0.718      1.041    27.5399 0.0000e+00
      0.739      0.031     4.6244     58.631    115.769 121.525418    11.7900     0.5356     0.0426     0.1692 9.2641e+00     0.3098      0.725      1.052    27.5380 0.0000e+00
      0.746      0.033     4.6301     58.585    115.860 121.576314    11.8800     0.5165     0.0852     0.1692 9.3146e+00     0.2494      0.732      1.062    27.5317 0.0000e+00
      0.755      0.035     4.6327     58.558    115.930 121.617511    11.8800     0.5280     0.0852     0.1692 9.3186e+00     0.1890      0.740      1.074    27.5191 0.0000e+00
      0.764      0.037     4.6325     58.564    115.980 121.655990    11.8800     0.5394     0.0852     0.1692 9.3490e+00     0.1890      0.749      1.087    27.5004 0.0000e+00
      0.774      0.040     4.6306     58.609    116.001 121.686009    11.8800     0.5547     0.0852     0.1692 9.4000e+00     0.2494      0.759      1.101    27.4795 0.0000e+00
      0.785      0.042     4.6284     58.692    115.978 121.691566    11.7900     0.4746     0.0426     0.1692 9.4717e+00     0.4458      0.769      1.116    27.4603 0.0000e+00
      0.796      0.043     4.6275     58.791    115.916 121.670146    11.7900     0.4708     0.0426     0.1692 9.4594e+00     0.4156      0.780      1.132    27.4463 0.0000e+00
      0.807      0.044     4.6285     58.865    115.842 121.640045    11.7900     0.4784     0.0426     0.1692 9.4389e+00     0.4156      0.792      1.149    27.4402 0.0000e+00
      0.819      0.044     4.6317     58.872    115.770 121.609243    11.7900     0.4860     0.0426     0.1692 9.3348e+00     0.4760      0.803      1.165    27.4439 0.0000e+00
      0.831      0.043     4.6372     58.792    115.697 121.569530    11.8800     0.4708     0.0426     0.1269 9.3979e+00     0.5062      0.815      1.182    27.4569 0.0000e+00
      0.842      0.041     4.6434     58.621    115.639 121.530323    11.8800     0.5013     0.0426     0.1269 9.4594e+00     0.6120      0.825      1.198    27.4758 0.0000e+00
      0.852      0.039     4.6476     58.364    115.622 121.515176    11.8800     0.4479     0.0426     0.1269 9.5565e+00     0.3552      0.836      1.213    27.4960 0.0000e+00
      0.862      0.037     4.6466     58.044    115.648 121.526050    11.8800     0.5013     0.0426     0.1269 9.5171e+00     0.5213      0.845      1.226    27.5152 0.0000e+00
      0.871      0.035     4.6390     57.691    115.695 121.543840    11.8800     0.5318     0.0426     0.1269 9.5877e+00     0.2192      0.854      1.239    27.5313 0.0000e+00
      0.879      0.034     4.6247     57.340    115.747 121.555284    11.7900     0.5356     0.0426     0.2115 9.6651e+00     0.1890      0.862      1.251    27.5408 0.0000e+00
      0.887      0.033     4.6044     57.012    115.791 121.555427    11.7900     0.5089     0.0426     0.2115 9.8239e+00     0.2343      0.870      1.262    27.5417 0.0000e+00
      0.895      0.033     4.5796     56.717    115.821 121.544305    11.7900     0.5356     0.0426     0.2115 9.8410e+00     0.2947      0.878      1.273    27.5347 0.0000e+00
      0.904      0.034     4.5529     56.458    115.842 121.530952    11.7900     0.4784     0.0426     0.2115 9.9334e+00     0.4458      0.886      1.285    27.5210 0.0000e+00
      0.912      0.034     4.5266     56.234    115.862 121.523807    11.7900     0.4555     0.0426     0.0846 1.0018e+01     0.4609      0.895      1.298    27.5027 0.0000e+00
      0.921      0.035     4.5024     56.038    115.891 121.534968    11.7900     0.4708     0.0426     0.0846 1.0090e+01     0.4911      0.903      1.311    27.4828 0.0000e+00
      0.930      0.036     4.4806     55.881    115.929 121.569409    11.7900     0.4784     0.0426     0.0846 1.0057e+01     0.4307      0.912      1.324    27.4645 0.0000e+00
      0.939      0.038     4.4614     55.782    115.954 121.606307    11.7900     0.5280     0.0426     0.0846 1.0018e+01     0.2645      0.922      1.337    27.4489 0.0000e+00
      0.949      0.039     4.4446     55.763    115.936 121.613492    11.7900     0.5509     0.0426     0.1692 9.9810e+00     0.2796      0.931      1.350    27.4366 0.0000e+00
      0.959      0.040     4.4298     55.836    115.864 121.580880    11.7900     0.5585     0.0426     0.1692 9.9442e+00     0.2343      0.941      1.364    27.4286 0.0000e+00
      0.969      0.040     4.4175     55.977    115.773 121.535784    11.7900     0.5280     0.0426     0.1692 9.9247e+00     0.2041      0.951      1.379    27.4262 0.0000e+00
      0.980      0.040     4.4094     56.136    115.701 121.506192    11.7900     0.5356     0.0426     0.1692 9.7051e+00     0.4307      0.962      1.395    27.4306 0.0000e+00
      0.991      0.040     4.4070     56.280    115.670 121.506223    11.7900     0.5432     0.0426     0.1692 9.7072e+00     0.4760      0.972      1.410    27.4422 0.0000e+00
      1.001      0.039     4.4113     56.419    115.687 121.541886    11.7900     0.5509     0.0426     0.2115 9.6232e+00     0.5213      0.982      1.424    27.4604 0.0000e+00
      1.011      0.038     4.4207     56.617    115.723 121.588685    11.7900     0.5509     0.0426     0.2115 9.6462e+00     0.4458      0.991      1.438    27.4823 0.0000e+00
      1.020      0.038     4.4317     56.959    115.743 121.613088    11.7900     0.4860     0.0426     0.2115 9.5835e+00     0.4458      1.000      1.450    27.5022 0.0000e+00
      1.029      0.038     4.4419     57.505    115.741 121.609602    11.7900     0.4593     0.0426     0.2115 9.5565e+00     0.5364      1.009      1.463    27.5161 0.0000e+00
      1.039      0.038     4.4523     58.257    115.723 121.585297    11.7900     0.4860     0.0426     0.1269 9.4430e+00     0.3854      1.018      1.477    27.5240 0.0000e+00
      1.049      0.037     4.4676     59.156    115.701 121.549696    11.7900     0.4936     0.0426     0.1269 9.2943e+00     0.4911      1.028      1.491    27.5279 0.0000e+00
      1.059      0.037     4.4945     60.105    115.686 121.517309    11.7900     0.5280     0.0426     0.1269 9.1879e+00     0.7177      1.038      1.506    27.5292 0.0000e+00
      1.069      0.036     4.5376     61.007    115.684 121.495504    11.7900     0.5127     0.0426     0.1269 9.1084e+00     0.6573      1.048      1.519    27.5287 0.0000e+00
      1.077      0.034     4.5972     61.783    115.693 121.478464    11.7900     0.5432     0.0852     0.2538 9.0630e+00     0.8083      1.056      1.532    27.5260 0.0000e+00
      1.085      0.033     4.6686     62.370    115.708 121.457644    11.7900     0.5356     0.0852     0.2538 9.0315e+00     0.7479      1.064      1.543    27.5208 0.0000e+00
      1.093      0.032     4.7441     62.721    115.738 121.441494    11.7900     0.4784     0.0852     0.2538 8.9339e+00     0.2041      1.072      1.555    27.5138 0.0000e+00
      1.101      0.032     4.8160     62.833    115.793 121.449709    11.7900     0.4708     0.0852     0.2538 8.7533e+00     0.1588      1.080      1.566    27.5052 0.0000e+00
      1.109      0.032     4.8783     62.746    115.870 121.488475    11.7900     0.5013     0.0426     0.0846 8.5801e+00     0.2192      1.088      1.577    27.4938 0.0000e+00
      1.117      0.033     4.9260     62.543    115.954 121.552125    11.7900     0.4746     0.0426     0.0846 8.5187e+00     0.1588      1.095      1.589    27.4778 0.0000e+00
      1.125      0.035     4.9556     62.337    116.038 121.631623    11.7900     0.5089     0.0426     0.0846 8.4212e+00     0.2192      1.103      1.600    27.4575 0.0000e+00
      1.134      0.038     4.9662     62.226    116.105 121.708163    11.7900     0.5470     0.0426     0.0846 8.3719e+00     0.2494      1.112      1.612    27.4359 0.0000e+00
      1.143      0.041     4.9609     62.250    116.143 121.762145    11.7900     0.5661     0.0426     0.0846 8.2491e+00     0.3552      1.121      1.626    27.4180 0.0000e+00
      1.154      0.044     4.9458     62.387    116.140 121.777959    11.7900     0.5356     0.0426     0.1692 8.0421e+00     0.1890      1.132      1.642    27.4071 0.0000e+00
      1.167      0.047     4.9299     62.569    116.107 121.765825    11.7900     0.4936     0.0426     0.1692 7.8606e+00     0.5515      1.144      1.660    27.4038 0.0000e+00
      1.180      0.050     4.9208     62.705    116.081 121.768517    11.7900     0.4593     0.0426     0.1692 7.7336e+00     0.3400      1.157      1.678    27.4062 0.0000e+00
      1.193      0.051     4.9222     62.723    116.083 121.812761    11.7900     0.4936     0.0426     0.1692 7.6218e+00     0.4458      1.171      1.698    27.4123 0.0000e+00
      1.207      0.052     4.9323     62.606    116.105 121.894353    11.8800     0.4593     0.0426     0.2538 7.5149e+00     0.4609      1.184      1.716    27.4204 0.0000e+00
      1.220      0.054     4.9459     62.393    116.114 121.985039    11.8800     0.4784     0.0426     0.2538 7.4661e+00     0.2494      1.196      1.735    27.4304 0.0000e+00
      1.233      0.055     4.9555     62.164    116.071 122.044990    11.8800     0.4860     0.0426     0.2538 7.4272e+00     0.2796      1.209      1.754    27.4432 0.0000e+00
      1.247      0.057     4.9554     61.976    115.965 122.052192    11.8800     0.4936     0.0426     0.2538 7.4288e+00     0.3098      1.223      1.773    27.4611 0.0000e+00
      1.262      0.058     4.9439     61.822    115.813 122.004572    11.7900     0.4440     0.0852     0.1692 7.3694e+00     0.2192      1.238      1.795    27.4865 0.0000e+00
      1.278      0.058     4.9240     61.648    115.633 121.911444    11.7900     0.4746     0.0852     0.1692 7.3103e+00     0.4609      1.253      1.818    27.5217 0.0000e+00
      1.294      0.057     4.9020     61.405    115.458 121.799991    11.7900     0.4669     0.0852     0.1692 7.3072e+00     0.4911      1.269      1.841    27.5672 0.0000e+00
      1.309      0.055     4.8828     61.063    115.320 121.698511    11.7900     0.4669     0.0852     0.1692 7.2802e+00     0.4005      1.284      1.862    27.6181 0.0000e+00
      1.323      0.051     4.8664     60.602    115.236 121.615955    11.7900     0.4669     0.0852     0.1692 7.3278e+00     0.5364      1.297      1.882    27.6668 0.0000e+00
      1.335      0.046     4.8490     60.026    115.214 121.550314    11.7900     0.4631     0.0426     0.1269 7.3470e+00     0.2947      1.310      1.900    27.7083 0.0000e+00
      1.346      0.042     4.8272     59.365    115.257 121.504086    11.7900     0.4936     0.0426     0.1269 7.3662e+00     0.2343      1.320      1.915    27.7400 0.0000e+00
      1.356      0.039     4.7986     58.679    115.351 121.486940    11.7900     0.4708     0.0426     0.1269 7.3678e+00     0.2947      1.330      1.929    27.7591 0.0000e+00
      1.365      0.036     4.7621     58.051    115.462 121.492292    11.7900     0.4593     0.0426     0.1269 7.3966e+00     0.2343      1.339      1.942    27.7618 0.0000e+00
      1.374      0.035     4.7183     57.552    115.552 121.495558    11.7900     0.4822     0.0852     0.2538 7.4644e+00     0.2494      1.347      1.954    27.7433 0.0000e+00
      1.382      0.034     4.6696     57.221    115.615 121.483602    11.7900     0.4593     0.0852     0.2538 7.4418e+00     0.2494      1.355      1.966    27.7038 0.0000e+00
      1.390      0.034     4.6198     57.058    115.674 121.471237    11.7900     0.4708     0.0852     0.2538 7.4807e+00     0.1739      1.363      1.978    27.6532 0.0000e+00
      1.399      0.034     4.5743     57.037    115.752 121.485168    11.7900     0.4593     0.0852     0.2538 7.4563e+00     0.2645      1.372      1.990    27.6049 0.0000e+00
      1.408      0.035     4.5383     57.137    115.842 121.523106    11.7900     0.5509     0.0426     0.2115 7.4127e+00     0.2192      1.380      2.003    27.5652 0.0000e+00
      1.416      0.036     4.5149     57.355    115.926 121.569159    11.7900     0.5585     0.0426     0.2115 7.4369e+00     0.2645      1.389      2.015    27.5315 0.0000e+00
      1.425      0.038     4.5046     57.697    116.013 121.627605    11.7900     0.5509     0.0426     0.2115 7.4127e+00     0.2494      1.398      2.028    27.4996 0.0000e+00
      1.435      0.041     4.5053     58.161    116.107 121.706025    11.7900     0.5280     0.0426     0.2115 7.3678e+00     0.1890      1.407      2.041    27.4700 0.0000e+00
      1.445      0.044     4.5152     58.747    116.200 121.801324    11.7900     0.4669     0.0852     0.1692 7.3183e+00     0.2645      1.417      2.056    27.4458 0.0000e+00
      1.456      0.048     4.5340     59.462    116.267 121.892904    11.7900     0.5089     0.0852     0.1692 7.3215e+00     0.0983      1.429      2.072    27.4274 0.0000e+00
      1.469      0.052     4.5621     60.304    116.289 121.959176    11.7900     0.4860     0.0852     0.1692 7.2945e+00     0.1437      1.441      2.090    27.4134 0.0000e+00
      1.483      0.056     4.5995     61.234    116.272 121.997810    11.7900     0.4708     0.0852     0.1692 7.2424e+00     0.2192      1.455      2.110    27.4046 0.0000e+00
      1.498      0.060     4.6459     62.160    116.218 122.001111    11.7900     0.4593     0.0852     0.1692 7.2282e+00     0.4156      1.470      2.132    27.4036 0.0000e+00
      1.515      0.062     4.7016     62.963    116.136 121.965960    11.7900     0.4975     0.0426     0.2115 7.1953e+00     0.5213      1.486      2.155    27.4128 0.0000e+00
      1.532      0.063     4.7666     63.524    116.061 121.922998    11.7900     0.4517     0.0426     0.2115 7.1067e+00     0.3098      1.502      2.179    27.4316 0.0000e+00
      1.549      0.064     4.8380     63.774    116.022 121.902780    11.7900     0.5051     0.0426     0.2115 7.0544e+00     0.4156      1.519      2.203    27.4559 0.0000e+00
      1.566      0.063     4.9089     63.705    116.032 121.919920    11.7900     0.4784     0.0426     0.2115 7.0406e+00     0.2947      1.535      2.227    27.4813 0.0000e+00
      1.581      0.063     4.9704     63.374    116.088 121.974987    11.8800     0.4822     0.0426     0.1692 7.0452e+00     0.2645      1.551      2.249    27.5033 0.0000e+00
      1.596      0.063     5.0133     62.880    116.156 122.046655    11.8800     0.4593     0.0426     0.1692 6.9858e+00     0.3249      1.566      2.271    27.5189 0.0000e+00
      1.611      0.063     5.0323     62.324    116.207 122.116023    11.8800     0.4784     0.0426     0.1692 7.0177e+00     0.2343      1.580      2.292    27.5278 0.0000e+00
      1.627      0.065     5.0267     61.784    116.230 122.173584    11.8800     0.4860     0.0426     0.1692 6.9570e+00     0.1890      1.596      2.314    27.5304 0.0000e+00
      1.644      0.067     5.0007     61.311    116.224 122.216685    11.7900     0.4517     0.0426     0.1692 6.9479e+00     0.1588      1.612      2.338    27.5289 0.0000e+00
      1.662      0.070     4.9617     60.927    116.186 122.240817    11.7900     0.4593     0.0426     0.1692 6.9524e+00     0.2494      1.630      2.364    27.5292 0.0000e+00
      1.680      0.071     4.9173     60.623    116.102 122.232413    11.7900     0.4708     0.0426     0.1692 6.9449e+00     0.1890      1.648      2.390    27.5358 0.0000e+00
      1.699      0.072     4.8735     60.380    115.985 122.193238    11.7900     0.5394     0.0426     0.1692 6.8863e+00     0.5515      1.666      2.417    27.5501 0.0000e+00
      1.718      0.072     4.8344     60.172    115.868 122.140861    11.7900     0.5089     0.0426     0.1692 6.9193e+00     0.4760      1.685      2.444    27.5713 0.0000e+00
      1.737      0.071     4.8017     59.984    115.774 122.089326    11.7900     0.5203     0.0426     0.2115 6.8728e+00     0.4156      1.703      2.471    27.5993 0.0000e+00
      1.756      0.069     4.7748     59.824    115.725 122.058900    11.7900     0.5509     0.0426     0.2115 6.8699e+00     0.4911      1.721      2.497    27.6336 0.0000e+00
      1.773      0.067     4.7526     59.714    115.741 122.073478    11.7900     0.5242     0.0426     0.2115 6.8415e+00     0.1739      1.738      2.521    27.6698 0.0000e+00
      1.789      0.065     4.7336     59.686    115.816 122.138946    11.7900     0.5432     0.0426     0.2115 6.8282e+00     0.2192      1.754      2.544    27.7004 0.0000e+00
      1.805      0.065     4.7171     59.773    115.902 122.222746    11.7900     0.5356     0.0852     0.1269 6.7912e+00     0.2192      1.770      2.567    27.7209 0.0000e+00
      1.820      0.066     4.7037     59.996    115.930 122.267201    11.7900     0.5242     0.0852     0.1269 6.7368e+00     0.2494      1.785      2.589    27.7300 0.0000e+00
      1.837      0.067     4.6951     60.338    115.899 122.270164    11.7900     0.5165     0.0852     0.1269 6.7986e+00     0.2494      1.801      2.612    27.7291 0.0000e+00
      1.854      0.070     4.6934     60.735    115.853 122.276438    11.7900     0.5509     0.0852     0.1269 6.7251e+00     0.2796      1.818      2.637    27.7230 0.0000e+00
      1.873      0.072     4.7005     61.114    115.791 122.283698    11.7900     0.5470     0.0426     0.1692 6.7441e+00     0.2494      1.836      2.663    27.7201 0.0000e+00
      1.892      0.073     4.7175     61.443    115.702 122.269878    11.7900     0.5242     0.0426     0.1692 6.6568e+00     0.1437      1.855      2.691    27.7263 0.0000e+00
      1.911      0.074     4.7431     61.723    115.623 122.263308    11.7900     0.4898     0.0426     0.1692 6.6582e+00     0.2494      1.874      2.718    27.7418 0.0000e+00
      1.930      0.074     4.7722     61.981    115.590 122.298247    11.7900     0.4784     0.0426     0.1692 6.6655e+00     0.2343      1.893      2.745    27.7658 0.0000e+00
      1.949      0.074     4.7993     62.281    115.584 122.356009    11.7900     0.4517     0.0426     0.2538 6.6236e+00     0.2041      1.911      2.772    27.7973 0.0000e+00
      1.968      0.073     4.8222     62.699    115.562 122.389984    11.7900     0.5089     0.0426     0.2538 6.6611e+00     0.1890      1.929      2.799    27.8319 0.0000e+00
      1.986      0.072     4.8413     63.281    115.502 122.375227    11.7900     0.4860     0.0426     0.2538 6.5992e+00     0.5817      1.947      2.824    27.8650 0.0000e+00
      2.004      0.071     4.8590     63.993    115.418 122.321808    11.7900     0.4784     0.0426     0.2538 6.6063e+00     0.4911      1.965      2.850    27.8953 0.0000e+00
      2.022      0.069     4.8801     64.719    115.332 122.249494    11.7900     0.4822     0.0426     0.2538 6.5477e+00     0.4156      1.983      2.877    27.9230 0.0000e+00
      2.041      0.066     4.9107     65.319    115.263 122.177013    11.7900     0.4860     0.0852     0.2538 6.5193e+00     0.4609      2.001      2.902    27.9478 0.0000e+00
      2.058      0.063     4.9545     65.684    115.238 122.129046    11.7900     0.5356     0.0852     0.2538 6.5038e+00     0.3249      2.018      2.927    27.9688 0.0000e+00
      2.073      0.060     5.0088     65.758    115.279 122.122811    11.7900     0.5432     0.0852     0.2538 6.4995e+00     0.2192      2.033      2.949    27.9842 0.0000e+00
      2.088      0.057     5.0649     65.549    115.383 122.162642    11.7900     0.5280     0.0852     0.2538 6.4981e+00     0.2343      2.048      2.970    27.9925 0.0000e+00
      2.101      0.055     5.1119     65.123    115.517 122.231148    11.7900     0.5356     0.0852     0.0846 6.4587e+00     0.1890      2.061      2.989    27.9928 0.0000e+00
      2.114      0.054     5.1413     64.589    115.632 122.292579    11.7900     0.5356     0.0852     0.0846 6.4868e+00     0.2192      2.073      3.007    27.9832 0.0000e+00
      2.127      0.053     5.1490     64.056    115.700 122.319300    11.7900     0.5623     0.0852     0.0846 6.4699e+00     0.2645      2.086      3.025    27.9617 0.0000e+00
      2.140      0.054     5.1354     63.594    115.718 122.302432    11.7900     0.5509     0.0852     0.0846 6.4028e+00     0.2947      2.099      3.044    27.9312 0.0000e+00
      2.154      0.054     5.1049     63.222    115.709 122.257482    11.7900     0.5280     0.0852     0.1269 6.4461e+00     0.3249      2.113      3.064    27.8997 0.0000e+00
      2.169      0.054     5.0654     62.919    115.706 122.216474    11.7900     0.5623     0.0852     0.1269 6.4028e+00     0.1739      2.127      3.085    27.8737 0.0000e+00
      2.183      0.053     5.0253     62.648    115.713 122.188474    11.7900     0.5394     0.0852     0.1269 6.3778e+00     0.2947      2.141      3.105    27.8541 0.0000e+00
      2.196      0.052     4.9905     62.378    115.710 122.154012    11.7900     0.5356     0.0852     0.1269 6.3667e+00     0.2343      2.154      3.124    27.8384 0.0000e+00
      2.209      0.050     4.9626     62.085    115.690 122.103896    11.7900     0.5051     0.0852     0.1269 6.3364e+00     0.3400      2.167      3.143    27.8231 0.0000e+00
      2.222      0.048     4.9403     61.754    115.674 122.054768    11.7900     0.5242     0.0426     0.1269 6.3667e+00     0.2343      2.179      3.160    27.8069 0.0000e+00
      2.234      0.046     4.9203     61.394    115.691 122.033536    11.7900     0.5432     0.0426     0.1269 6.2774e+00     0.1890      2.191      3.177    27.7916 0.0000e+00
      2.245      0.044     4.9003     61.035    115.752 122.052541    11.7900     0.5470     0.0426     0.1269 6.2856e+00     0.2947      2.202      3.194    27.7781 0.0000e+00
      2.256      0.043     4.8784     60.713    115.851 122.106847    11.7900     0.5394     0.0426     0.1269 6.3158e+00     0.2947      2.213      3.209    27.7652 0.0000e+00
      2.267      0.043     4.8536     60.465    115.965 122.178924    11.7000     0.5509     0.0426     0.2115 6.3103e+00     0.1286      2.223      3.224    27.7513 0.0000e+00
      2.277      0.044     4.8268     60.311    116.066 122.241977    11.7000     0.5432     0.0426     0.2115 6.3034e+00     0.3703      2.233      3.239    27.7347 0.0000e+00
      2.287      0.045     4.8002     60.250    116.134 122.276811    11.7000     0.5432     0.0426     0.2115 6.3034e+00     0.2192      2.243      3.254    27.7149 0.0000e+00
      2.299      0.046     4.7768     60.262    116.165 122.280709    11.7000     0.5318     0.0426     0.2115 6.2815e+00     0.2947      2.255      3.270    27.6935 0.0000e+00
      2.311      0.047     4.7590     60.316    116.173 122.270713    11.7900     0.5432     0.0426     0.2115 6.2164e+00     0.2041      2.267      3.287    27.6727 0.0000e+00
      2.324      0.048     4.7484     60.373    116.178 122.268163    11.7900     0.5509     0.0426     0.2115 6.2788e+00     0.1890      2.279      3.306    27.6541 0.0000e+00
      2.337      0.049     4.7450     60.402    116.167 122.260374    11.7900     0.5165     0.0426     0.2115 6.2475e+00     0.2645      2.292      3.324    27.6381 0.0000e+00
      2.350      0.049     4.7470     60.389    116.122 122.225265    11.7900     0.5547     0.0426     0.2115 6.1532e+00     0.1739      2.304      3.342    27.6258 0.0000e+00
      2.362      0.048     4.7520     60.325    116.066 122.177483    11.7900     0.5165     0.0426     0.1692 6.2258e+00     0.2645      2.316      3.359    27.6178 0.0000e+00
      2.374      0.046     4.7568     60.204    116.023 122.140294    11.7900     0.5356     0.0426     0.1692 6.1545e+00     0.2494      2.328      3.377    27.6145 0.0000e+00
      2.386      0.044     4.7589     60.041    116.000 122.119788    11.7900     0.5394     0.0426     0.1692 6.1639e+00     0.1890      2.340      3.394    27.6162 0.0000e+00
      2.397      0.043     4.7574     59.863    115.998 122.118496    11.7900     0.5432     0.0426     0.1692 6.2204e+00     0.2645      2.351      3.410    27.6212 0.0000e+00
      2.408      0.042     4.7519     59.686    116.015 122.136075    11.7900     0.5585     0.0426     0.1692 6.1438e+00     0.2041      2.361      3.425    27.6263 0.0000e+00
      2.418      0.041     4.7421     59.517    116.042 122.165208    11.7900     0.5280     0.0426     0.1692 6.1921e+00     0.1890      2.371      3.439    27.6297 0.0000e+00
      2.427      0.040     4.7291     59.359    116.067 122.193661    11.7900     0.5661     0.0426     0.1692 6.1706e+00     0.2494      2.381      3.453    27.6314 0.0000e+00
      2.437      0.041     4.7151     59.215    116.083 122.213015    11.7900     0.5509     0.0426     0.1692 6.1813e+00     0.3552      2.391      3.467    27.6317 0.0000e+00
      2.448      0.042     4.7011     59.083    116.093 122.224432    11.7900     0.5509     0.0426     0.1692 6.1438e+00     0.1588      2.401      3.482    27.6316 0.0000e+00
      2.459      0.043     4.6877     58.961    116.101 122.230957    11.7900     0.5280     0.0426     0.2538 6.1438e+00     0.3249      2.411      3.497    27.6319 0.0000e+00
      2.470      0.043     4.6752     58.848    116.111 122.238329    11.7900     0.5165     0.0426     0.2538 6.1585e+00     0.1890      2.422      3.513    27.6328 0.0000e+00
      2.481      0.044     4.6638     58.748    116.131 122.256517    11.7900     0.5280     0.0426     0.2538 6.1372e+00     0.2192      2.433      3.529    27.6339 0.0000e+00
      2.493      0.044     4.6534     58.675    116.157 122.282368    11.7900     0.5242     0.0426     0.2538 6.1199e+00     0.2947      2.445      3.546    27.6342 0.0000e+00
      2.504      0.045     4.6438     58.653    116.174 122.302771    11.7900     0.4784     0.0426     0.1692 6.1372e+00     0.3854      2.456      3.562    27.6334 0.0000e+00
      2.516      0.045     4.6350     58.712    116.193 122.327167    11.7900     0.4822     0.0426     0.1692 6.1398e+00     0.4609      2.467      3.578    27.6319 0.0000e+00
      2.527      0.044     4.6272     58.899    116.241 122.386067    11.7900     0.4402     0.0426     0.1692 6.1212e+00     0.4307      2.478      3.594    27.6306 0.0000e+00
      2.538      0.044     4.6214     59.300    116.346 122.515184    11.7900     0.4669     0.0426     0.1692 6.0933e+00     0.5213      2.489      3.610    27.6300 0.0000e+00
      2.550      0.044     4.6196     60.051    116.545 122.762951    11.7900     0.4593     0.0426     0.1692 6.0748e+00     0.2192      2.500      3.626    27.6308 0.0000e+00
      2.561      0.044     4.6239     61.352    116.875 123.189435    11.7900     0.4593     0.0426     0.1692 6.0999e+00     0.3400      2.511      3.642    27.6328 0.0000e+00
      2.572      0.045     4.6381     63.530    117.343 123.824344    11.7900     0.4669     0.0426     0.1692 6.0118e+00     0.2494      2.522      3.658    27.6363 0.0000e+00
      2.583      0.047     4.6687     67.106    117.805 124.540894    11.7900     0.5051     0.0426     0.1692 6.0485e+00     0.2645      2.532      3.673    27.6438 0.0000e+00
      2.594      0.050     4.7258     72.664    118.067 125.112032    11.7900     0.4784     0.0426     0.1692 6.0144e+00     0.1890      2.544      3.690    27.6603 0.0000e+00
      2.607      0.052     4.8243     80.281    118.124 125.464004    11.7900     0.4898     0.0852     0.2115 5.9987e+00     0.1286      2.557      3.708    27.6933 0.0000e+00
      2.621      0.055     4.9890     89.145    118.100 125.674683    11.7900     0.4822     0.0852     0.2115 5.9766e+00     0.2192      2.570      3.728    27.7537 0.0000e+00
      2.636      0.058     5.2595     98.008    118.072 125.816271    11.7900     0.4517     0.0852     0.2115 5.9210e+00     0.3249      2.585      3.749    27.8510 0.0000e+00
      2.652      0.059     5.6819    105.805    118.038 125.896518    11.7900     0.4936     0.0852     0.2115 5.8915e+00     0.2645      2.600      3.771    27.9759 0.0000e+00
      2.667      0.060     6.2641    111.824    117.988 125.918817    11.7900     0.4860     0.0426     0.2538 5.8685e+00     0.2192      2.616      3.794    28.0996 0.0000e+00
      2.683      0.060     6.9447    115.691    117.958 125.935137    11.7900     0.4936     0.0426     0.2538 5.8532e+00     0.2645      2.631      3.816    28.1999 0.0000e+00
      2.698      0.060     7.6271    117.346    117.959 125.965837    11.7900     0.4860     0.0426     0.2538 5.8291e+00     0.1437      2.646      3.838    28.2726 0.0000e+00
      2.713      0.059     8.2284    117.052    117.959 125.985089    11.7900     0.5394     0.0426     0.2538 5.7724e+00     0.2494      2.661      3.859    28.3220 0.0000e+00
      2.729      0.058     8.6930    115.372    117.950 125.986021    11.7900     0.5280     0.0426     0.2115 5.7900e+00     0.2645      2.676      3.881    28.3541 0.0000e+00
      2.743      0.057     8.9914    113.005    117.931 125.972884    11.7900     0.5051     0.0426     0.2115 5.7175e+00     0.2192      2.691      3.902    28.3745 0.0000e+00
      2.758      0.056     9.1188    110.530    117.908 125.952179    11.7900     0.5623     0.0426     0.2115 5.7137e+00     0.2192      2.705      3.923    28.3872 0.0000e+00
      2.772      0.054     9.0951    108.294    117.885 125.928390    11.7900     0.4746     0.0426     0.2115 5.7549e+00     0.4156      2.718      3.943    28.3950 0.0000e+00
      2.786      0.050     8.9641    106.435    117.861 125.903175    11.7900     0.4784     0.0426     0.2115 5.6643e+00     0.5213      2.732      3.963    28.3998 0.0000e+00
      2.799      0.046     8.7798    104.961    117.837 125.877814    11.7900     0.4898     0.0852     0.1692 5.5800e+00     0.5364      2.745      3.982    28.4027 0.0000e+00
      2.811      0.042     8.5875    103.827    117.820 125.857550    11.7900     0.4784     0.0852     0.1692 5.5921e+00     0.5213      2.757      3.998    28.4043 0.0000e+00
      2.821      0.037     8.4137    102.969    117.826 125.860989    11.7900     0.5432     0.0852     0.1692 5.6189e+00     0.2796      2.767      4.013    28.4050 0.0000e+00
      2.829      0.033     8.2692    102.339    117.844 125.877042    11.7900     0.5280     0.0852     0.1692 5.5909e+00     0.1890      2.775      4.024    28.4052 0.0000e+00
      2.836      0.029     8.1548    101.896    117.853 125.881978    11.7900     0.5394     0.0000     0.2115 5.6348e+00     0.3098      2.781      4.034    28.4049 0.0000e+00
      2.842      0.027     8.0667    101.598    117.860 125.885117    11.7900     0.5432     0.0000     0.2115 5.6373e+00     0.1437      2.787      4.043    28.4041 0.0000e+00
      2.848      0.027     8.0003    101.407    117.864 125.887295    11.7900     0.5318     0.0000     0.2115 5.5885e+00     0.2192      2.793      4.051    28.4029 0.0000e+00
      2.855      0.029     7.9515    101.295    117.863 125.885092    11.7900     0.5432     0.0000     0.2115 5.5982e+00     0.3249      2.799      4.060    28.4013 0.0000e+00
      2.862      0.032     7.9174    101.226    117.867 125.889924    11.7900     0.5661     0.0426     0.2538 5.6520e+00     0.2343      2.806      4.070    28.3995 0.0000e+00
      2.870      0.036     7.8945    101.176    117.882 125.907081    11.7900     0.5165     0.0426     0.2538 5.6581e+00     0.2494      2.814      4.082    28.3978 0.0000e+00
      2.879      0.039     7.8799    101.138    117.900 125.929134    11.7900     0.5203     0.0426     0.2538 5.5594e+00     0.4760      2.824      4.095    28.3965 0.0000e+00
      2.890      0.042     7.8712    101.110    117.911 125.941956    11.7900     0.5127     0.0426     0.2538 5.5800e+00     0.4760      2.834      4.111    28.3960 0.0000e+00
      2.903      0.043     7.8658    101.084    117.920 125.952966    11.7900     0.5203     0.0426     0.2538 5.4541e+00     0.4458      2.847      4.128    28.3962 0.0000e+00
      2.915      0.043     7.8618    101.066    117.935 125.969105    11.7900     0.5356     0.0426     0.2538 5.3952e+00     0.4156      2.859      4.146    28.3970 0.0000e+00
      2.927      0.041     7.8588    101.067    117.949 125.982669    11.7900     0.5776     0.0426     0.2538 5.3671e+00     0.4609      2.871      4.163    28.3979 0.0000e+00
      2.937      0.039     7.8564    101.082    117.965 125.997276    11.7900     0.6081     0.0426     0.2538 5.3963e+00     0.5062      2.881      4.178    28.3988 0.0000e+00
      2.946      0.037     7.8543    101.101    117.980 126.010818    11.7900     0.5699     0.0426     0.2538 5.4187e+00     0.4911      2.889      4.190    28.3992 0.0000e+00
      2.954      0.035     7.8530    101.114    117.985 126.012900    11.7900     0.5585     0.0426     0.1692 5.4517e+00     0.4307      2.897      4.202    28.3991 0.0000e+00
      2.962      0.034     7.8531    101.117    117.983 126.006079    11.7900     0.6005     0.0426     0.1692 5.3765e+00     0.4458      2.905      4.213    28.3985 0.0000e+00
      2.970      0.035     7.8545    101.115    117.978 125.994537    11.7900     0.5928     0.0426     0.1692 5.3578e+00     0.3552      2.913      4.225    28.3977 0.0000e+00
      2.979      0.038     7.8561    101.111    117.956 125.965192    11.7900     0.5966     0.0426     0.1692 5.3520e+00     0.5515      2.922      4.237    28.3965 0.0000e+00
      2.989      0.041     7.8573    101.104    117.918 125.916221    11.7900     0.5699     0.0852     0.2538 5.3462e+00     0.4307      2.931      4.251    28.3950 0.0000e+00
      2.999      0.045     7.8579    101.087    117.875 125.860576    11.7900     0.6424     0.0852     0.2538 5.3659e+00     1.0047      2.941      4.266    28.3930 0.0000e+00
      3.011      0.050     7.8580    101.049    117.826 125.793422    11.7900     0.6424     0.0852     0.2538 5.3299e+00     0.8990      2.953      4.283    28.3908 0.0000e+00
      3.024      0.054     7.8580    100.971    117.786 125.728866    11.7900     0.6272     0.0852     0.2538 5.2700e+00     0.9745      2.966      4.302    28.3881 0.0000e+00
      3.039      0.057     7.8579    100.826    117.783 125.695711    11.7900     0.6233     0.0426     0.2538 5.2335e+00     0.9292      2.980      4.322    28.3848 0.0000e+00
      3.055      0.060     7.8572    100.586    117.802 125.683113    11.7900     0.8637     0.0426     0.2538 5.2029e+00     1.7449      2.996      4.345    28.3805 0.0000e+00
      3.071      0.062     7.8551    100.257    117.816 125.665699    11.7900     0.8446     0.0426     0.2538 5.1568e+00     1.7752      3.012      4.368    28.3743 0.0000e+00
      3.087      0.063     7.8504     99.875    117.815 125.628823    11.7900     0.8217     0.0426     0.2538 5.1088e+00     1.6543      3.028      4.391    28.3649 0.0000e+00
      3.103      0.064     7.8408     99.468    117.794 125.562649    11.7900     0.8065     0.0426     0.2538 5.1088e+00     1.7903      3.043      4.414    28.3522 0.0000e+00
      3.119      0.065     7.8240     99.053    117.749 125.461533    11.7900     0.8980     0.0426     0.0846 5.1255e+00     1.9715      3.059      4.436    28.3384 0.0000e+00
      3.136      0.066     7.8003     98.622    117.690 125.340526    11.7900     0.8789     0.0426     0.0846 5.0712e+00     2.0169      3.075      4.460    28.3245 0.0000e+00
      3.153      0.066     7.7726     98.144    117.651 125.243385    11.7900     0.9323     0.0426     0.0846 5.0088e+00     1.9111      3.091      4.484    28.3092 0.0000e+00
      3.170      0.066     7.7435     97.609    117.652 125.196224    11.7900     0.9285     0.0426     0.0846 5.0262e+00     1.9866      3.108      4.509    28.2906 0.0000e+00
      3.187      0.065     7.7143     97.033    117.675 125.184462    11.7900     1.0201     0.0852     0.1692 4.9503e+00     2.6966      3.126      4.534    28.2681 0.0000e+00
      3.205      0.062     7.6840     96.445    117.695 125.178952    11.7900     1.0277     0.0852     0.1692 4.8523e+00     2.5305      3.143      4.558    28.2436 0.0000e+00
      3.221      0.059     7.6500     95.887    117.697 125.164217    11.7900     1.0086     0.0852     0.1692 4.8777e+00     2.6060      3.159      4.581    28.2198 0.0000e+00
      3.236      0.054     7.6111     95.420    117.691 125.148332    11.7900     1.0010     0.0852     0.1692 4.8587e+00     2.6664      3.173      4.602    28.1994 0.0000e+00
      3.249      0.050     7.5682     95.098    117.703 125.159074    11.8800     1.0735     0.0000     0.2961 4.8166e+00     2.4701      3.186      4.621    28.1837 0.0000e+00
      3.260      0.045     7.5238     94.940    117.725 125.187301    11.8800     1.0849     0.0000     0.2961 4.8198e+00     2.5607      3.197      4.637    28.1726 0.0000e+00
      3.271      0.041     7.4813     94.946    117.732 125.204528    11.8800     1.0697     0.0000     0.2961 4.7989e+00     2.6060      3.207      4.652    28.1655 0.0000e+00
      3.281      0.038     7.4454     95.107    117.730 125.215350    11.8800     1.0735     0.0000     0.2961 4.7698e+00     2.5607      3.217      4.666    28.1615 0.0000e+00
      3.290      0.036     7.4204     95.395    117.711 125.206648    11.7900     1.0887     0.0426     0.2115 4.7718e+00     2.4247      3.226      4.679    28.1604 0.0000e+00
      3.298      0.035     7.4079     95.756    117.678 125.180103    11.7900     1.0849     0.0426     0.2115 4.8282e+00     2.4398      3.234      4.691    28.1623 0.0000e+00
      3.306      0.035     7.4078     96.131    117.649 125.152646    11.7900     1.0849     0.0426     0.2115 4.7604e+00     2.4096      3.242      4.703    28.1668 0.0000e+00
      3.315      0.037     7.4196     96.485    117.603 125.096949    11.7900     1.0926     0.0426     0.2115 4.8030e+00     2.5154      3.250      4.715    28.1722 0.0000e+00
      3.324      0.040     7.4415     96.818    117.503 124.970149    11.7900     1.0926     0.0426     0.2115 4.7760e+00     2.4398      3.259      4.727    28.1769 0.0000e+00
      3.333      0.045     7.4692     97.133    117.351 124.764443    11.7900     1.0697     0.0426     0.2115 4.7316e+00     2.3039      3.269      4.741    28.1804 0.0000e+00
      3.345      0.051     7.4982     97.409    117.211 124.547019    11.7900     1.0849     0.0426     0.2115 4.8187e+00     2.3945      3.280      4.757    28.1818 0.0000e+00
      3.358      0.058     7.5262     97.617    117.114 124.359932    11.7900     1.1002     0.0426     0.2115 4.7687e+00     2.2586      3.293      4.776    28.1792 0.0000e+00
      3.374      0.063     7.5534     97.766    117.041 124.191300    11.7900     1.0124     0.0426     0.2115 4.6551e+00     2.7571      3.309      4.799    28.1702 0.0000e+00
      3.393      0.067     7.5805     97.892    117.019 124.078176    11.8800     1.0086     0.0426     0.3384 4.6168e+00     2.7571      3.327      4.826    28.1515 0.0000e+00
      3.412      0.069     7.6060     98.016    117.059 124.044406    11.8800     1.0353     0.0426     0.3384 4.5818e+00     2.8628      3.346      4.853    28.1225 0.0000e+00
      3.432      0.067     7.6270     98.140    117.130 124.068976    11.8800     0.9972     0.0426     0.3384 4.5058e+00     2.8628      3.365      4.881    28.0867 0.0000e+00
      3.450      0.062     7.6439     98.253    117.202 124.128424    11.8800     1.0773     0.0426     0.3384 4.4882e+00     2.7873      3.383      4.907    28.0479 0.0000e+00
      3.466      0.056     7.6589     98.344    117.253 124.194588    12.6900     1.0735     0.0426     0.1692 4.4571e+00     2.8930      3.399      4.929    28.0096 0.0000e+00
      3.479      0.049     7.6730     98.411    117.276 124.249101    12.6900     1.0887     0.0426     0.1692 4.4697e+00     2.8930      3.412      4.948    27.9770 0.0000e+00
      3.490      0.042     7.6856     98.456    117.269 124.276493    12.6900     1.0773     0.0426     0.1692 4.4794e+00     2.7873      3.422      4.963    27.9556 0.0000e+00
      3.498      0.036     7.6954     98.483    117.230 124.262065    12.6900     1.0811     0.0426     0.1692 4.4941e+00     2.2586      3.431      4.976    27.9484 0.0000e+00
      3.506      0.032     7.7019     98.488    117.185 124.227981    12.6900     1.0735     0.0426     0.1692 4.4465e+00     2.3492      3.438      4.987    27.9535 0.0000e+00
      3.513      0.029     7.7053     98.473    117.165 124.203166    13.1400     1.0659     0.0852     0.2538 4.4668e+00     2.3643      3.445      4.997    27.9662 0.0000e+00
      3.520      0.028     7.7068     98.449    117.147 124.162997    13.1400     1.0582     0.0852     0.2538 4.4445e+00     2.3039      3.452      5.007    27.9809 0.0000e+00
      3.527      0.027     7.7074     98.419    117.116 124.090759    13.1400     1.1917     0.0852     0.2538 4.4892e+00     2.3341      3.459      5.017    27.9927 0.0000e+00
      3.534      0.027     7.7070     98.383    117.100 124.025204    13.1400     1.1650     0.0852     0.2538 4.4378e+00     2.2737      3.465      5.026    27.9983 0.0000e+00
      3.541      0.026     7.7060     98.339    117.115 123.994863    12.6900     1.1879     0.0426     0.1692 4.4590e+00     2.3945      3.472      5.036    27.9969 0.0000e+00
      3.548      0.026     7.7054     98.301    117.148 123.991643    12.6900     1.1765     0.0426     0.1692 4.3746e+00     2.3945      3.479      5.046    27.9878 0.0000e+00
      3.554      0.025     7.7054     98.298    117.169 123.982671    12.6900     1.0659     0.0426     0.1692 4.3841e+00     2.1830      3.485      5.055    27.9710 0.0000e+00
      3.561      0.024     7.7054     98.346    117.162 123.949549    12.6900     1.0926     0.0426     0.1692 4.4022e+00     2.2435      3.492      5.064    27.9500 0.0000e+00
      3.567      0.024     7.7046     98.438    117.147 123.911452    12.6900     1.1002     0.0852     0.1269 4.3689e+00     2.0924      3.498      5.073    27.9304 0.0000e+00
      3.572      0.023     7.7039     98.558    117.140 123.882230    12.6900     1.0926     0.0852     0.1269 4.3641e+00     2.2132      3.503      5.081    27.9142 0.0000e+00
      3.578      0.023     7.7055     98.675    117.134 123.850088    12.6900     1.0735     0.0852     0.1269 4.3765e+00     2.2888      3.509      5.089    27.9009 0.0000e+00
      3.583      0.023     7.7107     98.763    117.119 123.802453    12.6900     1.0735     0.0852     0.1269 4.4080e+00     2.3341      3.514      5.097    27.8899 0.0000e+00
      3.589      0.023     7.7192     98.810    117.106 123.752628    13.4100     1.0353     0.0852     0.3384 4.3433e+00     2.3794      3.520      5.105    27.8806 0.0000e+00
      3.596      0.024     7.7298     98.816    117.122 123.723339    13.4100     1.0697     0.0852     0.3384 4.3433e+00     2.2888      3.526      5.114    27.8712 0.0000e+00
      3.602      0.024     7.7406     98.792    117.159 123.710773    13.4100     1.0849     0.0852     0.3384 4.3217e+00     2.3945      3.532      5.123    27.8600 0.0000e+00
      3.608      0.024     7.7493     98.762    117.194 123.697571    13.4100     1.0620     0.0852     0.3384 4.3264e+00     2.3643      3.539      5.132    27.8468 0.0000e+00
      3.615      0.024     7.7552     98.762    117.226 123.690212    13.4100     1.0773     0.0852     0.3384 4.3020e+00     2.3039      3.545      5.141    27.8310 0.0000e+00
      3.621      0.024     7.7583     98.824    117.256 123.690733    13.7700     1.0849     0.0852     0.2961 4.2611e+00     2.3643      3.551      5.150    27.8116 0.0000e+00
      3.627      0.025     7.7595     98.944    117.270 123.681266    13.7700     1.0659     0.0852     0.2961 4.3170e+00     2.3341      3.557      5.159    27.7895 0.0000e+00
      3.633      0.025     7.7600     99.077    117.280 123.673291    13.7700     1.0735     0.0852     0.2961 4.2694e+00     2.3794      3.563      5.167    27.7682 0.0000e+00
      3.640      0.026     7.7623     99.177    117.312 123.690689    13.7700     1.0735     0.0852     0.2961 4.2638e+00     2.2435      3.569      5.176    27.7507 0.0000e+00
      3.646      0.026     7.7691     99.228    117.345 123.712089    13.9500     1.1002     0.0852     0.2538 4.2768e+00     2.4398      3.575      5.186    27.7374 0.0000e+00
      3.653      0.027     7.7800     99.233    117.348 123.705186    13.9500     1.0582     0.0852     0.2538 4.2398e+00     2.3341      3.582      5.196    27.7273 0.0000e+00
      3.660      0.028     7.7915     99.212    117.334 123.682143    13.9500     1.1307     0.0852     0.2538 4.2022e+00     2.1377      3.589      5.206    27.7191 0.0000e+00
      3.667      0.030     7.8004     99.192    117.323 123.662824    13.9500     1.1193     0.0852     0.2538 4.2380e+00     2.1528      3.596      5.216    27.7122 0.0000e+00
      3.675      0.031     7.8052     99.194    117.315 123.646078    14.4000     1.1421     0.0426     0.2538 4.2453e+00     2.1377      3.604      5.227    27.7065 0.0000e+00
      3.683      0.033     7.8062     99.222    117.313 123.635442    14.4000     1.1650     0.0426     0.2538 4.2306e+00     2.1377      3.611      5.238    27.7021 0.0000e+00
      3.692      0.036     7.8050     99.265    117.320 123.632080    14.4000     1.0735     0.0426     0.2538 4.1913e+00     2.3643      3.620      5.251    27.6986 0.0000e+00
      3.701      0.038     7.8039     99.303    117.327 123.627093    14.4000     1.0926     0.0426     0.2538 4.2040e+00     2.3341      3.629      5.264    27.6953 0.0000e+00
      3.711      0.040     7.8045     99.310    117.330 123.615150    14.4000     1.0582     0.0426     0.2538 4.1822e+00     2.2737      3.639      5.278    27.6919 0.0000e+00
      3.722      0.043     7.8072     99.251    117.334 123.601066    14.4000     1.0773     0.0852     0.4230 4.1767e+00     2.3643      3.649      5.293    27.6881 0.0000e+00
      3.733      0.044     7.8112     99.092    117.349 123.597091    14.4000     1.0811     0.0852     0.4230 4.1568e+00     2.3039      3.660      5.309    27.6837 0.0000e+00
      3.745      0.046     7.8150     98.809    117.373 123.602163    14.4000     1.0773     0.0852     0.4230 4.1415e+00     2.3341      3.672      5.326    27.6782 0.0000e+00
      3.757      0.046     7.8165     98.374    117.398 123.609630    14.4000     1.0849     0.0852     0.4230 4.1164e+00     2.3794      3.684      5.343    27.6715 0.0000e+00
      3.769      0.047     7.8129     97.758    117.428 123.625486    14.3100     1.0659     0.1278     0.3384 4.0666e+00     2.3341      3.696      5.361    27.6637 0.0000e+00
      3.781      0.046     7.8015     96.951    117.461 123.645953    14.3100     1.1307     0.1278     0.3384 4.0569e+00     2.9988      3.708      5.378    27.6553 0.0000e+00
      3.793      0.045     7.7804     95.966    117.478 123.650481    14.3100     1.1345     0.1278     0.3384 4.0666e+00     3.0592      3.720      5.395    27.6470 0.0000e+00
      3.805      0.043     7.7472     94.848    117.468 123.630274    14.3100     1.1421     0.1278     0.3384 3.9722e+00     2.9837      3.731      5.412    27.6392 0.0000e+00
      3.816      0.041     7.6997     93.662    117.456 123.609953    14.3100     1.1078     0.0852     0.3384 3.9585e+00     3.0592      3.742      5.427    27.6321 0.0000e+00
      3.826      0.038     7.6369     92.478    117.469 123.618108    14.3100     1.2451     0.0852     0.3384 3.9792e+00     3.7541      3.752      5.442    27.6259 0.0000e+00
      3.835      0.035     7.5601     91.387    117.503 123.652914    14.3100     1.2757     0.0852     0.3384 3.9636e+00     3.9203      3.761      5.455    27.6206 0.0000e+00
      3.844      0.032     7.4726     90.495    117.544 123.699643    14.3100     1.2451     0.0852     0.3384 3.9464e+00     3.8296      3.769      5.467    27.6162 0.0000e+00
      3.851      0.031     7.3795     89.895    117.584 123.744749    14.3100     1.2413     0.0852     0.2961 3.9208e+00     3.7692      3.777      5.478    27.6129 0.0000e+00
      3.858      0.030     7.2865     89.647    117.603 123.764250    14.3100     1.1307     0.0852     0.2961 3.9593e+00     3.4369      3.783      5.488    27.6110 0.0000e+00
      3.865      0.031     7.2007     89.744    117.582 123.737336    14.3100     1.1498     0.0852     0.2961 3.9567e+00     3.5728      3.790      5.497    27.6107 0.0000e+00
      3.872      0.033     7.1302     90.082    117.535 123.678839    14.3100     1.1231     0.0852     0.2961 3.9913e+00     3.5426      3.797      5.507    27.6119 0.0000e+00
      3.880      0.036     7.0828     90.493    117.488 123.613172    14.3100     1.1078     0.0852     0.2961 3.9362e+00     3.6030      3.805      5.519    27.6132 0.0000e+00
      3.890      0.041     7.0633     90.825    117.460 123.560836    14.2200     1.1307     0.0852     0.2538 3.9140e+00     4.3433      3.814      5.532    27.6131 0.0000e+00
      3.901      0.045     7.0712     91.003    117.469 123.539883    14.2200     1.1498     0.0852     0.2538 3.8902e+00     4.1469      3.825      5.548    27.6111 0.0000e+00
      3.913      0.049     7.0983     91.026    117.511 123.548724    14.2200     1.1193     0.0852     0.2538 3.8190e+00     4.3584      3.837      5.566    27.6071 0.0000e+00
      3.927      0.053     7.1316     90.925    117.592 123.593717    14.2200     1.1307     0.0852     0.2538 3.7975e+00     4.2677      3.851      5.585    27.6002 0.0000e+00
      3.941      0.055     7.1590     90.729    117.704 123.670854    14.2200     1.3710     0.0426     0.2538 3.7054e+00     5.3252      3.865      5.606    27.5902 0.0000e+00
      3.956      0.056     7.1746     90.455    117.818 123.750685    14.2200     1.3672     0.0426     0.2538 3.6805e+00     5.4460      3.880      5.627    27.5774 0.0000e+00
      3.971      0.055     7.1784     90.085    117.918 123.818485    14.2200     1.3787     0.0426     0.2538 3.6534e+00     5.5367      3.894      5.648    27.5624 0.0000e+00
      3.986      0.053     7.1725     89.537    118.019 123.892332    14.2200     1.3901     0.0426     0.2538 3.6384e+00     5.3856      3.908      5.669    27.5456 0.0000e+00
      4.000      0.049     7.1592     88.707    118.126 123.981913    14.1300     1.7334     0.0852     0.3384 3.5179e+00    10.7635      3.922      5.689    27.5281 0.0000e+00
      4.013      0.044     7.1398     87.550    118.210 124.057095    14.1300     1.7449     0.0852     0.3384 3.5019e+00    10.9448      3.935      5.707    27.5112 0.0000e+00
      4.024      0.037     7.1126     86.133    118.248 124.091913    14.1300     1.7563     0.0852     0.3384 3.4981e+00    10.8088      3.946      5.723    27.4954 0.0000e+00
      4.032      0.029     7.0710     84.589    118.241 124.087647    14.1300     1.7716     0.0852     0.3384 3.4791e+00    10.8843      3.955      5.736    27.4820 0.0000e+00
      4.039      0.020     7.0067     83.047    118.207 124.059167    14.1300     2.2446     0.0852     0.3384 3.4348e+00    18.6793      3.961      5.745    27.4723 0.0000e+00
      4.043      0.011     6.9160     81.624    118.154 124.014884    14.4000     2.2522     0.0852     0.2538 3.4244e+00    18.7246      3.965      5.751    27.4667 0.0000e+00
      4.045      0.000     6.8043     80.431    118.089 123.962996    14.4000     2.2599     0.0852     0.2538 3.4348e+00    18.7699      3.967      5.753    27.4647 0.0000e+00
      4.045     -0.012     6.6822     79.572    118.033 123.921678    14.4000     2.2408     0.0852     0.2538 3.3398e+00    18.8001      3.966      5.753    27.4657 0.0000e+00
      4.041     -0.026     6.5601     79.122    117.991 123.895920    14.4000     3.1869     0.0852     0.2538 3.3705e+00    32.8189      3.963      5.748    27.4688 0.0000e+00
      4.034     -0.043     6.4471     79.107    117.947 123.866848    14.6700     3.1563     0.0852     0.3807 3.3189e+00    32.7736      3.956      5.737    27.4737 0.0000e+00
      4.022     -0.065     6.3521     79.504    117.896 123.832713    14.6700     3.1716     0.0852     0.3807 3.2525e+00    32.7433      3.944      5.721    27.4803 0.0000e+00
      4.005     -0.091     6.2834     80.290    117.859 123.820424    14.6700     3.1716     0.0852     0.3807 3.2292e+00    32.8793      3.928      5.697    27.4880 0.0000e+00
      3.982     -0.124     6.2470     81.461    117.827 123.826704    14.6700     2.7901     0.0852     0.3807 3.2013e+00    23.8305      3.905      5.663    27.4956 0.0000e+00
      3.949     -0.164     6.2449     82.991    117.776 123.839222    15.9300     2.7939     0.0852     0.2961 3.1155e+00    23.9061      3.873      5.617    27.5031 0.0000e+00
      3.906     -0.208     6.2752     84.807    117.719 123.873326    15.9300     2.8054     0.0852     0.2961 3.1291e+00    23.9061      3.830      5.556    27.5114 0.0000e+00
      3.849     -0.252     6.3359     86.830    117.673 123.936113    15.9300     2.8092     0.0852     0.2961 3.4065e+00    23.6946      3.774      5.474    27.5224 0.0000e+00
      3.776     -0.293     6.4261     89.029    117.639 124.018328    15.9300     0.9552     0.0852     0.2961 3.8750e+00     4.2526      3.703      5.371    27.5397 0.0000e+00
      3.689     -0.325     6.5434     91.370    117.613 124.109889    15.3900     0.9476     0.0852     0.3384 4.3358e+00     4.2073      3.618      5.247    27.5677 0.0000e+00
      3.593     -0.346     6.6817     93.741    117.588 124.203209    15.3900     0.9514     0.0852     0.3384 4.6723e+00     4.1620      3.523      5.110    27.6075 0.0000e+00
      3.494     -0.355     6.8353     95.983    117.566 124.295168    15.3900     0.9362     0.0852     0.3384 4.9054e+00     4.2224      3.427      4.970    27.6547 0.0000e+00
      3.399     -0.353     7.0021     97.955    117.542 124.376284    15.3900     0.7797     0.0852     0.3384 5.0922e+00     2.8024      3.333      4.834    27.7046 0.0000e+00
      3.309     -0.347     7.1798     99.557    117.505 124.436181    15.3900     0.7645     0.0852     0.3384 5.2735e+00     2.8024      3.245      4.706    27.7553 0.0000e+00
      3.225     -0.341     7.3595    100.732    117.477 124.496839    13.6800     0.7492     0.0852     0.2961 5.2930e+00     2.7873      3.162      4.587    27.8062 0.0000e+00
      3.144     -0.343     7.5291    101.460    117.479 124.574438    13.6800     0.7759     0.0852     0.2961 5.2918e+00     2.8779      3.084      4.472    27.8552 0.0000e+00
      3.064     -0.355     7.6777    101.770    117.510 124.665666    13.6800     0.8255     0.0852     0.2961 5.2964e+00    23.6493      3.005      4.358    27.9006 0.0000e+00
      2.979     -0.378     7.7977    101.748    117.584 124.794853    13.6800     0.8370     0.0852     0.2961 5.2735e+00    23.4831      2.921      4.237    27.9427 0.0000e+00
      2.884     -0.410     7.8846    101.507    117.698 124.974442    13.3200     0.8217     0.0852     0.2538 5.4387e+00    23.6795      2.828      4.102    27.9811 0.0000e+00
      2.775     -0.444     7.9372    101.159    117.816 125.172293    13.3200     0.8179     0.0852     0.2538 5.7787e+00    23.6040      2.721      3.947    28.0130 0.0000e+00
      2.653     -0.476     7.9581    100.800    117.901 125.345136    13.3200     0.5928     0.0852     0.2538 6.2394e+00     9.9931      2.601      3.773    28.0378 0.0000e+00
      2.520     -0.500     7.9534    100.513    117.944 125.473040    13.3200     0.6081     0.0852     0.2538 6.6466e+00    10.0686      2.472      3.585    28.0595 0.0000e+00
      2.383     -0.514     7.9312    100.342    117.963 125.570110    12.6000     0.6157     0.0426     0.1692 7.0040e+00     9.9628      2.337      3.389    28.0841 0.0000e+00
      2.245     -0.518     7.8998    100.302    117.973 125.648232    12.6000     0.5585     0.0426     0.1692 7.4079e+00    10.0233      2.202      3.193    28.1149 0.0000e+00
      2.110     -0.510     7.8669    100.395    117.983 125.720236    12.6000     0.4936     0.0426     0.1692 7.5920e+00     1.8809      2.070      3.001    28.1499 0.0000e+00
      1.980     -0.493     7.8396    100.594    118.000 125.795324    12.6000     0.4860     0.0426     0.1692 7.9121e+00     1.9413      1.942      2.815    28.1852 0.0000e+00
      1.853     -0.469     7.8218    100.833    118.004 125.851503    12.6000     0.4784     0.0426     0.1692 8.5187e+00     1.9111      1.817      2.635    28.2176 0.0000e+00
      1.733     -0.440     7.8147    101.053    117.983 125.873745    11.9700     0.4784     0.0426     0.2538 9.1243e+00     1.8960      1.700      2.464    28.2464 0.0000e+00
      1.623     -0.410     7.8183    101.222    117.946 125.867982    11.9700     0.5165     0.0426     0.2538 9.5006e+00     0.4307      1.592      2.308    28.2723 0.0000e+00
      1.524     -0.383     7.8305    101.320    117.909 125.852690    11.9700     0.4822     0.0426     0.2538 9.4882e+00     0.4307      1.495      2.168    28.2963 0.0000e+00
      1.436     -0.361     7.8460    101.336    117.882 125.839797    11.9700     0.4784     0.0426     0.2538 9.4965e+00     0.4156      1.408      2.042    28.3183 0.0000e+00
      1.353     -0.347     7.8606    101.280    117.856 125.821866    11.7900     0.4936     0.0426     0.1692 9.4286e+00     0.5364      1.327      1.925    28.3371 0.0000e+00
      1.271     -0.340     7.8717    101.182    117.833 125.802119    11.7900     0.4135     0.0426     0.1692 9.7304e+00     0.4760      1.247      1.808    28.3516 0.0000e+00
      1.187     -0.338     7.8778    101.081    117.821 125.791295    11.7900     0.4212     0.0426     0.1692 1.0442e+01     0.3703      1.164      1.688    28.3620 0.0000e+00
      1.098     -0.337     7.8782    101.008    117.810 125.782508    11.7900     0.4135     0.0426     0.1692 1.1233e+01     0.4911      1.077      1.562    28.3688 0.0000e+00
      1.008     -0.335     7.8733    100.977    117.795 125.769412    11.8800     0.4402     0.0426     0.1692 1.2140e+01     0.5213      0.989      1.434    28.3726 0.0000e+00
      0.920     -0.329     7.8654    100.971    117.786 125.764522    11.8800     0.5051     0.0426     0.1692 1.2709e+01     0.5062      0.902      1.308    28.3746 0.0000e+00
      0.835     -0.316     7.8574    100.973    117.793 125.778541    11.8800     0.4784     0.0426     0.1692 1.3518e+01     0.4156      0.819      1.187    28.3757 0.0000e+00
      0.755     -0.299     7.8516    100.963    117.813 125.807204    11.8800     0.5013     0.0426     0.1692 1.4710e+01     0.4609      0.740      1.073    28.3768 0.0000e+00
      0.680     -0.276     7.8489    100.926    117.844 125.846149    11.9700     0.4975     0.0426     0.2115 1.5876e+01     0.4911      0.666      0.966    28.3783 0.0000e+00
      0.611     -0.251     7.8482    100.874    117.879 125.889755    11.9700     0.4250     0.0426     0.2115 1.6810e+01     0.4458      0.599      0.868    28.3803 0.0000e+00
      0.549     -0.223     7.8480    100.841    117.908 125.925642    11.9700     0.4212     0.0426     0.2115 1.7884e+01     0.5666      0.538      0.781    28.3828 0.0000e+00
      0.495     -0.195     7.8468    100.867    117.919 125.943371    11.9700     0.4021     0.0426     0.2115 1.9222e+01     0.4458      0.485      0.704    28.3856 0.0000e+00
      0.449     -0.166     7.8436    100.956    117.923 125.951670    11.9700     0.4364     0.0426     0.2115 1.8249e+01     0.3703      0.441      0.639    28.3883 0.0000e+00
      0.412     -0.139     7.8392    101.072    117.936 125.968762    11.8800     0.4708     0.0426     0.2115 1.8952e+01     5.9747      0.404      0.586    28.3907 0.0000e+00
      0.382     -0.115     7.8363    101.167    117.955 125.991200    11.8800     0.4822     0.0426     0.2115 1.8497e+01     5.8690      0.375      0.544    28.3932 0.0000e+00
      0.358     -0.093     7.8380    101.210    117.969 126.008961    11.8800     0.4860     0.0426     0.2115 1.8505e+01     5.8388      0.351      0.509    28.3955 0.0000e+00
      0.338     -0.076     7.8447    101.203    117.972 126.014776    11.8800     0.5127     0.0426     0.2115 1.7691e+01     6.0503      0.332      0.481    28.3972 0.0000e+00
      0.322     -0.062     7.8536    101.171    117.954 125.998190    11.7900     0.4708     0.0426     0.2538 1.7318e+01     0.6422      0.316      0.458    28.3986 0.0000e+00
      0.309     -0.052     7.8608    101.147    117.916 125.958783    11.7900     0.4669     0.0426     0.2538 1.6986e+01     0.7177      0.303      0.440    28.3998 0.0000e+00
      0.299     -0.045     7.8639    101.149    117.875 125.914058    11.7900     0.4593     0.0426     0.2538 1.7363e+01     0.7177      0.293      0.425    28.4010 0.0000e+00
      0.290     -0.042     7.8632    101.159    117.859 125.896107    11.7900     0.4708     0.0426     0.2538 1.7299e+01     0.7328      0.284      0.412    28.4020 0.0000e+00
      0.281     -0.043     7.8606    101.154    117.879 125.916149    12.8700     0.4708     0.0852     0.2961 1.7420e+01     1.3975      0.276      0.400    28.4029 0.0000e+00
      0.272     -0.050     7.8587    101.131    117.901 125.937512    12.8700     0.4784     0.0852     0.2961 1.7333e+01     1.5183      0.267      0.387    28.4033 0.0000e+00
      0.261     -0.062     7.8589    101.085    117.893 125.927876    12.8700     0.4440     0.0852     0.2961 1.7098e+01     1.4881      0.256      0.371    28.4032 0.0000e+00
      0.246     -0.080     7.8597    101.000    117.864 125.894675    12.8700     0.4860     0.0852     0.2961 1.7005e+01     1.3371      0.242      0.350    28.4028 0.0000e+00
      0.227     -0.102     7.8595    100.855    117.829 125.855067    12.8700     0.4708     0.0852     0.2961 1.7401e+01     2.7873      0.222      0.322    28.4021 0.0000e+00
      0.199     -0.128     7.8577    100.656    117.809 125.830504    13.1400     0.4669     0.0852     0.2961 1.8593e+01     2.7722      0.196      0.283    28.4014 0.0000e+00
      0.163     -0.156     7.8543    100.426    117.808 125.826441    13.1400     0.4975     0.0852     0.2961 1.9730e+01     2.8628      0.160      0.232    28.4008 0.0000e+00
      0.118     -0.183     7.8477    100.171    117.807 125.821787    13.1400     0.4631     0.0852     0.2961 2.2429e+01     2.8175      0.116      0.168    28.4000 0.0000e+00
      0.066     -0.206     7.8366     99.869    117.792 125.803295    13.1400     0.4860     0.0852     0.2961 3.4033e+01     3.4671      0.065      0.093    28.3989 0.0000e+00
      0.007     -0.222     7.8214     99.468    117.752 125.758031    12.8700     0.4784     0.0852     0.2961 3.0856e+01     3.6030      0.007      0.009    28.3976 0.0000e+00
     -0.056     -0.229     7.8037     98.885    117.666 125.661920    12.8700     0.4746     0.0852     0.2961 2.9320e+01     3.6030     -0.055     -0.080    28.3962 0.0000e+00
     -0.120     -0.226     7.7841     98.053    117.492 125.471325    12.8700     0.4669     0.0852     0.2961 3.2143e+01     3.5426     -0.118     -0.171    28.3950 0.0000e+00
     -0.182     -0.215     7.7607     97.017    117.163 125.113409    12.8700     0.4097     0.0852     0.2961 3.1582e+01     6.3373     -0.178     -0.259    28.3939 0.0000e+00
     -0.238     -0.196     7.7297     95.962    116.570 124.472719    40.3200     0.4212     0.3408     0.2115 3.1858e+01     6.4582     -0.233     -0.339    28.3926 0.0000e+00
     -0.287     -0.173     7.6847     95.102    115.514 123.336387    40.3200     0.4364     0.3408     0.2115 3.2643e+01     6.3524     -0.281     -0.408    28.3908 0.0000e+00
     -0.328     -0.147     7.6203     94.529    113.675 121.363372    40.3200     0.4212     0.3408     0.2115 3.1747e+01     6.2769     -0.321     -0.466    28.3885 0.0000e+00
     -0.360     -0.121     7.5401     94.175    110.558 118.027537    40.3200     0.1236     0.3408     0.2115 3.2192e+01    93.5769     -0.353     -0.512    28.3857 0.0000e+00
     -0.386     -0.097     7.4586     93.870    105.353 112.463336   174.7800     0.1351     3.4080    -0.1269 3.1754e+01    93.7129     -0.378     -0.549    28.3825 0.0000e+00
     -0.405     -0.077     7.3923     93.392     96.689 103.210993   174.7800     0.1084     3.4080    -0.1269 3.2101e+01    93.6525     -0.397     -0.577    28.3786 0.0000e+00
     -0.421     -0.060     7.3484     92.582     82.257  87.803215   174.7800     0.1160     3.4080    -0.1269 3.2157e+01    93.6525     -0.412     -0.598    28.3742 0.0000e+00
     -0.433     -0.047     7.3215     91.481     62.858  67.094435   174.7800     0.0473     3.4080    -0.1269 3.1119e+01    38.9521     -0.424     -0.615    28.3698 0.0000e+00
     -0.442     -0.037     7.2983     90.281     44.923  47.948633   174.7800     0.0473     3.4080    -0.1269 3.0062e+01    38.8766     -0.433     -0.628    28.3660 0.0000e+00
     -0.449     -0.029     7.2617     89.147     32.859  35.069621    76.1400     0.0511     0.0426    -0.2538 2.9685e+01    38.8766     -0.440     -0.639    28.3629 0.0000e+00
     -0.455     -0.023     7.1993     88.188     25.617  27.337610    76.1400     0.0092     0.0426    -0.2538 3.0291e+01    38.8766     -0.446     -0.647    28.3598 0.0000e+00
     -0.459     -0.019     7.1145     87.489     21.194  22.615106    76.1400    -0.2159     0.0426    -0.2538 3.0490e+01     9.7060     -0.450     -0.653    28.3562 0.0000e+00
     -0.462     -0.016     7.0219     87.094     18.379  19.608942    76.1400    -0.1930     0.0426    -0.2538 2.9880e+01     9.7211     -0.453     -0.658    28.3518 0.0000e+00
     -0.465     -0.014     6.9346     86.980     16.452  17.551302   367.2000    -0.2083     0.0000    -0.2115 2.8596e+01     9.7060     -0.456     -0.661    28.3465 0.0000e+00
     -0.467     -0.012     6.8609     87.039     15.224  16.239744   367.2000    -0.2121     0.0000    -0.2115 2.6961e+01     9.6909     -0.458     -0.664    28.3402 0.0000e+00
     -0.468     -0.012     6.8074     87.092     14.795  15.782206   367.2000    -0.2006     0.0000    -0.2115 2.6130e+01     6.6847     -0.459     -0.666    28.3339 0.0000e+00
     -0.469 -9.990e-29     6.7773 -9.990e-29 -9.990e-29 -9.990e-29   367.2000 -9.990e-29     0.0000    -0.2115 2.5359e+01 -9.990e-29     -0.460     -0.667    28.3287 0.0000e+00
     -0.470 -9.990e-29     6.7688 -9.990e-29 -9.990e-29 -9.990e-29   367.2000 -9.990e-29     0.0000     0.0423 2.4380e+01 -9.990e-29     -0.461     -0.668    28.3251 0.0000e+00
     -0.470 -9.990e-29     6.7737 -9.990e-29 -9.990e-29 -9.990e-29   367.2000 -9.990e-29     0.0000     0.0423 2.4233e+01 -9.990e-29     -0.461     -0.669    28.3229 0.0000e+00
     -0.470 -9.990e-29     6.7779 -9.990e-29 -9.990e-29 -9.990e-29   367.2000 -9.990e-29     0.0000     0.0423 2.4497e+01 -9.990e-29     -0.461     -0.669    28.3222 0.0000e+00
