* Sea-Bird SBE19plus  Data File:
* FileName = C:\R\Reservoirs\Data\DataNotYetUploadedToEDI\Raw_CTD\RawDownloads\080425_fcr50_S7809_0002.hex
* Software version 2.8.0.119
* Temperature SN = 7809
* Conductivity SN = 7809
* System UpLoad Time = Aug 11 2025 16:37:27
* <ApplicationData>
* <Seaterm232>
* <SoftwareVersion>2.8.0.119</SoftwareVersion>
* <BuildDate>07-Nov-2018</BuildDate>
* </Seaterm232>
* </ApplicationData>
* <InstrumentState>
* <HardwareData DeviceType='SBE19plus' SerialNumber='01907809'>
*
*    <Manufacturer>Sea-Bird Electronics, Inc.</Manufacturer>
*
*    <FirmwareVersion>3.1.8</FirmwareVersion>
*
*    <FirmwareDate>Mar  9 2016 16:22:29</FirmwareDate>
*
*    <CommandSetVersion>1.4</CommandSetVersion>
*
*    <PCBAssembly PCBSerialNum='120721' AssemblyNum='41054J'/>
*
*    <PCBAssembly PCBSerialNum='120715' AssemblyNum='41967A'/>
*
*    <PCBAssembly PCBSerialNum='116699' AssemblyNum='41606'/>
*
*    <PCBAssembly PCBSerialNum='120719' AssemblyNum='41059D'/>
*
*    <MfgDate>28-Apr-2017</MfgDate>
*
*    <InternalSensors>
*
*       <Sensor id='Main Temperature'>
*
*          <type>temperature0</type>
*
*          <SerialNumber>01907809</SerialNumber>
*
*       </Sensor>
*
*       <Sensor id='Main Conductivity'>
*
*          <type>conductivity-0</type>
*
*          <SerialNumber>01907809</SerialNumber>
*
*       </Sensor>
*
*       <Sensor id='Main Pressure'>
*
*          <type>strain-0</type>
*
*          <SerialNumber>10586018</SerialNumber>
*
*       </Sensor>
*
*    </InternalSensors>
*
*    <ExternalSensors>
*
*       <Sensor id='volt 0'>
*
*          <type>pH</type>
*
*          <SerialNumber>27-0363</SerialNumber>
*
*       </Sensor>
*
*       <Sensor id='volt 1'>
*
*          <type>ORP</type>
*
*          <SerialNumber>27-0363</SerialNumber>
*
*       </Sensor>
*
*       <Sensor id='volt 2'>
*
*          <type>OXY</type>
*
*          <SerialNumber>43-0434</SerialNumber>
*
*       </Sensor>
*
*       <Sensor id='volt 3'>
*
*          <type>PAR</type>
*
*          <SerialNumber>1122</SerialNumber>
*
*       </Sensor>
*
*       <Sensor id='volt 4'>
*
*          <type>ECO AFL/FL</type>
*
*          <SerialNumber>FLNTURT-2496</SerialNumber>
*
*       </Sensor>
*
*       <Sensor id='volt 5'>
*
*          <type>ECO-NTU</type>
*
*          <SerialNumber>FLNTURT-2496</SerialNumber>
*
*       </Sensor>
*
*       <Sensor id='serial'>
*
*          <type>not assigned</type>
*
*          <SerialNumber>not assigned</SerialNumber>
*
*       </Sensor>
*
*    </ExternalSensors>
*
* </HardwareData>
* <StatusData DeviceType='SBE19plus' SerialNumber='01907809'>
*
*    <DateTime>2025-08-11T16:35:39</DateTime>
*
*    <LoggingState>not logging</LoggingState>
*
*    <EventSummary numEvents='0'/>
*
*    <Power>
*
*       <vMain>12.1</vMain>
*
*       <vLith>8.3</vLith>
*
*       <iMain>63.0</iMain>
*
*       <iPump>53.8</iPump>
*
*       <iExt01>21.1</iExt01>
*
*       <iExt2345>40.6</iExt2345>
*
*    </Power>
*
*    <MemorySummary>
*
*       <Bytes>373198</Bytes>
*
*       <Samples>16226</Samples>
*
*       <SamplesFree>2844562</SamplesFree>
*
*       <SampleLength>23</SampleLength>
*
*       <Profiles>11</Profiles>
*
*    </MemorySummary>
*
* </StatusData>
* <ConfigurationData DeviceType='SBE19plus' SerialNumber='01907809'>
*
*    <ProfileMode>
*
*       <ScansToAverage>1</ScansToAverage>
*
*       <MinimumCondFreq>0</MinimumCondFreq>
*
*       <PumpDelay>45</PumpDelay>
*
*       <AutoRun>no</AutoRun>
*
*       <IgnoreSwitch>no</IgnoreSwitch>
*
*    </ProfileMode>
*
*    <Battery>
*
*       <Type>alkaline</Type>
*
*       <CutOff>7.5</CutOff>
*
*    </Battery>
*
*    <DataChannels>
*
*       <ExtVolt0>yes</ExtVolt0>
*
*       <ExtVolt1>yes</ExtVolt1>
*
*       <ExtVolt2>yes</ExtVolt2>
*
*       <ExtVolt3>yes</ExtVolt3>
*
*       <ExtVolt4>yes</ExtVolt4>
*
*       <ExtVolt5>yes</ExtVolt5>
*
*       <SBE38>no</SBE38>
*
*       <WETLABS>no</WETLABS>
*
*       <OPTODE>no</OPTODE>
*
*       <SBE63>no</SBE63>
*
*       <SeaFET>no</SeaFET>
*
*       <GTD>no</GTD>
*
*    </DataChannels>
*
*    <EchoCharacters>yes</EchoCharacters>
*
*    <OutputExecutedTag>yes</OutputExecutedTag>
*
*    <OutputFormat>raw HEX</OutputFormat>
*
* </ConfigurationData>
* <CalibrationCoefficients DeviceType='SBE19plus' SerialNumber='01907809'>
*
*    <Calibration format='TEMP1' id='Main Temperature'>
*
*       <SerialNum>01907809</SerialNum>
*
*       <CalDate>31-Jan-23</CalDate>
*
*       <TA0>1.218232e-03</TA0>
*
*       <TA1>2.815090e-04</TA1>
*
*       <TA2>-1.578887e-06</TA2>
*
*       <TA3>1.972343e-07</TA3>
*
*       <TOFFSET>0.000000e+00</TOFFSET>
*
*    </Calibration>
*
*    <Calibration format='WBCOND0' id='Main Conductivity'>
*
*       <SerialNum>01907809</SerialNum>
*
*       <CalDate>31-Jan-23</CalDate>
*
*       <G>-1.005652e+00</G>
*
*       <H>1.267963e-01</H>
*
*       <I>-1.561708e-04</I>
*
*       <J>2.645944e-05</J>
*
*       <CPCOR>-9.570000e-08</CPCOR>
*
*       <CTCOR>3.250000e-06</CTCOR>
*
*       <CSLOPE>1.000000e+00</CSLOPE>
*
*    </Calibration>
*
*    <Calibration format='STRAIN0' id='Main Pressure'>
*
*       <SerialNum>10586018</SerialNum>
*
*       <CalDate>20-Jan-23</CalDate>
*
*       <PA0>4.416439e-02</PA0>
*
*       <PA1>4.850502e-04</PA1>
*
*       <PA2>-3.090426e-12</PA2>
*
*       <PTCA0>5.254757e+05</PTCA0>
*
*       <PTCA1>1.050255e+01</PTCA1>
*
*       <PTCA2>-2.922435e-01</PTCA2>
*
*       <PTCB0>2.516687e+01</PTCB0>
*
*       <PTCB1>3.750000e-04</PTCB1>
*
*       <PTCB2>0.000000e+00</PTCB2>
*
*       <PTEMPA0>-5.470820e+01</PTEMPA0>
*
*       <PTEMPA1>5.485421e+01</PTEMPA1>
*
*       <PTEMPA2>-3.446578e-01</PTEMPA2>
*
*       <POFFSET>8.500000e-01</POFFSET>
*
*       <PRANGE>1.600000e+02</PRANGE>
*
*    </Calibration>
*
*    <Calibration format='VOLT0' id='Volt 0'>
*
*       <OFFSET>-4.920000e-02</OFFSET>
*
*       <SLOPE>1.248122e+00</SLOPE>
*
*    </Calibration>
*
*    <Calibration format='VOLT0' id='Volt 1'>
*
*       <OFFSET>-4.784000e-02</OFFSET>
*
*       <SLOPE>1.248871e+00</SLOPE>
*
*    </Calibration>
*
*    <Calibration format='VOLT0' id='Volt 2'>
*
*       <OFFSET>-4.864632e-02</OFFSET>
*
*       <SLOPE>1.248714e+00</SLOPE>
*
*    </Calibration>
*
*    <Calibration format='VOLT0' id='Volt 3'>
*
*       <OFFSET>-4.743790e-02</OFFSET>
*
*       <SLOPE>1.248571e+00</SLOPE>
*
*    </Calibration>
*
*    <Calibration format='VOLT0' id='Volt 4'>
*
*       <OFFSET>-4.671263e-02</OFFSET>
*
*       <SLOPE>1.248951e+00</SLOPE>
*
*    </Calibration>
*
*    <Calibration format='VOLT0' id='Volt 5'>
*
*       <OFFSET>-4.871053e-02</OFFSET>
*
*       <SLOPE>1.249136e+00</SLOPE>
*
*    </Calibration>
*
*    <Calibration format='FREQ0' id='external frequency channel'>
*
*       <EXTFREQSF>1.000014e+00</EXTFREQSF>
*
*    </Calibration>
*
* </CalibrationCoefficients>
* <EventCounters DeviceType='SBE19plus' SerialNumber='01907809'>
*
*    <EventSummary numEvents='0'/>
*
* </EventCounters></InstrumentState>
* <Headers>
*
* cast   2 04 Aug 2025 12:05:39 samples 2243 to 3227, avg = 1, stop = mag switch
*
# nquan = 15
# nvalues = 985                         
# units = specified
# name 0 = depFM: Depth [fresh water, m]
# name 1 = dz/dtM: Descent Rate [m/s]
# name 2 = sbeox0Mg/L: Oxygen, SBE 43 [mg/l]
# name 3 = sbeox0PS: Oxygen, SBE 43 [% saturation]
# name 4 = specc: Specific Conductance [uS/cm]
# name 5 = c0uS/cm: Conductivity [uS/cm]
# name 6 = flECO-AFL: Fluorescence, WET Labs ECO-AFL/FL [mg/m^3]
# name 7 = ph: pH
# name 8 = orp: Oxidation Reduction Potential [mV]
# name 9 = par/sat/log: PAR/Logarithmic, Satlantic
# name 10 = turbWETntu0: Turbidity, WET Labs ECO [NTU]
# name 11 = prdM: Pressure, Strain Gauge [db]
# name 12 = prdE: Pressure, Strain Gauge [psi]
# name 13 = tv290C: Temperature [ITS-90, deg C]
# name 14 = flag:  0.000e+00
# span 0 =     -0.596,      2.182       
# span 1 =     -0.565,      0.159       
# span 2 =     4.7479,     8.6467       
# span 3 =     57.255,    103.314       
# span 4 =     -9.491,     38.160       
# span 5 =  -9.313984,  36.707877       
# span 6 =    -0.0385,   233.8003       
# span 7 =     -2.106,      8.860       
# span 8 = -1240.7455,   369.7260       
# span 9 = 7.2783e+01, 2.0286e+03       
# span 10 =    -1.2841,   134.9693      
# span 11 =     -0.585,      2.140      
# span 12 =     -0.848,      3.104      
# span 13 =    23.0163,    24.9726      
# span 14 = 0.0000e+00, 0.0000e+00      
# interval = seconds: 0.25
# start_time = Aug 04 2025 12:05:39 [Instrument's time stamp, header]
# bad_flag = -9.990e-29
# <Sensors count="9" >
#   <sensor Channel="1" >
#     <!-- Count, Temperature -->
#     <TemperatureSensor SensorID="58" >
#       <SerialNumber>7809</SerialNumber>
#       <CalibrationDate>31-Jan-23</CalibrationDate>
#       <A0>1.21823180e-003</A0>
#       <A1>2.81508993e-004</A1>
#       <A2>-1.57888696e-006</A2>
#       <A3>1.97234302e-007</A3>
#       <Slope>1.00000000</Slope>
#       <Offset>0.0000</Offset>
#     </TemperatureSensor>
#   </sensor>
#   <sensor Channel="2" >
#     <!-- Frequency 0, Conductivity -->
#     <ConductivitySensor SensorID="3" >
#       <SerialNumber>7809</SerialNumber>
#       <CalibrationDate>31-Jan-23</CalibrationDate>
#       <UseG_J>1</UseG_J>
#       <!-- Cell const and series R are applicable only for wide range sensors. -->
#       <SeriesR>0.0000</SeriesR>
#       <CellConst>2000.0000</CellConst>
#       <ConductivityType>0</ConductivityType>
#       <Coefficients equation="0" >
#         <A>0.00000000e+000</A>
#         <B>0.00000000e+000</B>
#         <C>0.00000000e+000</C>
#         <D>0.00000000e+000</D>
#         <M>0.0</M>
#         <CPcor>-9.57000000e-008</CPcor>
#       </Coefficients>
#       <Coefficients equation="1" >
#         <G>-1.00565232e+000</G>
#         <H>1.26796307e-001</H>
#         <I>-1.56170788e-004</I>
#         <J>2.64594368e-005</J>
#         <CPcor>-9.57000000e-008</CPcor>
#         <CTcor>3.2500e-006</CTcor>
#         <!-- WBOTC not applicable unless ConductivityType = 1. -->
#         <WBOTC>0.00000000e+000</WBOTC>
#       </Coefficients>
#       <Slope>1.00000000</Slope>
#       <Offset>0.00000</Offset>
#     </ConductivitySensor>
#   </sensor>
#   <sensor Channel="3" >
#     <!-- Count, Pressure, Strain Gauge -->
#     <PressureSensor SensorID="46" >
#       <SerialNumber>7809</SerialNumber>
#       <CalibrationDate>20-Jan-23</CalibrationDate>
#       <PA0>4.41643944e-002</PA0>
#       <PA1>4.85050239e-004</PA1>
#       <PA2>-3.09042623e-012</PA2>
#       <PTEMPA0>-5.47081996e+001</PTEMPA0>
#       <PTEMPA1>5.48542136e+001</PTEMPA1>
#       <PTEMPA2>-3.44657813e-001</PTEMPA2>
#       <PTCA0>5.25475731e+005</PTCA0>
#       <PTCA1>1.05025484e+001</PTCA1>
#       <PTCA2>-2.92243463e-001</PTCA2>
#       <PTCB0>2.51668750e+001</PTCB0>
#       <PTCB1>3.75000000e-004</PTCB1>
#       <PTCB2>0.00000000e+000</PTCB2>
#       <Offset>0.000000</Offset>
#     </PressureSensor>
#   </sensor>
#   <sensor Channel="4" >
#     <!-- A/D voltage 0, Oxygen, SBE 43 -->
#     <OxygenSensor SensorID="38" >
#       <SerialNumber>0434</SerialNumber>
#       <CalibrationDate>18-Feb-23</CalibrationDate>
#       <Use2007Equation>1</Use2007Equation>
#       <CalibrationCoefficients equation="0" >
#         <!-- Coefficients for Owens-Millard equation. -->
#         <Boc>0.0000</Boc>
#         <Soc>0.0000e+000</Soc>
#         <offset>0.0000</offset>
#         <Pcor>0.00e+000</Pcor>
#         <Tcor>0.0000</Tcor>
#         <Tau>0.0</Tau>
#       </CalibrationCoefficients>
#       <CalibrationCoefficients equation="1" >
#         <!-- Coefficients for Sea-Bird equation - SBE calibration in 2007 and later. -->
#         <Soc>5.1878e-001</Soc>
#         <offset>-0.5046</offset>
#         <A>-4.2788e-003</A>
#         <B> 1.5372e-004</B>
#         <C>-2.1853e-006</C>
#         <D0> 2.5826e+000</D0>
#         <D1> 1.92634e-004</D1>
#         <D2>-4.64803e-002</D2>
#         <E> 3.6000e-002</E>
#         <Tau20> 0.9900</Tau20>
#         <H1>-3.3000e-002</H1>
#         <H2> 5.0000e+003</H2>
#         <H3> 1.4500e+003</H3>
#       </CalibrationCoefficients>
#     </OxygenSensor>
#   </sensor>
#   <sensor Channel="5" >
#     <!-- A/D voltage 1, PAR/Logarithmic, Satlantic -->
#     <PARLog_SatlanticSensor SensorID="76" >
#       <SerialNumber>1122</SerialNumber>
#       <CalibrationDate>08-Sep-2021</CalibrationDate>
#       <a0>9.6751e-001</a0>
#       <a1>8.0992e-001</a1>
#       <Im>1.3589e+000</Im>
#       <Multiplier>1.0000e+000</Multiplier>
#     </PARLog_SatlanticSensor>
#   </sensor>
#   <sensor Channel="6" >
#     <!-- A/D voltage 2, pH -->
#     <pH_Sensor SensorID="43" >
#       <SerialNumber>0363</SerialNumber>
#       <CalibrationDate>28-Feb-23</CalibrationDate>
#       <Slope>4.7364</Slope>
#       <Offset>2.5433</Offset>
#     </pH_Sensor>
#   </sensor>
#   <sensor Channel="7" >
#     <!-- A/D voltage 3, Oxidation Reduction Potential -->
#     <OxidationReductionPotentialSensor SensorID="41" >
#       <SerialNumber>0363</SerialNumber>
#       <CalibrationDate>28-Feb-23</CalibrationDate>
#       <B>2.499480</B>
#       <M>-0.496195</M>
#       <Offset>0.0</Offset>
#     </OxidationReductionPotentialSensor>
#   </sensor>
#   <sensor Channel="8" >
#     <!-- A/D voltage 4, Fluorometer, WET Labs ECO-AFL/FL -->
#     <FluoroWetlabECO_AFL_FL_Sensor SensorID="20" >
#       <SerialNumber>FLNTURT-2496</SerialNumber>
#       <CalibrationDate>02-Sep-2021</CalibrationDate>
#       <ScaleFactor>4.80000000e+001</ScaleFactor>
#       <!-- Dark output -->
#       <Vblank>0.0550</Vblank>
#     </FluoroWetlabECO_AFL_FL_Sensor>
#   </sensor>
#   <sensor Channel="9" >
#     <!-- A/D voltage 5, Turbidity Meter, WET Labs, ECO-NTU -->
#     <TurbidityMeter SensorID="67" >
#       <SerialNumber>FLNTURT--2496</SerialNumber>
#       <CalibrationDate>02-Sep-2021</CalibrationDate>
#       <ScaleFactor>197.000000</ScaleFactor>
#       <!-- Dark output -->
#       <DarkVoltage>0.070000</DarkVoltage>
#     </TurbidityMeter>
#   </sensor>
# </Sensors>
# datcnv_date = Aug 11 2025 17:43:18, 7.26.7.129 [datcnv_vars = 14]
# datcnv_in = C:\R\Reservoirs\Data\DataNotYetUploadedToEDI\Raw_CTD\RawDownloads\080425_fcr10_S7809002.hex C:\R\Reservoirs\Data\DataNotYetUploadedToEDI\Raw_CTD\RawDownloads\SBE19plusV2_7809_start20230701.xmlcon
# datcnv_skipover = 0
# datcnv_ox_hysteresis_correction = yes
# datcnv_ox_tau_correction = yes
# filter_date = Aug 11 2025 17:43:44, 7.26.7.129
# filter_in = C:\R\Reservoirs\Data\DataNotYetUploadedToEDI\Raw_CTD\RawDownloads\080425_fcr10_S7809002.cnv
# filter_low_pass_tc_A = 0.030
# filter_low_pass_tc_B = 0.150
# filter_low_pass_A_vars = sbeox0Mg/L prdM prdE tv290C
# filter_low_pass_B_vars = depFM dz/dtM sbeox0PS specc c0uS/cm flECO-AFL ph orp par/sat/log turbWETntu0
# alignctd_date = Aug 11 2025 17:44:05, 7.26.7.129
# alignctd_in = C:\R\Reservoirs\Data\DataNotYetUploadedToEDI\Raw_CTD\RawDownloads\080425_fcr10_S7809002.cnv
# alignctd_adv = dz/dtM 1.000, sbeox0PS 1.000, specc 1.000, c0uS/cm 1.000, flECO-AFL 1.000, ph 1.000, orp 1.000, turbWETntu0 1.000                                                                                                   
# file_type = ascii
*END*
     -0.594     -0.001     7.7471     92.376      0.563   0.552602    -0.0124     -2.106 -1240.7455 1.8314e+02     7.0998     -0.583     -0.846    24.0487 0.0000e+00
     -0.595     -0.001     7.7529     92.438      0.595   0.583694    -0.0186     -2.106 -1240.7455 1.9660e+02     7.0857     -0.584     -0.847    24.0493 0.0000e+00
     -0.595     -0.001     7.7607     92.487      0.549   0.538355    -0.0142     -2.106 -1240.7455 2.0424e+02     7.0954     -0.584     -0.846    24.0499 0.0000e+00
     -0.595     -0.000     7.7627     92.527      0.521   0.511116    -0.0266     -2.106 -1240.7455 1.9538e+02     7.0460     -0.584     -0.847    24.0500 0.0000e+00
     -0.595 -1.863e-08     7.7679     92.549      0.517   0.507706    -0.0352     -2.106 -1240.7455 1.8848e+02     7.0355     -0.584     -0.847    24.0505 0.0000e+00
     -0.595 -2.049e-07     7.7747     92.556      0.507   0.497116    -0.0185     -2.106 -1240.7455 1.9573e+02     7.1044     -0.584     -0.846    24.0510 0.0000e+00
     -0.595 -2.049e-07     7.7769     92.555      0.520   0.509761     0.0174     -2.106 -1240.7455 2.0229e+02     7.1275     -0.584     -0.847    24.0513 0.0000e+00
     -0.595 -1.863e-08     7.7820     92.550      0.545   0.533914     0.0244     -2.106 -1240.7455 1.9700e+02     7.1440     -0.584     -0.847    24.0519 0.0000e+00
     -0.595 -1.693e-09     7.7827     92.550      0.547   0.535794     0.0079     -2.106 -1240.7455 1.8994e+02     7.3384     -0.584     -0.846    24.0522 0.0000e+00
     -0.595 -1.539e-10     7.7833     92.555      0.543   0.532493     0.0099     -2.106 -1240.7455 1.8309e+02     7.5989     -0.583     -0.846    24.0526 0.0000e+00
     -0.595 -1.399e-11     7.7836     92.583      0.504   0.494002    -0.0022     -2.106 -1240.7455 1.7151e+02     7.6639     -0.584     -0.846    24.0530 0.0000e+00
     -0.595 -1.272e-12     7.7817     92.617      0.459   0.450433    -0.0295     -2.106 -1240.7455 1.6515e+02     7.5772     -0.583     -0.846    24.0534 0.0000e+00
     -0.595 -1.157e-13     7.7835     92.629      0.522   0.512401    -0.0205     -2.106 -1240.7455 1.7725e+02     7.5071     -0.584     -0.847    24.0540 0.0000e+00
     -0.595 -1.052e-14     7.7811     92.640      0.621   0.609868     0.0061     -2.106 -1240.7455 2.0166e+02     7.3976     -0.584     -0.847    24.0542 0.0000e+00
     -0.595 -9.559e-16     7.7853     92.662      0.627   0.615491    -0.0073     -2.106 -1240.7455 2.1967e+02     7.2434     -0.584     -0.847    24.0546 0.0000e+00
     -0.595 -8.546e-17     7.7893     92.674      0.591   0.580396    -0.0245     -2.106 -1240.7455 2.3335e+02     7.1121     -0.584     -0.846    24.0550 0.0000e+00
     -0.595 7.9001e-18     7.7888     92.675      0.576   0.565567    -0.0016     -2.106 -1240.7455 3.2136e+02     7.0047     -0.584     -0.846    24.0553 0.0000e+00
     -0.595 1.7308e-16     7.7890     92.695      0.574   0.562863     0.0194     -2.106 -1240.7455 4.4553e+02     6.9701     -0.584     -0.847    24.0559 0.0000e+00
     -0.595 1.9117e-15     7.7919     92.714      0.559   0.547705     0.0049     -2.106 -1240.7455 4.4069e+02     6.8991     -0.584     -0.847    24.0563 0.0000e+00
     -0.595 2.1030e-14     7.7938     92.716      0.519   0.508974    -0.0271     -2.105 -1240.7455 5.5850e+02     6.7274     -0.584     -0.847    24.0565 0.0000e+00
     -0.595 2.3133e-13     7.7909     92.711      0.484   0.474596    -0.0263     -2.105 -1240.7455 9.2854e+02     6.6024     -0.584     -0.847    24.0570 0.0000e+00
     -0.595 2.5446e-12     7.7946     92.713      0.522   0.512069    -0.0018     -2.105 -1240.7455 1.1324e+03     6.4804     -0.584     -0.847    24.0575 0.0000e+00
     -0.595 2.7990e-11     7.7963     92.718      0.593   0.582030    -0.0067     -2.105 -1240.7455 1.0440e+03     6.3101     -0.584     -0.847    24.0577 0.0000e+00
     -0.596 3.0789e-10     7.7959     92.711      0.571   0.560430    -0.0098     -2.105 -1240.7455 7.5538e+02     6.2863     -0.584     -0.847    24.0581 0.0000e+00
     -0.596 3.3868e-09     7.7953     92.710      0.514   0.504257     0.0191     -2.105 -1240.7455 4.9259e+02     6.4996     -0.584     -0.847    24.0587 0.0000e+00
     -0.596 3.7255e-08     7.7947     92.721      0.546   0.536229     0.0259     -2.105 -1240.7455 5.4859e+02     6.7370     -0.584     -0.846    24.0590 0.0000e+00
     -0.596 4.0981e-07     7.7972     92.724      0.320   0.313617    -0.0102     -2.105 -1240.7455 5.8571e+02     6.7663     -0.584     -0.847    24.0595 0.0000e+00
     -0.596      0.000     7.7944     92.714      0.675   0.662733    -0.0260     -2.105 -1240.7455 3.5091e+02     6.6487     -0.585     -0.848    24.0598 0.0000e+00
     -0.596      0.000     7.7944     92.706      0.845   0.829563    -0.0072     -2.105 -1240.7455 1.8371e+02     5.6907     -0.584     -0.847    24.0601 0.0000e+00
     -0.596      0.001     7.7962     92.710     -0.531  -0.520777    -0.0069     -2.105 -1240.7455 1.6390e+02     3.8594     -0.585     -0.848    24.0605 0.0000e+00
     -0.596      0.001     7.7967     92.718     -3.118  -3.059751    -0.0059     -2.105 -1240.7455 1.5586e+02     2.9185     -0.584     -0.848    24.0611 0.0000e+00
     -0.596      0.001     7.7956     92.724     -8.431  -8.274525     0.0129     -2.105 -1240.7455 1.5694e+02     2.9568     -0.584     -0.847    24.0617 0.0000e+00
     -0.595      0.001     7.7937     92.737     -9.491  -9.313984     0.0203     -2.105 -1240.7455 1.6842e+02     2.5462     -0.583     -0.846    24.0624 0.0000e+00
     -0.594      0.001     7.7952     92.768     -3.417  -3.353283     0.0090     -2.105 -1240.7455 1.7894e+02     1.5751     -0.582     -0.844    24.0633 0.0000e+00
     -0.594      0.001     7.7952     92.796      0.812   0.796926    -0.0152     -2.105 -1240.7455 1.8173e+02     0.9498     -0.582     -0.845    24.0640 0.0000e+00
     -0.594      0.001     7.7962     92.797      1.837   1.803055    -0.0148     -2.105 -1240.7455 1.8287e+02     0.8959     -0.582     -0.845    24.0645 0.0000e+00
     -0.594      0.000     7.7962     92.785      1.427   1.400660    -0.0033     -2.105 -1240.7455 1.8760e+02     1.0605     -0.582     -0.844    24.0649 0.0000e+00
     -0.594 -3.913e-07     7.7991     92.765     -0.853  -0.836834    -0.0170     -2.105 -1240.7455 1.9171e+02     1.2324     -0.582     -0.845    24.0655 0.0000e+00
     -0.594      0.000     7.8033     92.737     -2.821  -2.768119    -0.0140     -2.105 -1240.7455 1.9453e+02     1.3679     -0.583     -0.845    24.0660 0.0000e+00
     -0.594      0.000     7.8019     92.729     -1.201  -1.179119     0.0162     -2.105 -1240.7455 2.0114e+02     1.5040     -0.582     -0.844    24.0662 0.0000e+00
     -0.594     -0.001     7.8006     92.747      0.657   0.645019     0.0153     -2.105 -1240.7455 2.1049e+02     1.4768     -0.583     -0.846    24.0667 0.0000e+00
     -0.594     -0.001     7.7996     92.761      0.101   0.099655    -0.0250     -2.105 -1240.7455 2.1776e+02     1.3463     -0.582     -0.844    24.0672 0.0000e+00
     -0.594     -0.001     7.7956     92.761     -0.369  -0.362517    -0.0310     -2.105 -1240.7455 2.2129e+02     1.3278     -0.582     -0.845    24.0674 0.0000e+00
     -0.595     -0.001     7.7943     92.760     -0.777  -0.762639     0.0019     -2.105 -1240.7455 2.2343e+02     1.2862     -0.584     -0.847    24.0677 0.0000e+00
     -0.595      0.000     7.7975     92.768     -1.149  -1.128142    -0.0019     -2.105 -1240.7455 2.2518e+02     1.1508     -0.584     -0.847    24.0683 0.0000e+00
     -0.595 1.6904e-12     7.7990     92.771     -0.678  -0.665076    -0.0175     -2.105 -1240.7455 2.2767e+02     1.2283     -0.584     -0.847    24.0688 0.0000e+00
     -0.595 1.8594e-11     7.7983     92.769      0.281   0.276131     0.0037     -2.105 -1240.7455 2.3292e+02     1.4714     -0.583     -0.846    24.0692 0.0000e+00
     -0.594 2.0454e-10     7.7977     92.774      0.637   0.624901     0.0135     -2.105 -1240.7455 2.3684e+02     1.4940     -0.583     -0.845    24.0698 0.0000e+00
     -0.594 2.2499e-09     7.7992     92.780      0.457   0.448411    -0.0162     -2.105 -1240.7455 2.3683e+02     1.3640     -0.582     -0.845    24.0702 0.0000e+00
     -0.594 2.4749e-08     7.7997     92.791      0.430   0.422362    -0.0385     -2.105 -1240.7455 2.3692e+02     1.3006     -0.583     -0.846    24.0708 0.0000e+00
     -0.594 2.7224e-07     7.7976     92.800      0.638   0.626657    -0.0146     -2.105 -1240.7455 2.3881e+02     1.3092     -0.583     -0.845    24.0712 0.0000e+00
     -0.595      0.000     7.7990     92.789      1.038   1.018342     0.0221     -2.104 -1240.7451 2.4026e+02     1.2970     -0.583     -0.846    24.0718 0.0000e+00
     -0.595      0.000     7.7993     92.780      1.384   1.357872     0.0316     -2.098 -1240.7415 2.4066e+02     1.2560     -0.583     -0.846    24.0723 0.0000e+00
     -0.595      0.000     7.7997     92.789      1.272   1.248219     0.1749     -2.026 -1240.7012 2.4228e+02     1.7693     -0.583     -0.846    24.0728 0.0000e+00
     -0.595      0.004     7.8021     92.792      0.654   0.642542     0.4810     -1.232 -1240.2578 2.4924e+02     2.8231     -0.583     -0.846    24.0736 0.0000e+00
     -0.595      0.014     7.7995     92.790      0.246   0.241924     0.6445      0.816 -1235.3812 2.8102e+02     3.3055     -0.584     -0.847    24.0738 0.0000e+00
     -0.595      0.027     7.7977     92.806      0.336   0.331450     0.6283      3.174 -1181.7378 5.3393e+02     3.1957     -0.583     -0.846    24.0744 0.0000e+00
     -0.593      0.040     7.8004     92.848      1.868   1.851668     0.6349      4.812  -591.6603 1.0648e+03     3.2372     -0.584     -0.847    24.0747 0.0000e+00
     -0.580      0.052     7.8000     92.903      6.126   6.080244     1.0161      5.761   260.6121 1.1826e+03     4.2178     -0.577     -0.838    24.0753 0.0000e+00
     -0.554      0.063     7.7987     92.943     14.041  13.955068     1.7332      6.318   369.7260 7.1715e+02     5.9649     -0.541     -0.785    24.0761 0.0000e+00
     -0.530      0.076     7.7878     92.959     25.002  24.880331     2.1313      6.659   148.7535 8.0243e+02     6.9067     -0.512     -0.743    24.1601 0.0000e+00
     -0.515      0.094     7.7616     92.963     33.378  33.249526     2.1587      6.877   127.9569 1.1670e+03     7.0312     -0.507     -0.736    24.3651 0.0000e+00
     -0.500      0.112     7.7423     92.984     36.107  36.001511     2.0808      7.035   123.1811 7.8035e+02     7.3322     -0.489     -0.710    24.5429 0.0000e+00
     -0.478      0.129     7.7302     93.065     36.347  36.269100     1.9388      7.165   119.2296 3.6077e+02     7.7114     -0.477     -0.690    24.6490 0.0000e+00
     -0.439      0.145     7.7188     93.219     36.349  36.294599     1.8485      7.274   118.8976 3.2444e+02     7.7566     -0.438     -0.636    24.7342 0.0000e+00
     -0.385      0.156     7.7090     93.429     36.344  36.309849     1.8462      7.367   120.8013 3.1918e+02     7.7415     -0.376     -0.544    24.7987 0.0000e+00
     -0.333      0.159     7.7016     93.717     36.349  36.326618     1.9448      7.443   121.8567 3.1308e+02     8.0079     -0.322     -0.469    24.8513 0.0000e+00
     -0.288      0.155     7.7020     94.066     36.325  36.307023     2.1000      7.492   128.3027 2.9870e+02     8.3133     -0.278     -0.404    24.8898 0.0000e+00
     -0.252      0.151     7.7124     94.413     36.286  36.263280     2.1663      7.522   141.4370 2.7918e+02     8.3593     -0.245     -0.355    24.9209 0.0000e+00
     -0.224      0.148     7.7237     94.780     36.276  36.241877     2.1469      7.544   148.0760 2.5781e+02     8.2220     -0.215     -0.314    24.9502 0.0000e+00
     -0.200      0.144     7.7448     95.213     36.283  36.238572     2.1568      7.565   148.1745 2.2755e+02     8.2247     -0.200     -0.290    24.9664 0.0000e+00
     -0.164      0.139     7.7774     95.684     36.275  36.223295     2.2033      7.591   148.4785 1.8362e+02     8.3573     -0.173     -0.250    24.9726 0.0000e+00
     -0.110      0.131     7.8046     96.108     36.241  36.184056     2.2249      7.619   148.3107 1.4283e+02     8.3913     -0.104     -0.150    24.9666 0.0000e+00
     -0.062      0.118     7.8358     96.399     36.207  36.144831     2.2103      7.646   148.0384 1.1964e+02     8.3282     -0.051     -0.072    24.9467 0.0000e+00
     -0.036      0.100     7.8753     96.546     36.198  36.129730     2.1850      7.672   147.9390 1.0464e+02     8.2432     -0.033     -0.046    24.9308 0.0000e+00
     -0.022      0.078     7.9179     96.605     36.205  36.128359     2.1942      7.697   147.9692 9.5058e+01     8.1829     -0.018     -0.027    24.9226 0.0000e+00
     -0.013      0.057     7.9574     96.609     36.215  36.128236     2.2385      7.722   148.3184 9.4022e+01     8.1114     -0.011     -0.016    24.9154 0.0000e+00
     -0.006      0.042     7.9829     96.578     36.224  36.128227     2.2622      7.744   148.8909 9.3686e+01     8.0288     -0.007     -0.010    24.9091 0.0000e+00
      0.002      0.034     7.9932     96.525     36.231  36.128238     2.2389      7.764   148.7826 8.9029e+01     8.0038      0.000      0.001    24.9009 0.0000e+00
      0.014      0.026     7.9997     96.420     36.237  36.128353     2.2068      7.782   147.1807 8.3768e+01     8.0482      0.014      0.020    24.8878 0.0000e+00
      0.026      0.017     8.0018     96.177     36.243  36.129614     2.2153      7.796   145.7845 8.1313e+01     8.1556      0.029      0.041    24.8737 0.0000e+00
      0.032      0.008     7.9995     95.596     36.259  36.143478     2.2427      7.806   146.3556 8.1056e+01     8.1412      0.035      0.050    24.8621 0.0000e+00
      0.029      0.001     7.9982     94.350     36.284  36.169077     2.2459      7.808   147.6333 8.1291e+01     8.0446      0.030      0.043    24.8521 0.0000e+00
      0.020     -0.005     7.9925     92.224     36.294  36.185331     2.2046      7.798   147.8970 8.1726e+01     8.0123      0.019      0.027    24.8442 0.0000e+00
      0.014     -0.007     7.9781     89.315     36.312  36.213121     2.1513      7.784   147.3069 8.1690e+01     7.9899      0.011      0.017    24.8377 0.0000e+00
      0.013     -0.007     7.9424     85.983     36.339  36.251290     2.1506      7.774   146.8654 8.0881e+01     8.0467      0.013      0.019    24.8326 0.0000e+00
      0.015     -0.003     7.8477     82.870     36.345  36.266138     2.1792      7.776   146.9458 8.2385e+01     8.0496      0.016      0.023    24.8327 0.0000e+00
      0.017      0.002     7.6654     80.806     36.339  36.265765     2.1975      7.787   147.0742 8.6694e+01     7.9916      0.016      0.024    24.8419 0.0000e+00
      0.017      0.006     7.4126     80.301     36.320  36.246791     2.2140      7.804   146.6979 8.8957e+01     8.0629      0.017      0.024    24.8582 0.0000e+00
      0.017      0.009     7.1168     81.170     36.306  36.227076     2.2287      7.823   145.9230 8.8612e+01     8.1946      0.016      0.023    24.8753 0.0000e+00
      0.018      0.014     6.8284     82.721     36.306  36.217736     2.2504      7.843   145.1048 8.9179e+01     8.3196      0.017      0.025    24.8878 0.0000e+00
      0.022      0.018     6.6386     84.178     36.293  36.197286     2.2684      7.862   142.7420 8.9725e+01     8.3104      0.021      0.030    24.8959 0.0000e+00
      0.029      0.022     6.6044     85.021     36.271  36.170162     2.2634      7.879   141.1879 8.8170e+01     8.1858      0.028      0.040    24.8954 0.0000e+00
      0.038      0.026     6.7008     85.088     36.248  36.143575     2.2725      7.896   143.7800 8.4921e+01     8.2143      0.037      0.054    24.8849 0.0000e+00
      0.046      0.026     6.8555     84.400     36.238  36.129623     2.2958      7.912   145.8621 8.1487e+01     8.3467      0.046      0.068    24.8719 0.0000e+00
      0.052      0.023     6.9934     83.017     36.240  36.128365     2.2955      7.927   144.0781 8.0060e+01     8.3519      0.051      0.074    24.8608 0.0000e+00
      0.058      0.016     7.0670     81.130     36.243  36.128354     2.2771      7.937   141.2240 7.9755e+01     8.2094      0.055      0.081    24.8535 0.0000e+00
      0.065      0.007     7.0703     79.070     36.246  36.129487     2.2566      7.943   139.9185 7.9252e+01     8.0246      0.065      0.095    24.8499 0.0000e+00
      0.068     -0.004     7.0146     77.153     36.260  36.142072     2.2637      7.946   139.4783 8.0347e+01     7.9956      0.070      0.100    24.8454 0.0000e+00
      0.064     -0.014     6.8949     75.554     36.273  36.153609     2.2798      7.948   141.2361 8.3371e+01     8.1324      0.064      0.093    24.8386 0.0000e+00
      0.056     -0.023     6.7283     74.299     36.264  36.142074     2.2686      7.948   145.4276 8.7448e+01     8.2089      0.055      0.080    24.8349 0.0000e+00
      0.046     -0.030     6.5476     73.337     36.255  36.129500     2.2444      7.951   147.4810 9.0223e+01     8.1344      0.044      0.065    24.8338 0.0000e+00
      0.037     -0.032     6.3838     72.605     36.258  36.128470     2.2118      7.958   147.4795 9.0143e+01     8.0181      0.034      0.051    24.8317 0.0000e+00
      0.028     -0.031     6.2519     72.088     36.261  36.129615     2.1998      7.968   147.9045 8.9634e+01     8.0324      0.028      0.041    24.8303 0.0000e+00
      0.018     -0.026     6.1490     71.803     36.275  36.143345     2.2234      7.980   148.5764 8.8660e+01     8.1366      0.018      0.026    24.8277 0.0000e+00
      0.011     -0.020     6.0740     71.893     36.297  36.167579     2.2550      7.994   149.2362 8.7291e+01     8.2188      0.009      0.014    24.8209 0.0000e+00
      0.007     -0.012     6.0123     72.513     36.296  36.168827     2.2656      8.007   149.6875 8.7881e+01     8.2411      0.007      0.010    24.8151 0.0000e+00
      0.005     -0.006     5.9713     73.491     36.284  36.158444     2.2524      8.019   149.5584 8.9367e+01     8.2354      0.003      0.005    24.8124 0.0000e+00
      0.005     -0.001     5.9437     74.431     36.293  36.168941     2.2623      8.029   149.0517 8.9035e+01     8.3203      0.004      0.006    24.8127 0.0000e+00
      0.008     -0.000     5.9410     75.049     36.292  36.168845     2.2771      8.038   148.8961 8.6668e+01     8.3454      0.008      0.012    24.8158 0.0000e+00
      0.012     -0.001     5.9991     75.304     36.280  36.157286     2.2721      8.047   149.4833 8.5401e+01     8.2310      0.013      0.019    24.8191 0.0000e+00
      0.012     -0.002     6.0945     75.351     36.279  36.156080     2.2689      8.057   150.4729 8.6626e+01     8.1678      0.014      0.020    24.8217 0.0000e+00
      0.008     -0.004     6.1805     75.412     36.278  36.154268     2.2554      8.066   151.2250 8.7833e+01     8.2298      0.009      0.013    24.8237 0.0000e+00
      0.003     -0.006     6.2323     75.563     36.262  36.135373     2.2501      8.076   151.4355 8.8062e+01     8.3660      0.002      0.003    24.8251 0.0000e+00
      0.001     -0.006     6.2488     75.799     36.247  36.117963     2.2391      8.086   151.5557 8.8658e+01     8.3798     -0.001     -0.001    24.8254 0.0000e+00
      0.002     -0.004     6.2434     76.180     36.265  36.134113     2.2056      8.095   151.9898 8.9386e+01     8.2264      0.002      0.002    24.8249 0.0000e+00
      0.002     -0.001     6.2473     76.685     36.271  36.140301     2.2104      8.105   152.6403 8.9405e+01     8.1167      0.003      0.004    24.8232 0.0000e+00
      0.001      0.001     6.2634     77.135     36.260  36.129328     2.2722      8.115   153.1401 8.9355e+01     8.1798     -0.000      0.002    24.8196 0.0000e+00
      0.001      0.002     6.2786     77.300     36.260  36.128330     2.3370      8.124   153.3003 8.8960e+01     8.3070      0.000      0.000    24.8155 0.0000e+00
      0.003      0.002     6.3105     77.049     36.261  36.128230     2.3453      8.132   153.5451 8.7848e+01     8.2879      0.004      0.004    24.8144 0.0000e+00
      0.005      0.002     6.3590     76.513     36.263  36.128116     2.3139      8.139   154.0351 8.7488e+01     8.1880      0.006      0.008    24.8144 0.0000e+00
      0.006      0.002     6.4033     75.983     36.264  36.126956     2.3152      8.146   154.4065 8.7820e+01     8.2269      0.006      0.009    24.8137 0.0000e+00
      0.005      0.001     6.4234     75.672     36.253  36.114201     2.3436      8.153   154.5938 8.7708e+01     8.3480      0.005      0.008    24.8127 0.0000e+00
      0.004      0.000     6.3975     75.639     36.241  36.100793     2.3577      8.161   154.9235 8.7577e+01     8.3880      0.004      0.006    24.8109 0.0000e+00
      0.004      0.000     6.3427     75.840     36.235  36.091734     2.3445      8.169   155.5533 8.7561e+01     8.3348      0.004      0.005    24.8081 0.0000e+00
      0.004      0.001     6.2933     76.230     36.214  36.068121     2.3086      8.176   156.1865 8.7482e+01     8.2506      0.003      0.005    24.8051 0.0000e+00
      0.005      0.002     6.2657     76.755     36.218  36.069086     2.3075      8.182   156.4702 8.7615e+01     8.2583      0.004      0.006    24.8031 0.0000e+00
      0.006      0.002     6.2664     77.350     36.253  36.103394     2.3467      8.189   156.5751 8.7823e+01     8.3607      0.007      0.009    24.8007 0.0000e+00
      0.008      0.002     6.2835     77.914     36.252  36.102244     2.3668      8.196   156.7659 8.7697e+01     8.4297      0.008      0.011    24.7965 0.0000e+00
      0.008      0.001     6.3188     78.307     36.205  36.055179     2.3511      8.201   156.9708 8.7394e+01     8.3745      0.007      0.011    24.7920 0.0000e+00
      0.008      0.001     6.3642     78.475     36.192  36.041929     2.3231      8.206   157.2460 8.7447e+01     8.2745      0.008      0.012    24.7892 0.0000e+00
      0.007      0.000     6.4154     78.403     36.221  36.068939     2.3192      8.211   157.5970 8.7677e+01     8.3130      0.007      0.011    24.7881 0.0000e+00
      0.006 4.2846e-07     6.4693     78.087     36.217  36.064508     2.3374      8.215   157.7731 8.7454e+01     8.3622      0.006      0.008    24.7879 0.0000e+00
      0.006      0.000     6.5012     77.575     36.205  36.051793     2.3268      8.219   157.7415 8.7080e+01     8.2892      0.006      0.008    24.7875 0.0000e+00
      0.007      0.000     6.5162     76.949     36.195  36.042104     2.2830      8.223   157.7307 8.7250e+01     8.2151      0.007      0.010    24.7863 0.0000e+00
      0.007      0.001     6.5112     76.293     36.164  36.010814     2.2572      8.227   157.8152 8.7441e+01     8.2522      0.007      0.010    24.7854 0.0000e+00
      0.008      0.001     6.4829     75.649     36.144  35.990716     2.2637      8.232   157.8164 8.7103e+01     8.3618      0.008      0.011    24.7840 0.0000e+00
      0.008      0.001     6.4388     75.045     36.144  35.989446     2.2789      8.236   157.7457 8.7124e+01     8.3449      0.008      0.012    24.7826 0.0000e+00
      0.008      0.001     6.3834     74.481     36.151  35.995459     2.2909      8.240   157.9057 8.7608e+01     8.2192      0.007      0.011    24.7820 0.0000e+00
      0.008      0.002     6.3289     73.932     36.156  35.999964     2.3008      8.243   158.3745 8.7654e+01     8.1739      0.007      0.011    24.7814 0.0000e+00
      0.008      0.003     6.2741     73.397     36.138  35.980465     2.3072      8.246   158.3373 8.7444e+01     8.2411      0.007      0.011    24.7808 0.0000e+00
      0.009      0.003     6.2239     72.860     36.108  35.950045     2.3270      8.249   157.2836 8.7183e+01     8.2802      0.008      0.011    24.7802 0.0000e+00
      0.010      0.003     6.1790     72.283     36.109  35.949412     2.3399      8.252   156.2173 8.6815e+01     8.1344      0.009      0.014    24.7795 0.0000e+00
      0.012      0.002     6.1325     71.659     36.134  35.972805     2.3137      8.254   155.8561 8.6595e+01     7.9468      0.011      0.017    24.7783 0.0000e+00
      0.013      0.001     6.0892     71.003     36.141  35.979092     2.2930      8.256   156.0126 8.6674e+01     7.9243      0.014      0.020    24.7765 0.0000e+00
      0.013      0.000     6.0464     70.336     36.125  35.961977     2.2970      8.259   156.4753 8.6987e+01     7.9656      0.014      0.020    24.7751 0.0000e+00
      0.012     -0.002     5.9985     69.681     36.120  35.956208     2.3040      8.262   157.1496 8.7128e+01     8.0364      0.012      0.017    24.7733 0.0000e+00
      0.010     -0.002     5.9466     69.049     36.137  35.972793     2.2952      8.266   157.7983 8.6969e+01     8.0973      0.010      0.015    24.7709 0.0000e+00
      0.010     -0.001     5.8917     68.435     36.137  35.972149     2.2650      8.270   158.0381 8.7035e+01     8.0178      0.009      0.014    24.7690 0.0000e+00
      0.009      0.000     5.8357     67.810     36.114  35.948424     2.2635      8.275   157.7258 8.7272e+01     7.9981      0.009      0.013    24.7681 0.0000e+00
      0.009      0.001     5.7812     67.140     36.106  35.939734     2.2940      8.279   157.2053 8.7131e+01     8.1324      0.008      0.012    24.7675 0.0000e+00
      0.010      0.001     5.7288     66.441     36.097  35.930525     2.3013      8.281   156.9933 8.6709e+01     8.2072      0.009      0.013    24.7666 0.0000e+00
      0.013     -0.001     5.6789     65.758     36.068  35.900526     2.2762      8.282   157.1408 8.6922e+01     8.1169      0.013      0.018    24.7656 0.0000e+00
      0.014     -0.004     5.6286     65.083     36.063  35.894274     2.2485      8.284   157.4409 8.8315e+01     7.9624      0.015      0.022    24.7651 0.0000e+00
      0.014     -0.009     5.5728     64.399     36.088  35.918375     2.2580      8.287   157.5247 8.9911e+01     8.0130      0.014      0.021    24.7643 0.0000e+00
      0.010     -0.012     5.5119     63.722     36.109  35.938126     2.2908      8.289   157.4652 9.1148e+01     8.2845      0.010      0.015    24.7633 0.0000e+00
      0.004     -0.012     5.4567     63.082     36.114  35.942735     2.3034      8.292   157.6686 9.2384e+01     8.4443      0.004      0.006    24.7620 0.0000e+00
     -0.003     -0.010     5.4020     62.524     36.082  35.910652     2.2860      8.294   157.8325 9.3458e+01     8.3741     -0.003     -0.005    24.7603 0.0000e+00
     -0.008     -0.007     5.3436     62.038     36.038  35.867457     2.2642      8.297   157.7264 9.4021e+01     8.2887     -0.010     -0.014    24.7592 0.0000e+00
     -0.008     -0.002     5.2882     61.590     36.036  35.864621     2.2812      8.300   157.6758 9.3760e+01     8.3344     -0.009     -0.014    24.7581 0.0000e+00
     -0.004      0.002     5.2318     61.172     36.048  35.876354     2.2995      8.302   157.7373 9.2949e+01     8.3467     -0.003     -0.005    24.7574 0.0000e+00
     -0.000      0.004     5.1868     60.743     36.055  35.882423     2.2865      8.304   157.7808 9.2595e+01     8.2659      0.001      0.002    24.7573 0.0000e+00
      0.001      0.004     5.1484     60.311     36.047  35.874556     2.2738      8.307   158.0305 9.2751e+01     8.2114      0.002      0.002    24.7569 0.0000e+00
      0.000      0.003     5.1097     59.928     36.017  35.844680     2.2786      8.311   158.5187 9.2828e+01     8.2346     -0.000     -0.000    24.7564 0.0000e+00
      0.000      0.001     5.0779     59.569     36.012  35.838441     2.3026      8.315   158.9521 9.2797e+01     8.3419     -0.001     -0.001    24.7561 0.0000e+00
      0.000      0.001     5.0424     59.199     36.038  35.862571     2.2980      8.318   159.3123 9.2659e+01     8.3472      0.000      0.000    24.7554 0.0000e+00
      0.001      0.002     5.0029     58.845     36.058  35.882634     2.2565      8.322   159.6903 9.2387e+01     8.1957      0.001      0.001    24.7544 0.0000e+00
      0.001      0.003     4.9733     58.525     36.067  35.890675     2.2504      8.327   159.9088 9.2232e+01     8.1165      0.001      0.001    24.7534 0.0000e+00
      0.001      0.006     4.9457     58.230     36.073  35.896348     2.2991      8.331   159.8898 9.2247e+01     8.2093      0.001      0.002    24.7525 0.0000e+00
      0.002      0.011     4.9124     57.961     36.065  35.887763     2.3456      8.335   159.8040 9.2112e+01     8.3614      0.002      0.002    24.7515 0.0000e+00
      0.004      0.017     4.8832     57.710     36.028  35.850328     2.3378      8.337   159.5595 9.1292e+01     8.3838      0.003      0.004    24.7504 0.0000e+00
      0.008      0.022     4.8572     57.470     36.002  35.824420     2.2965      8.339   159.0847 8.9605e+01     8.3091      0.007      0.010    24.7494 0.0000e+00
      0.016      0.024     4.8327     57.299     36.006  35.828306     2.2796      8.340   158.7962 8.7159e+01     8.2774      0.013      0.020    24.7485 0.0000e+00
      0.027      0.021     4.8102     57.255     36.011  35.833867     2.2992      8.343   158.8243 8.3738e+01     8.3081      0.025      0.037    24.7478 0.0000e+00
      0.037      0.013     4.7912     57.344     36.005  35.828205     2.3260      8.345   158.8225 8.1077e+01     8.3738      0.038      0.056    24.7477 0.0000e+00
      0.042      0.003     4.7680     57.529     36.001  35.823299     2.3124      8.346   158.7739 8.1532e+01     8.2861      0.044      0.065    24.7478 0.0000e+00
      0.040     -0.009     4.7524     57.762     36.016  35.837994     2.2681      8.348   158.8392 8.3913e+01     8.1008      0.040      0.058    24.7476 0.0000e+00
      0.032     -0.019     4.7479     58.202     36.061  35.878987     2.2562      8.350   159.0952 8.6810e+01     8.0807      0.032      0.047    24.7479 0.0000e+00
      0.021     -0.023     4.7580     60.129     36.129  35.938239     2.2765      8.352   159.3745 9.0397e+01     8.1462      0.022      0.032    24.7483 0.0000e+00
      0.010     -0.022     4.7723     65.286     36.191  35.983348     2.2974      8.354   159.5485 9.4159e+01     8.1072      0.009      0.013    24.7481 0.0000e+00
      0.002     -0.017     4.7974     73.266     36.207  35.980218     2.2924      8.357   159.6502 9.5997e+01     7.9847     -0.001     -0.001    24.7468 0.0000e+00
     -0.000     -0.011     4.8029     81.915     36.209  35.963827     2.2578      8.359   159.4863 9.4623e+01     7.9624     -0.002     -0.002    24.7442 0.0000e+00
      0.003     -0.006     4.8728     89.641     36.238  35.975481     2.2535      8.357   159.2880 9.2712e+01     8.0770      0.003      0.004    24.7348 0.0000e+00
      0.007     -0.002     5.3265     95.817     36.268  35.994204     2.2820      8.354   159.4031 9.2393e+01     8.1395      0.007      0.011    24.7093 0.0000e+00
      0.007      0.001     6.0817    100.235     36.278  35.999846     2.2780      8.352   159.6736 9.3291e+01     8.0700      0.008      0.011    24.6797 0.0000e+00
      0.003      0.004     6.8433    102.740     36.259  35.980235     2.2379      8.350   159.8915 9.4194e+01     7.9882      0.003      0.004    24.6543 0.0000e+00
      0.001      0.009     7.5054    103.314     36.228  35.947432     2.2044      8.349   160.1443 9.3961e+01     8.0393     -0.001     -0.001    24.6290 0.0000e+00
      0.001      0.015     8.0223    102.332     36.208  35.920475     2.1977      8.350   160.4932 9.2983e+01     8.1069      0.000      0.000    24.6132 0.0000e+00
      0.006      0.021     8.3979    100.592     36.208  35.908088     2.1982      8.352   160.5824 9.1176e+01     8.0534      0.004      0.006    24.6092 0.0000e+00
      0.016      0.024     8.6080     98.880     36.233  35.924541     2.1948      8.353   160.3628 8.8186e+01     8.0418      0.014      0.021    24.6092 0.0000e+00
      0.028      0.024     8.6467     97.517     36.242  35.929051     2.1895      8.356   160.3336 8.4600e+01     8.1026      0.029      0.041    24.6094 0.0000e+00
      0.037      0.020     8.5395     96.477     36.213  35.899162     2.1930      8.360   160.6594 8.1538e+01     8.2090      0.039      0.057    24.5992 0.0000e+00
      0.041      0.015     8.3701     95.672     36.197  35.880405     2.2121      8.363   161.0327 8.0976e+01     8.3379      0.043      0.063    24.5783 0.0000e+00
      0.040      0.007     8.2233     95.068     36.215  35.892595     2.2126      8.366   161.1477 8.2391e+01     8.3285      0.040      0.058    24.5647 0.0000e+00
      0.039     -0.005     8.1132     94.672     36.247  35.919640     2.1896      8.371   161.1889 8.3029e+01     8.1972      0.036      0.053    24.5612 0.0000e+00
      0.041     -0.017     8.0296     94.453     36.280  35.953603     2.1761      8.375   161.3587 8.2859e+01     8.1171      0.040      0.059    24.5620 0.0000e+00
      0.041     -0.027     7.9637     94.331     36.305  35.985996     2.1571      8.378   161.5660 8.3929e+01     8.1452      0.044      0.064    24.5594 0.0000e+00
      0.031     -0.033     7.9141     94.252     36.302  35.994074     2.1273      8.381   161.8022 8.8098e+01     8.1957      0.035      0.050    24.5489 0.0000e+00
      0.014     -0.033     7.8830     94.231     36.283  35.987843     2.0980      8.384   161.9785 9.2923e+01     8.1472      0.015      0.022    24.5396 0.0000e+00
     -0.003     -0.029     7.8676     94.257     36.260  35.974113     2.0699      8.386   161.1164 9.2996e+01     8.0027     -0.006     -0.008    24.5408 0.0000e+00
     -0.013     -0.021     7.8579     94.284     36.239  35.954984     2.0786      8.386   159.1220 9.2561e+01     7.9522     -0.016     -0.024    24.5537 0.0000e+00
     -0.013     -0.007     7.8470     94.316     36.237  35.946906     2.1279      8.384   157.8257 9.5537e+01     8.0481     -0.015     -0.022    24.5705 0.0000e+00
     -0.008      0.008     7.8427     94.348     36.237  35.939880     2.1664      8.382   157.4877 9.5934e+01     8.1381     -0.008     -0.011    24.5891 0.0000e+00
     -0.003      0.020     7.8458     94.365     36.234  35.933480     2.1610      8.383   157.3585 9.4757e+01     8.1173     -0.003     -0.004    24.6047 0.0000e+00
      0.003      0.027     7.8461     94.375     36.234  35.932960     2.1377      8.383   158.5860 9.4191e+01     8.1041      0.001      0.001    24.6058 0.0000e+00
      0.012      0.027     7.8509     94.347     36.234  35.933593     2.1429      8.383   161.1453 9.0740e+01     8.2517      0.011      0.016    24.5950 0.0000e+00
      0.022      0.022     7.8567     94.234     36.239  35.941128     2.1663      8.381   162.6632 8.7726e+01     8.4001      0.023      0.033    24.5827 0.0000e+00
      0.031      0.014     7.8573     94.084     36.257  35.960625     2.1786      8.379   162.9142 8.8005e+01     8.4289      0.031      0.045    24.5770 0.0000e+00
      0.037      0.004     7.8592     93.978     36.274  35.978992     2.1667      8.377   162.9752 8.7900e+01     8.3612      0.039      0.057    24.5769 0.0000e+00
      0.034     -0.005     7.8594     93.885     36.266  35.972856     2.1315      8.377   163.1422 8.7812e+01     8.2303      0.036      0.052    24.5793 0.0000e+00
      0.025     -0.012     7.8478     93.792     36.242  35.949879     2.1109      8.378   163.6436 8.9177e+01     8.1780      0.024      0.034    24.5827 0.0000e+00
      0.017     -0.017     7.8300     93.769     36.249  35.954976     2.1165      8.382   164.2195 9.0899e+01     8.2070      0.016      0.024    24.5849 0.0000e+00
      0.012     -0.017     7.8239     93.821     36.269  35.971029     2.1247      8.387   164.2537 9.1832e+01     8.2058      0.011      0.017    24.5886 0.0000e+00
      0.009     -0.013     7.8171     93.897     36.255  35.953622     2.1267      8.392   163.7131 9.1711e+01     8.0941      0.009      0.012    24.5913 0.0000e+00
      0.008     -0.008     7.8045     93.984     36.240  35.934854     2.1403      8.397   163.2756 9.2224e+01     7.9842      0.008      0.012    24.5917 0.0000e+00
      0.007     -0.004     7.8037     94.104     36.242  35.934458     2.1727      8.401   163.1802 9.2667e+01     8.0730      0.006      0.009    24.5905 0.0000e+00
      0.007     -0.001     7.8111     94.252     36.255  35.948831     2.1692      8.405   163.2481 9.1996e+01     8.1435      0.006      0.009    24.5844 0.0000e+00
      0.007     -0.000     7.8188     94.399     36.282  35.981737     2.1228      8.407   163.5804 9.1228e+01     8.0840      0.007      0.010    24.5770 0.0000e+00
      0.008 -2.241e-08     7.8255     94.494     36.303  36.015085     2.1027      8.407   164.1866 9.0789e+01     8.1051      0.007      0.010    24.5713 0.0000e+00
      0.009 -2.466e-07     7.8363     94.500     36.309  36.034810     2.1260      8.408   164.7268 9.0832e+01     8.1941      0.008      0.012    24.5685 0.0000e+00
      0.009 -2.126e-07     7.8494     94.469     36.295  36.029894     2.1627      8.410   165.0356 9.1260e+01     8.3062      0.009      0.013    24.5692 0.0000e+00
      0.008 3.8823e-07     7.8617     94.444     36.278  36.019105     2.1732      8.413   165.2523 9.1258e+01     8.2997      0.008      0.011    24.5761 0.0000e+00
      0.007      0.000     7.8696     94.394     36.288  36.031266     2.1442      8.418   165.4548 9.1013e+01     8.1488      0.006      0.009    24.5967 0.0000e+00
      0.007      0.000     7.8635     94.315     36.307  36.050044     2.1192      8.423   165.5907 9.1014e+01     8.0532      0.006      0.009    24.6196 0.0000e+00
      0.008      0.001     7.8573     94.225     36.316  36.055803     2.1380      8.428   165.6054 9.1188e+01     8.0315      0.008      0.011    24.6316 0.0000e+00
      0.008      0.001     7.8567     94.147     36.301  36.037444     2.1791      8.432   165.5467 9.1669e+01     8.0238      0.009      0.013    24.6382 0.0000e+00
      0.008      0.001     7.8514     94.112     36.285  36.018409     2.1842      8.435   164.9668 9.2008e+01     7.9602      0.008      0.012    24.6420 0.0000e+00
      0.008      0.003     7.8444     94.109     36.284  36.015989     2.1502      8.438   164.0998 9.2072e+01     7.9794      0.008      0.012    24.6414 0.0000e+00
      0.009      0.008     7.8373     94.076     36.277  36.008188     2.1248      8.439   163.7544 9.2167e+01     8.0511      0.009      0.013    24.6369 0.0000e+00
      0.009      0.017     7.8303     94.006     36.259  35.987534     2.1269      8.435   163.2858 9.2024e+01     8.1099      0.009      0.013    24.6302 0.0000e+00
      0.010      0.025     7.8280     93.951     36.236  35.956608     2.1340      8.432   162.5643 9.2198e+01     8.2455      0.008      0.011    24.6254 0.0000e+00
      0.018      0.031     7.8309     93.905     36.242  35.951494     2.1106      8.430   162.1717 9.0498e+01     8.2568      0.012      0.018    24.6238 0.0000e+00
      0.034      0.033     7.8289     93.820     36.288  35.989137     2.0693      8.428   161.6363 8.5661e+01     8.2116      0.032      0.048    24.6248 0.0000e+00
      0.050      0.028     7.8198     93.728     36.329  36.031042     2.0670      8.426   161.4252 8.2524e+01     8.2796      0.052      0.076    24.6238 0.0000e+00
      0.059      0.016     7.8172     93.698     36.367  36.077464     2.1002      8.422   162.2011 8.2259e+01     8.2938      0.059      0.085    24.6107 0.0000e+00
      0.062     -0.003     7.8200     93.761     36.385  36.106293     2.1206      8.415   162.5851 8.1987e+01     8.1444      0.061      0.088    24.5905 0.0000e+00
      0.061     -0.019     7.8127     93.897     36.326  36.062373     2.1133      8.402   162.7984 8.2117e+01     8.0100      0.065      0.094    24.5756 0.0000e+00
      0.050     -0.029     7.8022     94.034     36.239  35.990604     2.0874      8.391   163.7478 8.9128e+01     8.0351      0.057      0.081    24.5803 0.0000e+00
      0.027     -0.032     7.7968     94.124     36.181  35.936508     2.0986      8.384   164.3416 9.8290e+01     8.1065      0.024      0.034    24.5967 0.0000e+00
      0.011     -0.029     7.7998     94.163     36.171  35.915905     2.1580      8.383   164.3851 9.8715e+01     8.1562      0.002      0.004    24.6081 0.0000e+00
      0.009     -0.023     7.8117     94.174     36.207  35.931826     2.1888      8.388   164.5325 9.4972e+01     8.1235      0.008      0.013    24.6304 0.0000e+00
      0.010     -0.014     7.8200     94.157     36.235  35.938624     2.1721      8.393   164.8328 9.1499e+01     7.9840      0.010      0.015    24.6576 0.0000e+00
      0.012     -0.006     7.8268     94.089     36.246  35.934614     2.1561      8.399   165.0905 8.9304e+01     7.9725      0.011      0.015    24.6641 0.0000e+00
      0.013     -0.002     7.8316     93.995     36.266  35.946774     2.1695      8.405   165.3263 8.8817e+01     8.1211      0.014      0.021    24.6459 0.0000e+00
      0.011     -0.002     7.8365     93.919     36.281  35.958746     2.1759      8.411   165.5327 8.9235e+01     8.1408      0.011      0.017    24.6138 0.0000e+00
      0.007     -0.001     7.8421     93.883     36.276  35.952469     2.1507      8.418   165.6062 9.1249e+01     8.0398      0.005      0.008    24.5819 0.0000e+00
      0.005     -0.000     7.8375     93.888     36.261  35.934314     2.1310      8.424   165.6993 9.2906e+01     7.9941      0.004      0.005    24.5609 0.0000e+00
      0.007      0.001     7.8300     93.912     36.259  35.929586     2.1460      8.429   165.8839 9.2449e+01     8.0326      0.007      0.009    24.5522 0.0000e+00
      0.011      0.003     7.8231     93.932     36.288  35.958748     2.1733      8.434   166.1170 9.0744e+01     8.1283      0.010      0.015    24.5501 0.0000e+00
      0.012      0.004     7.8203     93.948     36.295  35.969658     2.1696      8.435   166.3674 8.9341e+01     8.1271      0.012      0.018    24.5482 0.0000e+00
      0.012      0.004     7.8226     93.975     36.255  35.934616     2.1598      8.436   166.6741 8.9251e+01     8.1199      0.013      0.019    24.5426 0.0000e+00
      0.012      0.002     7.8257     94.008     36.233  35.915752     2.1632      8.438   166.9859 9.0445e+01     8.2120      0.011      0.017    24.5373 0.0000e+00
      0.013     -0.001     7.8277     94.038     36.249  35.931931     2.1608      8.441   167.1265 9.1519e+01     8.1827      0.012      0.018    24.5392 0.0000e+00
      0.014     -0.003     7.8263     94.056     36.255  35.939889     2.1725      8.444   167.1699 9.1120e+01     8.1071      0.015      0.021    24.5466 0.0000e+00
      0.014     -0.003     7.8289     94.071     36.260  35.948520     2.1796      8.449   167.2524 9.0243e+01     8.0836      0.015      0.021    24.5536 0.0000e+00
      0.011     -0.003     7.8307     94.108     36.280  35.972850     2.1639      8.454   167.4344 9.0571e+01     8.0687      0.010      0.015    24.5573 0.0000e+00
      0.007     -0.002     7.8339     94.142     36.283  35.980264     2.1484      8.459   167.4779 9.1553e+01     8.0980      0.006      0.009    24.5561 0.0000e+00
      0.006      0.001     7.8355     94.128     36.272  35.974719     2.1514      8.463   167.3486 9.1771e+01     8.1304      0.005      0.007    24.5575 0.0000e+00
      0.008      0.002     7.8337     94.117     36.262  35.969265     2.1743      8.467   167.4193 9.0660e+01     8.1529      0.007      0.010    24.5643 0.0000e+00
      0.011      0.002     7.8371     94.157     36.267  35.977785     2.1758      8.470   167.6443 8.9176e+01     8.0969      0.010      0.016    24.5700 0.0000e+00
      0.015      0.001     7.8419     94.197     36.300  36.014275     2.1536      8.474   167.8324 8.8463e+01     8.0342      0.015      0.022    24.5756 0.0000e+00
      0.016     -0.002     7.8370     94.198     36.310  36.029771     2.1551      8.478   168.0585 8.8776e+01     8.1117      0.017      0.025    24.5849 0.0000e+00
      0.014     -0.003     7.8315     94.205     36.310  36.038261     2.1775      8.482   168.3990 8.9613e+01     8.1797      0.014      0.021    24.5924 0.0000e+00
      0.009     -0.003     7.8384     94.242     36.318  36.053487     2.1741      8.486   168.5935 9.0453e+01     8.1047      0.008      0.012    24.5956 0.0000e+00
      0.005     -0.002     7.8424     94.273     36.284  36.023526     2.1392      8.489   168.4315 9.0843e+01     7.9917      0.004      0.005    24.5992 0.0000e+00
      0.004      0.001     7.8389     94.248     36.254  35.993262     2.1301      8.492   168.3338 9.0144e+01     8.0091      0.003      0.004    24.6077 0.0000e+00
      0.007      0.003     7.8366     94.140     36.268  36.004807     2.1633      8.495   168.5304 8.9055e+01     8.1092      0.007      0.010    24.6200 0.0000e+00
      0.012      0.004     7.8397     94.018     36.300  36.036220     2.1912      8.498   168.6580 8.8102e+01     8.1428      0.012      0.018    24.6316 0.0000e+00
      0.015      0.002     7.8427     93.982     36.315  36.055821     2.1850      8.501   168.7578 8.7200e+01     8.0740      0.015      0.023    24.6384 0.0000e+00
      0.016     -0.001     7.8429     94.049     36.304  36.051464     2.1540      8.504   169.0497 8.7104e+01     7.9620      0.016      0.024    24.6357 0.0000e+00
      0.014     -0.005     7.8323     94.152     36.292  36.047006     2.1417      8.507   169.2619 8.7923e+01     7.9835      0.013      0.019    24.6288 0.0000e+00
      0.009     -0.007     7.8179     94.233     36.304  36.065373     2.1526      8.511   169.2589 8.8247e+01     8.0947      0.008      0.012    24.6283 0.0000e+00
      0.005     -0.007     7.8137     94.275     36.318  36.083197     2.1281      8.513   169.1850 8.8283e+01     8.0766      0.005      0.007    24.6359 0.0000e+00
      0.002     -0.006     7.8205     94.298     36.306  36.072170     2.0782      8.516   169.2289 8.9081e+01     7.9700      0.001      0.002    24.6469 0.0000e+00
      0.001     -0.003     7.8293     94.364     36.294  36.058945     2.0574      8.520   169.4454 8.9292e+01     7.8993      0.000      0.000    24.6580 0.0000e+00
      0.002      0.000     7.8345     94.461     36.286  36.050204     2.0595      8.522   169.6514 8.8579e+01     7.8700      0.002      0.002    24.6670 0.0000e+00
      0.004      0.002     7.8382     94.527     36.267  36.029926     2.0864      8.524   169.9133 8.8304e+01     7.8890      0.004      0.006    24.6719 0.0000e+00
      0.005      0.002     7.8358     94.562     36.243  36.004116     2.1254      8.527   170.2022 8.8738e+01     7.9240      0.005      0.007    24.6722 0.0000e+00
      0.005      0.001     7.8426     94.586     36.234  35.991936     2.1318      8.530   170.3055 8.9017e+01     7.9519      0.005      0.007    24.6699 0.0000e+00
      0.005      0.000     7.8544     94.607     36.255  36.009551     2.1223      8.532   170.3876 8.8657e+01     7.9873      0.005      0.008    24.6691 0.0000e+00
      0.004      0.000     7.8583     94.624     36.276  36.026743     2.1263      8.535   170.5071 8.8366e+01     8.0786      0.004      0.006    24.6687 0.0000e+00
      0.004      0.001     7.8615     94.632     36.261  36.009443     2.1389      8.537   170.5450 8.8566e+01     8.2022      0.004      0.005    24.6657 0.0000e+00
      0.004      0.002     7.8639     94.627     36.244  35.990731     2.1243      8.540   170.5882 8.8796e+01     8.1831      0.003      0.005    24.6615 0.0000e+00
      0.005      0.002     7.8663     94.599     36.244  35.990836     2.0828      8.542   170.6850 8.8752e+01     8.1555      0.004      0.007    24.6560 0.0000e+00
      0.007      0.002     7.8689     94.540     36.259  36.010711     2.0619      8.544   170.7685 8.8598e+01     8.2101      0.007      0.010    24.6507 0.0000e+00
      0.009      0.002     7.8698     94.483     36.284  36.040698     2.0719      8.545   170.9103 8.8598e+01     8.1945      0.008      0.012    24.6478 0.0000e+00
      0.009      0.001     7.8703     94.444     36.277  36.036178     2.0959      8.548   171.1091 8.8806e+01     8.1033      0.008      0.012    24.6441 0.0000e+00
      0.008     -0.001     7.8690     94.422     36.259  36.019510     2.1014      8.550   171.1926 8.9093e+01     7.9956      0.008      0.011    24.6426 0.0000e+00
      0.007     -0.002     7.8613     94.436     36.269  36.029510     2.0967      8.553   171.2323 8.9341e+01     8.0536      0.007      0.010    24.6515 0.0000e+00
      0.006     -0.002     7.8539     94.437     36.269  36.030197     2.1142      8.556   171.2443 8.9483e+01     8.2917      0.006      0.008    24.6617 0.0000e+00
      0.005     -0.001     7.8521     94.385     36.267  36.027809     2.1297      8.558   171.2520 8.9532e+01     8.4157      0.004      0.006    24.6642 0.0000e+00
      0.005     -0.001     7.8476     94.341     36.302  36.064087     2.1257      8.560   171.4970 8.9580e+01     8.3230      0.005      0.007    24.6640 0.0000e+00
      0.006     -0.001     7.8509     94.312     36.326  36.088127     2.1074      8.563   171.7976 8.9718e+01     8.1272      0.006      0.009    24.6649 0.0000e+00
      0.006     -0.001     7.8544     94.247     36.302  36.064686     2.0996      8.565   171.8758 9.0000e+01     8.0293      0.006      0.009    24.6654 0.0000e+00
      0.005      0.000     7.8451     94.197     36.272  36.034461     2.1233      8.566   171.8403 9.0418e+01     8.1301      0.005      0.007    24.6643 0.0000e+00
      0.004      0.001     7.8417     94.227     36.279  36.039931     2.1360      8.568   171.7981 9.0716e+01     8.2186      0.004      0.005    24.6651 0.0000e+00
      0.004      0.002     7.8427     94.295     36.309  36.067364     2.1116      8.572   171.7087 9.0620e+01     8.1421      0.003      0.005    24.6669 0.0000e+00
      0.005      0.003     7.8346     94.351     36.291  36.048902     2.0790      8.574   171.5340 9.0283e+01     7.9916      0.004      0.006    24.6675 0.0000e+00
      0.007      0.003     7.8269     94.421     36.249  36.007050     2.0825      8.575   171.4067 8.9939e+01     7.9702      0.006      0.009    24.6680 0.0000e+00
      0.009      0.003     7.8324     94.509     36.248  36.005489     2.1213      8.577   171.4610 8.9795e+01     8.0882      0.009      0.014    24.6644 0.0000e+00
      0.010      0.002     7.8414     94.575     36.273  36.030026     2.1238      8.579   171.5875 9.0104e+01     8.0862      0.011      0.016    24.6597 0.0000e+00
      0.010      0.001     7.8435     94.592     36.293  36.049930     2.0788      8.581   171.6464 9.0558e+01     7.9465      0.010      0.014    24.6600 0.0000e+00
      0.009      0.000     7.8492     94.577     36.298  36.055800     2.0518      8.581   171.6566 9.0656e+01     7.9018      0.008      0.012    24.6615 0.0000e+00
      0.008      0.000     7.8583     94.599     36.278  36.037551     2.0715      8.582   171.7101 9.0536e+01     8.0235      0.008      0.011    24.6605 0.0000e+00
      0.008      0.001     7.8649     94.685     36.259  36.019633     2.1094      8.584   171.7771 9.0446e+01     8.1545      0.007      0.010    24.6581 0.0000e+00
      0.009      0.002     7.8664     94.775     36.269  36.029506     2.1099      8.585   171.8652 9.0363e+01     8.1195      0.008      0.011    24.6581 0.0000e+00
      0.010      0.003     7.8615     94.830     36.269  36.030026     2.0942      8.586   172.0014 9.0204e+01     8.0781      0.010      0.014    24.6620 0.0000e+00
      0.011      0.003     7.8614     94.885     36.261  36.025920     2.0951      8.588   172.0466 8.9909e+01     8.1664      0.011      0.016    24.6641 0.0000e+00
      0.012      0.003     7.8721     94.980     36.274  36.043319     2.0952      8.590   172.0681 8.9545e+01     8.1965      0.012      0.017    24.6630 0.0000e+00
      0.013      0.002     7.8813     95.105     36.280  36.050047     2.1120      8.591   172.1750 8.9389e+01     8.1343      0.012      0.018    24.6634 0.0000e+00
      0.013      0.001     7.8833     95.175     36.276  36.043822     2.1317      8.593   172.3064 8.9608e+01     8.0977      0.013      0.019    24.6644 0.0000e+00
      0.013      0.001     7.8864     95.157     36.267  36.031499     2.1501      8.594   172.4520 8.9799e+01     8.1646      0.012      0.018    24.6696 0.0000e+00
      0.013      0.000     7.8918     95.100     36.266  36.027944     2.1606      8.595   172.5599 8.9851e+01     8.2946      0.013      0.018    24.6780 0.0000e+00
      0.013     -0.001     7.9066     94.995     36.304  36.064293     2.1417      8.597   172.5783 8.9885e+01     8.3710      0.013      0.019    24.6794 0.0000e+00
      0.013     -0.002     7.9149     94.882     36.329  36.090287     2.1141      8.599   172.5017 8.9810e+01     8.3366      0.013      0.019    24.6751 0.0000e+00
      0.012     -0.002     7.9094     94.857     36.320  36.088431     2.0837      8.601   172.3224 8.9871e+01     8.2204      0.012      0.018    24.6700 0.0000e+00
      0.011     -0.001     7.9080     94.869     36.330  36.105309     2.0826      8.603   172.1304 9.0137e+01     8.2289      0.010      0.015    24.6649 0.0000e+00
      0.010     -0.001     7.8997     94.877     36.324  36.104019     2.1006      8.604   172.0743 9.0183e+01     8.3035      0.009      0.014    24.6613 0.0000e+00
      0.010     -0.001     7.8827     94.904     36.290  36.072839     2.1007      8.605   172.1602 8.9933e+01     8.3024      0.010      0.015    24.6641 0.0000e+00
      0.011     -0.001     7.8838     94.901     36.264  36.045571     2.0932      8.607   172.2218 8.9827e+01     8.2839      0.011      0.016    24.6747 0.0000e+00
      0.011     -0.001     7.8857     94.879     36.253  36.028114     2.0759      8.607   172.2175 8.9789e+01     8.1825      0.011      0.017    24.6852 0.0000e+00
      0.010     -0.001     7.8805     94.881     36.284  36.052116     2.0832      8.607   172.1943 8.9824e+01     8.1691      0.010      0.014    24.6921 0.0000e+00
      0.009     -0.001     7.8878     94.855     36.316  36.081971     2.1308      8.606   172.1136 9.0116e+01     8.2251      0.008      0.012    24.6950 0.0000e+00
      0.009     -0.000     7.8864     94.813     36.303  36.071831     2.1770      8.606   172.0154 9.0302e+01     8.1755      0.009      0.013    24.6935 0.0000e+00
      0.009      0.000     7.8822     94.845     36.283  36.056417     2.1842      8.606   171.9535 9.0216e+01     8.1161      0.009      0.013    24.6857 0.0000e+00
      0.009      0.001     7.8883     94.890     36.249  36.022515     2.1515      8.605   171.9679 8.9869e+01     8.0196      0.009      0.013    24.6722 0.0000e+00
      0.010      0.001     7.8875     94.853     36.209  35.979166     2.1314      8.604   172.0179 8.9611e+01     8.0681      0.010      0.015    24.6683 0.0000e+00
      0.011      0.001     7.8757     94.761     36.213  35.976440     2.1324      8.604   171.9550 8.9674e+01     8.2583      0.011      0.016    24.6770 0.0000e+00
      0.011      0.001     7.8813     94.661     36.232  35.989545     2.1149      8.606   171.8090 8.9697e+01     8.2695      0.011      0.016    24.6842 0.0000e+00
      0.010      0.002     7.8902     94.599     36.256  36.010706     2.0859      8.606   171.6300 8.9758e+01     8.2032      0.010      0.015    24.6858 0.0000e+00
      0.010      0.004     7.8837     94.602     36.289  36.041938     2.0889      8.605   171.5116 8.9973e+01     8.2083      0.009      0.013    24.6793 0.0000e+00
      0.010      0.004     7.8786     94.651     36.297  36.049919     2.1349      8.603   171.4960 8.9457e+01     8.1949      0.009      0.013    24.6675 0.0000e+00
      0.013      0.003     7.8687     94.694     36.288  36.043755     2.1754      8.602   171.5280 8.8224e+01     8.1099      0.013      0.019    24.6581 0.0000e+00
      0.017      0.002     7.8641     94.737     36.272  36.030868     2.1711      8.601   171.6390 8.7774e+01     7.9994      0.017      0.025    24.6540 0.0000e+00
      0.018     -0.001     7.8644     94.841     36.258  36.021004     2.1578      8.600   171.6335 8.8281e+01     7.9866      0.019      0.027    24.6527 0.0000e+00
      0.017     -0.004     7.8712     94.974     36.282  36.051403     2.1645      8.599   171.5479 8.9136e+01     8.0912      0.017      0.024    24.6524 0.0000e+00
      0.014     -0.005     7.8748     95.073     36.303  36.081178     2.1680      8.599   171.5506 9.0229e+01     8.1721      0.013      0.019    24.6566 0.0000e+00
      0.009     -0.005     7.8726     95.145     36.280  36.063773     2.1672      8.600   171.5808 9.1148e+01     8.1099      0.008      0.013    24.6619 0.0000e+00
      0.006     -0.004     7.8837     95.236     36.246  36.031312     2.1558      8.602   171.6545 9.1421e+01     7.9540      0.005      0.008    24.6658 0.0000e+00
      0.006     -0.001     7.8958     95.331     36.226  36.005942     2.1471      8.603   171.7530 9.1242e+01     7.9619      0.005      0.007    24.6752 0.0000e+00
      0.009      0.001     7.9014     95.375     36.239  36.010822     2.1610      8.606   171.8258 9.1009e+01     8.1367      0.008      0.011    24.6894 0.0000e+00
      0.011      0.002     7.9035     95.375     36.261  36.026856     2.1739      8.609   171.9327 9.0710e+01     8.2223      0.012      0.017    24.6987 0.0000e+00
      0.013      0.001     7.9115     95.364     36.245  36.009446     2.1787      8.611   172.0125 9.0455e+01     8.1433      0.013      0.019    24.6993 0.0000e+00
      0.013      0.000     7.9237     95.334     36.225  35.990665     2.1605      8.613   171.9302 9.0388e+01     8.0007      0.012      0.018    24.6920 0.0000e+00
      0.012      0.000     7.9283     95.297     36.223  35.990135     2.1450      8.615   171.8842 9.0515e+01     8.0010      0.013      0.019    24.6784 0.0000e+00
      0.011      0.001     7.9279     95.298     36.235  36.003042     2.1663      8.617   171.8862 9.0737e+01     8.1128      0.010      0.015    24.6691 0.0000e+00
      0.009      0.002     7.9282     95.312     36.253  36.019817     2.1847      8.617   171.7819 9.0882e+01     8.1576      0.007      0.011    24.6685 0.0000e+00
      0.009      0.004     7.9258     95.312     36.238  36.002607     2.1685      8.617   171.7425 9.0624e+01     8.0989      0.007      0.010    24.6700 0.0000e+00
      0.012      0.006     7.9189     95.334     36.223  35.985309     2.1367      8.618   171.8400 8.9749e+01     7.9837      0.010      0.016    24.6733 0.0000e+00
      0.017      0.006     7.9206     95.325     36.243  36.001008     2.1408      8.620   172.0139 8.8687e+01     7.9938      0.016      0.024    24.6742 0.0000e+00
      0.020      0.005     7.9248     95.258     36.248  36.002066     2.1766      8.620   172.2101 8.8077e+01     8.1193      0.020      0.030    24.6716 0.0000e+00
      0.020      0.003     7.9202     95.178     36.249  35.998105     2.1953      8.621   172.2340 8.7833e+01     8.1682      0.020      0.029    24.6697 0.0000e+00
      0.019      0.000     7.9268     95.087     36.270  36.016558     2.1754      8.623   172.1301 8.7643e+01     8.0735      0.019      0.027    24.6668 0.0000e+00
      0.018     -0.002     7.9282     95.005     36.288  36.034816     2.1359      8.625   172.1587 8.7812e+01     7.9650      0.017      0.026    24.6613 0.0000e+00
      0.016     -0.002     7.9196     94.969     36.278  36.028519     2.1335      8.626   172.3218 8.8240e+01     8.0167      0.015      0.023    24.6547 0.0000e+00
      0.016     -0.002     7.9161     94.983     36.250  36.003877     2.1552      8.627   172.4674 8.8349e+01     8.0841      0.015      0.022    24.6478 0.0000e+00
      0.016     -0.001     7.9081     95.054     36.236  35.990677     2.1483      8.628   172.5424 8.8043e+01     8.0287      0.016      0.023    24.6424 0.0000e+00
      0.017     -0.001     7.8994     95.184     36.242  35.995821     2.1331      8.630   172.6255 8.7927e+01     7.9616      0.017      0.024    24.6440 0.0000e+00
      0.017     -0.001     7.8958     95.322     36.250  36.002620     2.1292      8.630   172.6983 8.8077e+01     7.9218      0.016      0.024    24.6516 0.0000e+00
      0.016     -0.001     7.8961     95.415     36.258  36.009427     2.1423      8.631   172.7346 8.8130e+01     7.9564      0.016      0.023    24.6566 0.0000e+00
      0.016     -0.002     7.9009     95.440     36.265  36.014675     2.1595      8.633   172.8065 8.8216e+01     8.0398      0.015      0.022    24.6565 0.0000e+00
      0.015     -0.002     7.9146     95.399     36.252  36.002617     2.1457      8.635   172.8796 8.8296e+01     8.0415      0.015      0.021    24.6546 0.0000e+00
      0.015     -0.002     7.9278     95.336     36.237  35.990542     2.1418      8.637   172.9302 8.8402e+01     8.0797      0.015      0.021    24.6525 0.0000e+00
      0.014     -0.001     7.9362     95.312     36.241  35.995582     2.1539      8.639   172.9884 8.8619e+01     8.1262      0.014      0.020    24.6507 0.0000e+00
      0.013     -0.000     7.9390     95.338     36.248  36.000102     2.1512      8.641   173.0670 8.8874e+01     8.0906      0.013      0.019    24.6483 0.0000e+00
      0.013 -2.015e-08     7.9341     95.377     36.234  35.981745     2.1506      8.642   173.1060 8.8987e+01     8.0586      0.013      0.018    24.6490 0.0000e+00
      0.014 -2.217e-07     7.9256     95.395     36.219  35.963968     2.1377      8.643   173.0295 8.8798e+01     7.9793      0.013      0.020    24.6551 0.0000e+00
      0.015 -2.032e-07     7.9229     95.380     36.233  35.975504     2.1367      8.644   172.9170 8.8707e+01     7.9520      0.015      0.022    24.6574 0.0000e+00
      0.015 1.3994e-10     7.9276     95.352     36.253  35.994320     2.1725      8.646   172.8643 8.8888e+01     8.0700      0.015      0.021    24.6520 0.0000e+00
      0.014 1.5394e-09     7.9325     95.322     36.261  36.001123     2.1958      8.648   172.9945 8.8848e+01     8.1755      0.014      0.020    24.6456 0.0000e+00
      0.014 1.6933e-08     7.9353     95.262     36.254  35.994304     2.1764      8.649   173.2860 8.8559e+01     8.1352      0.014      0.020    24.6422 0.0000e+00
      0.014 1.8626e-07     7.9333     95.168     36.234  35.975327     2.1458      8.651   173.4632 8.8499e+01     7.9932      0.014      0.021    24.6396 0.0000e+00
      0.014 1.8613e-07     7.9306     95.092     36.221  35.962023     2.1505      8.655   173.5020 8.8570e+01     7.9610      0.014      0.020    24.6363 0.0000e+00
      0.015 1.5382e-08     7.9302     95.070     36.223  35.960351     2.1747      8.657   173.5833 8.8584e+01     8.0540      0.014      0.021    24.6338 0.0000e+00
      0.015 -1.400e-10     7.9254     95.074     36.222  35.955104     2.1813      8.659   173.5862 8.8714e+01     8.1263      0.014      0.021    24.6351 0.0000e+00
      0.014 -1.540e-09     7.9151     95.084     36.232  35.962017     2.1638      8.661   173.4516 8.9049e+01     8.1174      0.014      0.020    24.6390 0.0000e+00
      0.014 -1.694e-08     7.9066     95.112     36.251  35.980478     2.1369      8.663   173.4184 8.9386e+01     8.0835      0.014      0.020    24.6387 0.0000e+00
      0.014 -1.863e-07     7.9079     95.152     36.257  35.987975     2.1401      8.665   173.5282 8.9493e+01     8.1265      0.013      0.018    24.6328 0.0000e+00
      0.014 -1.863e-07     7.9101     95.190     36.259  35.989214     2.1694      8.666   173.6608 8.9383e+01     8.1244      0.013      0.018    24.6246 0.0000e+00
      0.015 -1.696e-08     7.9103     95.176     36.269  35.995455     2.1825      8.667   173.7308 8.9155e+01     8.0914      0.015      0.022    24.6189 0.0000e+00
      0.015 -1.850e-09     7.9137     95.114     36.276  35.999980     2.1660      8.669   173.6869 8.9102e+01     8.1034      0.016      0.023    24.6202 0.0000e+00
      0.015 -3.555e-09     7.9155     95.060     36.260  35.980475     2.1436      8.671   173.6456 8.9230e+01     8.0998      0.015      0.021    24.6242 0.0000e+00
      0.014 -3.758e-08     7.9218     95.015     36.233  35.949962     2.1537      8.671   173.7478 8.9337e+01     8.1499      0.014      0.020    24.6233 0.0000e+00
      0.014 -4.132e-07     7.9217     94.969     36.236  35.948288     2.1793      8.672   173.8906 8.9477e+01     8.1285      0.014      0.020    24.6177 0.0000e+00
      0.015     -0.000     7.9128     94.899     36.251  35.960230     2.1703      8.674   173.9952 8.9650e+01     7.9778      0.014      0.021    24.6137 0.0000e+00
      0.015     -0.000     7.9112     94.771     36.258  35.967453     2.1283      8.675   174.0659 8.9928e+01     7.8992      0.014      0.021    24.6101 0.0000e+00
      0.015     -0.001     7.9079     94.634     36.260  35.972171     2.1040      8.677   174.0569 9.0304e+01     7.9636      0.015      0.021    24.6026 0.0000e+00
      0.014     -0.001     7.9054     94.561     36.240  35.953836     2.1267      8.680   174.0587 9.0687e+01     8.1071      0.014      0.020    24.5945 0.0000e+00
      0.014     -0.002     7.9030     94.558     36.222  35.936118     2.1615      8.681   174.0876 9.0995e+01     8.1311      0.014      0.020    24.5909 0.0000e+00
      0.013     -0.002     7.8898     94.611     36.234  35.948288     2.1744      8.682   174.0623 9.1302e+01     8.0151      0.014      0.020    24.5930 0.0000e+00
      0.012     -0.002     7.8743     94.717     36.259  35.974073     2.2000      8.683   174.0107 9.1733e+01     8.0035      0.012      0.018    24.5974 0.0000e+00
      0.012     -0.002     7.8686     94.857     36.278  35.994089     2.2381      8.685   173.9799 9.1965e+01     8.1275      0.011      0.017    24.6006 0.0000e+00
      0.012     -0.001     7.8691     94.981     36.283  35.999960     2.2517      8.686   174.0339 9.2026e+01     8.1815      0.011      0.016    24.5999 0.0000e+00
      0.012      0.000     7.8734     95.052     36.263  35.981611     2.2407      8.688   174.1476 9.2383e+01     8.0755      0.012      0.017    24.5987 0.0000e+00
      0.012 -3.695e-08     7.8823     95.076     36.242  35.962586     2.2123      8.688   174.2368 9.2770e+01     7.9399      0.011      0.018    24.6005 0.0000e+00
      0.012 -4.064e-07     7.8953     95.058     36.239  35.960280     2.2088      8.689   174.3379 9.2745e+01     7.9418      0.011      0.016    24.6021 0.0000e+00
      0.012     -0.000     7.9073     95.023     36.231  35.953725     2.2310      8.691   174.4234 9.2535e+01     8.0645      0.011      0.017    24.6034 0.0000e+00
      0.013     -0.000     7.9116     95.038     36.222  35.946789     2.2311      8.692   174.4101 9.2572e+01     8.1591      0.013      0.019    24.6063 0.0000e+00
      0.013     -0.001     7.9137     95.153     36.214  35.939867     2.2097      8.693   174.4348 9.2820e+01     8.1293      0.013      0.018    24.6092 0.0000e+00
      0.012     -0.001     7.9112     95.302     36.210  35.933485     2.1897      8.695   174.4641 9.2966e+01     8.0121      0.012      0.017    24.6103 0.0000e+00
      0.011     -0.000     7.9064     95.373     36.215  35.933060     2.1968      8.695   173.8178 9.3297e+01     8.0053      0.011      0.017    24.6113 0.0000e+00
      0.011 8.7960e-07     7.9041     95.333     36.222  35.934724     2.2202      8.696   172.5574 9.3512e+01     8.0469      0.010      0.015    24.6149 0.0000e+00
      0.011      0.000     7.9159     95.187     36.244  35.953597     2.2314      8.697   171.7869 9.3152e+01     8.0030      0.009      0.014    24.6176 0.0000e+00
      0.012      0.000     7.9338     94.969     36.260  35.970901     2.2241      8.698   171.7285 9.2903e+01     7.9874      0.011      0.018    24.6133 0.0000e+00
      0.013      0.001     7.9407     94.777     36.238  35.953606     2.1991      8.700   172.7122 9.3367e+01     7.9600      0.013      0.019    24.6042 0.0000e+00
      0.012      0.003     7.9385     94.665     36.216  35.934837     2.1781      8.701   173.6141 9.4410e+01     7.9111      0.012      0.018    24.5966 0.0000e+00
      0.011      0.005     7.9269     94.627     36.217  35.934318     2.1704      8.702   172.7377 9.5184e+01     7.9088      0.010      0.015    24.5926 0.0000e+00
      0.012      0.006     7.9043     94.648     36.235  35.947320     2.1721      8.703   171.7527 9.5012e+01     7.9323      0.011      0.016    24.5937 0.0000e+00
      0.016      0.008     7.8850     94.667     36.259  35.965135     2.1824      8.704   171.5995 9.4227e+01     7.9556      0.016      0.023    24.6024 0.0000e+00
      0.020      0.011     7.8769     94.696     36.258  35.959368     2.1951      8.704   171.5737 9.3716e+01     7.9854      0.019      0.029    24.6099 0.0000e+00
      0.021      0.014     7.8716     94.756     36.246  35.941030     2.2093      8.704   171.4405 9.3816e+01     8.0537      0.021      0.031    24.6066 0.0000e+00
      0.023      0.015     7.8799     94.777     36.244  35.933750     2.2124      8.704   171.2791 9.3258e+01     8.0637      0.021      0.030    24.5968 0.0000e+00
      0.028      0.015     7.8815     94.754     36.249  35.934792     2.1992      8.704   171.3430 9.1293e+01     7.9705      0.026      0.038    24.5889 0.0000e+00
      0.036      0.014     7.8811     94.705     36.270  35.953618     2.1907      8.703   171.4395 8.9655e+01     7.9165      0.036      0.052    24.5821 0.0000e+00
      0.041      0.012     7.8942     94.645     36.287  35.971021     2.2012      8.701   171.4128 8.9685e+01     8.0259      0.041      0.061    24.5733 0.0000e+00
      0.043      0.009     7.8943     94.600     36.269  35.954861     2.2263      8.699   171.3644 9.0833e+01     8.2684      0.043      0.063    24.5656 0.0000e+00
      0.043      0.005     7.8932     94.582     36.261  35.948582     2.2278      8.697   171.4572 9.1363e+01     8.3546      0.043      0.062    24.5607 0.0000e+00
      0.042     -0.001     7.8896     94.587     36.269  35.958559     2.1958      8.696   171.7611 9.0659e+01     8.2143      0.041      0.060    24.5573 0.0000e+00
      0.042     -0.007     7.8829     94.592     36.256  35.948592     2.1959      8.695   173.4893 9.0079e+01     8.1437      0.040      0.058    24.5572 0.0000e+00
      0.043     -0.012     7.8792     94.621     36.259  35.954983     2.2371      8.693   176.4357 9.1237e+01     8.1841      0.044      0.064    24.5614 0.0000e+00
      0.042     -0.016     7.8759     94.707     36.273  35.972391     2.2611      8.692   177.8737 9.2903e+01     8.1909      0.045      0.066    24.5654 0.0000e+00
      0.033     -0.018     7.8788     94.823     36.265  35.968716     2.2457      8.691   177.7978 9.4043e+01     8.1231      0.033      0.047    24.5664 0.0000e+00
      0.023     -0.018     7.8771     94.918     36.265  35.974011     2.2085      8.691   177.5830 9.5255e+01     8.0483      0.021      0.029    24.5687 0.0000e+00
      0.017     -0.016     7.8771     94.963     36.260  35.972969     2.2025      8.691   177.3425 9.5542e+01     8.0719      0.016      0.024    24.5744 0.0000e+00
      0.015     -0.011     7.8848     94.953     36.240  35.956129     2.2315      8.691   177.1263 9.5902e+01     8.1347      0.014      0.021    24.5800 0.0000e+00
      0.014     -0.005     7.8954     94.888     36.244  35.960749     2.2426      8.690   176.8625 9.6281e+01     8.1592      0.014      0.020    24.5857 0.0000e+00
      0.014      0.001     7.9035     94.820     36.252  35.965373     2.2206      8.689   176.8190 9.5712e+01     8.1281      0.014      0.020    24.5922 0.0000e+00
      0.015      0.004     7.9054     94.766     36.241  35.948590     2.1906      8.689   177.2026 9.4417e+01     8.1001      0.014      0.020    24.5982 0.0000e+00
      0.017      0.005     7.9055     94.692     36.246  35.948166     2.1958      8.689   177.4572 9.2472e+01     8.1629      0.017      0.024    24.6034 0.0000e+00
      0.021      0.005     7.8969     94.639     36.261  35.960232     2.2252      8.689   177.4877 9.1330e+01     8.1363      0.021      0.030    24.6049 0.0000e+00
      0.022      0.004     7.8908     94.649     36.271  35.967578     2.2384      8.689   177.4857 9.1247e+01     8.0505      0.022      0.032    24.5993 0.0000e+00
      0.022      0.002     7.8915     94.701     36.277  35.973536     2.2381      8.691   177.4333 9.1424e+01     8.0482      0.021      0.031    24.5900 0.0000e+00
      0.022     -0.001     7.8831     94.789     36.271  35.968826     2.2388      8.694   177.4563 9.2032e+01     8.0405      0.021      0.031    24.5823 0.0000e+00
      0.022     -0.004     7.8780     94.914     36.271  35.974074     2.2631      8.696   177.5052 9.3065e+01     8.0942      0.022      0.032    24.5779 0.0000e+00
      0.021     -0.006     7.8804     94.997     36.265  35.973544     2.2991      8.700   177.5950 9.3964e+01     8.1163      0.021      0.031    24.5754 0.0000e+00
      0.019     -0.008     7.8860     94.999     36.251  35.962431     2.2834      8.703   177.7677 9.4337e+01     8.0012      0.018      0.027    24.5746 0.0000e+00
      0.016     -0.008     7.8901     94.976     36.256  35.966610     2.2233      8.705   177.8725 9.4761e+01     7.9322      0.016      0.023    24.5771 0.0000e+00
      0.013     -0.008     7.9044     94.980     36.253  35.960623     2.1961      8.706   177.9147 9.6171e+01     7.9990      0.013      0.019    24.5835 0.0000e+00
      0.009     -0.007     7.9115     95.011     36.250  35.953489     2.2124      8.709   177.9344 9.7605e+01     8.1253      0.008      0.013    24.5936 0.0000e+00
      0.008     -0.006     7.9070     94.996     36.246  35.943789     2.2206      8.711   177.9384 9.8038e+01     8.1276      0.007      0.010    24.5991 0.0000e+00
      0.008     -0.004     7.9055     94.940     36.216  35.906779     2.2039      8.713   178.0496 9.8209e+01     7.9931      0.009      0.012    24.5960 0.0000e+00
      0.007     -0.002     7.9042     94.923     36.202  35.886697     2.1845      8.716   178.1607 9.8039e+01     7.8986      0.008      0.011    24.5916 0.0000e+00
      0.007     -0.001     7.9132     94.944     36.212  35.891317     2.1785      8.718   178.1634 9.7353e+01     7.9414      0.006      0.008    24.5856 0.0000e+00
      0.007     -0.001     7.9120     94.942     36.222  35.899184     2.1974      8.719   178.1681 9.7079e+01     8.0671      0.006      0.008    24.5771 0.0000e+00
      0.008     -0.002     7.9048     94.891     36.239  35.918369     2.2129      8.722   178.2180 9.7404e+01     8.0864      0.008      0.010    24.5682 0.0000e+00
      0.008     -0.002     7.9052     94.841     36.248  35.932939     2.1920      8.724   178.2509 9.8015e+01     8.0038      0.007      0.011    24.5580 0.0000e+00
      0.007     -0.001     7.9109     94.836     36.255  35.948455     2.1858      8.726   178.2213 9.8922e+01     8.0243      0.006      0.009    24.5504 0.0000e+00
      0.004     -0.000     7.9122     94.827     36.279  35.979080     2.2215      8.728   178.2047 1.0006e+02     8.1975      0.004      0.006    24.5475 0.0000e+00
      0.003      0.000     7.9058     94.802     36.283  35.985994     2.2483      8.729   178.3074 1.0072e+02     8.3569      0.002      0.003    24.5489 0.0000e+00
      0.004      0.000     7.8975     94.836     36.267  35.968601     2.2352      8.730   178.4302 1.0048e+02     8.3449      0.004      0.005    24.5579 0.0000e+00
      0.007      0.001     7.8982     94.950     36.258  35.959128     2.2042      8.732   178.4842 9.9815e+01     8.2229      0.007      0.010    24.5726 0.0000e+00
      0.008      0.002     7.8971     95.100     36.233  35.934902     2.2063      8.733   178.5308 9.9380e+01     8.2153      0.008      0.011    24.5833 0.0000e+00
      0.007      0.002     7.8899     95.211     36.228  35.929492     2.2523      8.734   178.6497 9.9148e+01     8.3553      0.007      0.010    24.5855 0.0000e+00
      0.006      0.001     7.8938     95.220     36.256  35.957163     2.2955      8.736   178.8887 9.8800e+01     8.4463      0.006      0.008    24.5823 0.0000e+00
      0.006      0.000     7.9042     95.119     36.252  35.952226     2.2957      8.738   179.1840 9.8972e+01     8.3941      0.005      0.009    24.5809 0.0000e+00
      0.007     -0.001     7.9196     94.994     36.234  35.933240     2.2629      8.740   179.4669 9.9587e+01     8.2702      0.007      0.010    24.5819 0.0000e+00
      0.007     -0.001     7.9305     94.915     36.219  35.917950     2.2397      8.742   179.6422 1.0027e+02     8.2122      0.008      0.011    24.5818 0.0000e+00
      0.007     -0.002     7.9328     94.861     36.199  35.894254     2.2231      8.744   179.7551 1.0105e+02     8.1712      0.008      0.011    24.5821 0.0000e+00
      0.006     -0.002     7.9202     94.786     36.210  35.900534     2.2040      8.745   179.8857 1.0167e+02     8.0822      0.006      0.008    24.5815 0.0000e+00
      0.004     -0.002     7.9071     94.662     36.244  35.930424     2.2005      8.746   179.9312 1.0204e+02     8.0241      0.004      0.006    24.5800 0.0000e+00
      0.002     -0.001     7.9030     94.548     36.252  35.938395     2.2137      8.749   179.9597 1.0223e+02     8.0830      0.002      0.004    24.5787 0.0000e+00
      0.002      0.000     7.8992     94.523     36.244  35.933470     2.2388      8.750   180.0586 1.0203e+02     8.2818      0.002      0.003    24.5747 0.0000e+00
      0.003      0.002     7.8970     94.570     36.243  35.934320     2.2376      8.751   180.1805 1.0133e+02     8.3445      0.003      0.004    24.5657 0.0000e+00
      0.005      0.003     7.8851     94.626     36.257  35.948683     2.2072      8.752   180.2285 1.0088e+02     8.1925      0.005      0.007    24.5580 0.0000e+00
      0.007      0.003     7.8718     94.684     36.287  35.980238     2.2051      8.754   180.2092 1.0098e+02     8.1170      0.007      0.010    24.5600 0.0000e+00
      0.007      0.002     7.8701     94.770     36.303  35.998601     2.2451      8.755   180.2917 1.0087e+02     8.2178      0.007      0.010    24.5663 0.0000e+00
      0.008      0.001     7.8764     94.888     36.281  35.980357     2.2921      8.756   180.3657 1.0077e+02     8.3862      0.008      0.012    24.5686 0.0000e+00
      0.008      0.000     7.8810     94.977     36.248  35.950004     2.2981      8.757   180.4151 1.0139e+02     8.4107      0.008      0.012    24.5685 0.0000e+00
      0.007     -0.001     7.8841     94.968     36.243  35.948859     2.2592      8.758   180.5447 1.0217e+02     8.2752      0.007      0.010    24.5703 0.0000e+00
      0.007     -0.001     7.8905     94.925     36.258  35.966522     2.2209      8.758   180.6423 1.0233e+02     8.1489      0.007      0.010    24.5744 0.0000e+00
      0.006     -0.001     7.9011     94.951     36.262  35.973221     2.2097      8.759   180.7346 1.0193e+02     8.1126      0.006      0.009    24.5803 0.0000e+00
      0.006      0.000     7.9118     94.982     36.253  35.966403     2.2246      8.760   180.8002 1.0158e+02     8.1781      0.006      0.009    24.5846 0.0000e+00
      0.006      0.001     7.9083     94.951     36.234  35.947539     2.2266      8.761   180.7476 1.0178e+02     8.1551      0.005      0.008    24.5881 0.0000e+00
      0.006      0.001     7.8971     94.911     36.225  35.935485     2.1998      8.761   180.7001 1.0193e+02     8.0738      0.005      0.008    24.5926 0.0000e+00
      0.007      0.001     7.9038     94.893     36.240  35.947551     2.2001      8.762   180.7429 1.0174e+02     8.1850      0.007      0.010    24.5967 0.0000e+00
      0.009      0.000     7.9094     94.892     36.260  35.966527     2.2299      8.763   180.8348 1.0159e+02     8.3385      0.009      0.013    24.6000 0.0000e+00
      0.009     -0.001     7.9019     94.873     36.268  35.974584     2.2439      8.763   180.9508 1.0175e+02     8.3585      0.010      0.015    24.6009 0.0000e+00
      0.008     -0.003     7.9001     94.817     36.274  35.981509     2.2459      8.764   180.9410 1.0268e+02     8.2905      0.008      0.012    24.5959 0.0000e+00
      0.006     -0.004     7.8990     94.767     36.279  35.986814     2.2531      8.766   180.8024 1.0367e+02     8.1995      0.006      0.008    24.5889 0.0000e+00
      0.004     -0.004     7.9006     94.745     36.268  35.975269     2.2716      8.767   180.7374 1.0410e+02     8.2153      0.004      0.006    24.5878 0.0000e+00
      0.003     -0.003     7.9000     94.727     36.261  35.968820     2.2956      8.767   180.7579 1.0455e+02     8.3447      0.003      0.005    24.5902 0.0000e+00
      0.003      0.000     7.8928     94.748     36.265  35.972285     2.2856      8.768   180.7917 1.0473e+02     8.3631      0.002      0.003    24.5911 0.0000e+00
      0.003      0.002     7.8875     94.850     36.247  35.953724     2.2345      8.769   180.8025 1.0441e+02     8.1988      0.002      0.003    24.5908 0.0000e+00
      0.004      0.002     7.8882     94.963     36.229  35.934747     2.2010      8.769   180.8025 1.0354e+02     8.1345      0.004      0.005    24.5916 0.0000e+00
      0.006      0.002     7.8850     95.014     36.229  35.933187     2.2137      8.769   180.7919 1.0227e+02     8.2690      0.007      0.009    24.5908 0.0000e+00
      0.007      0.001     7.8837     95.029     36.232  35.934861     2.2219      8.769   180.8452 1.0212e+02     8.3212      0.008      0.012    24.5898 0.0000e+00
      0.007      0.000     7.8960     95.054     36.253  35.954982     2.2084      8.770   181.0177 1.0316e+02     8.2197      0.007      0.011    24.5905 0.0000e+00
      0.006     -0.001     7.9089     95.085     36.286  35.986119     2.2000      8.771   181.1567 1.0411e+02     8.1689      0.006      0.009    24.5876 0.0000e+00
      0.006     -0.001     7.9118     95.101     36.294  35.994081     2.1958      8.772   181.2356 1.0484e+02     8.2539      0.005      0.008    24.5848 0.0000e+00
      0.005     -0.001     7.9106     95.096     36.288  35.987803     2.1986      8.773   181.2836 1.0542e+02     8.3931      0.005      0.006    24.5841 0.0000e+00
      0.005     -0.001     7.9145     95.097     36.274  35.973658     2.1844      8.774   181.3066 1.0546e+02     8.4513      0.004      0.005    24.5823 0.0000e+00
      0.006     -0.001     7.9174     95.122     36.249  35.949953     2.1487      8.775   181.3401 1.0493e+02     8.4108      0.005      0.007    24.5806 0.0000e+00
      0.006     -0.001     7.9198     95.150     36.252  35.954983     2.1251      8.776   181.3451 1.0457e+02     8.3813      0.005      0.008    24.5797 0.0000e+00
      0.005     -0.001     7.9180     95.138     36.267  35.971039     2.1153      8.775   181.3666 1.0496e+02     8.4023      0.005      0.007    24.5799 0.0000e+00
      0.003     -0.001     7.9170     95.073     36.249  35.953740     2.1470      8.775   181.4289 1.0582e+02     8.4941      0.003      0.005    24.5806 0.0000e+00
      0.003     -0.001     7.9201     95.006     36.230  35.936162     2.2009      8.776   181.4954 1.0632e+02     8.5691      0.003      0.004    24.5816 0.0000e+00
      0.003     -0.001     7.9231     94.991     36.243  35.948861     2.2089      8.778   181.6547 1.0627e+02     8.4900      0.003      0.004    24.5837 0.0000e+00
      0.003     -0.001     7.9234     95.038     36.273  35.980377     2.1944      8.780   181.8058 1.0614e+02     8.3912      0.003      0.005    24.5864 0.0000e+00
      0.004     -0.002     7.9148     95.075     36.291  35.999974     2.2002      8.781   181.7739 1.0597e+02     8.4002      0.004      0.006    24.5880 0.0000e+00
      0.004     -0.003     7.9077     95.020     36.284  35.995463     2.2287      8.782   181.7004 1.0608e+02     8.4271      0.004      0.006    24.5878 0.0000e+00
      0.003     -0.003     7.9059     94.945     36.275  35.989288     2.2396      8.783   181.6054 1.0689e+02     8.3403      0.003      0.004    24.5883 0.0000e+00
      0.000     -0.002     7.9110     94.904     36.273  35.988768     2.2149      8.783   181.5708 1.0792e+02     8.2043     -0.000      0.000    24.5899 0.0000e+00
     -0.002     -0.001     7.9200     94.883     36.273  35.989174     2.2046      8.784   181.7122 1.0865e+02     8.2181     -0.002     -0.003    24.5933 0.0000e+00
     -0.002      0.000     7.9088     94.919     36.280  35.994204     2.2233      8.785   181.9388 1.0883e+02     8.3364     -0.002     -0.003    24.5981 0.0000e+00
     -0.001      0.002     7.9001     94.975     36.275  35.986129     2.2423      8.786   182.2451 1.0807e+02     8.4049     -0.001     -0.001    24.6005 0.0000e+00
      0.001      0.002     7.9006     95.015     36.245  35.954981     2.2334      8.787   182.4909 1.0720e+02     8.3633      0.002      0.002    24.6032 0.0000e+00
      0.003      0.001     7.8928     95.079     36.223  35.934851     2.2073      8.788   182.5874 1.0751e+02     8.2435      0.004      0.005    24.6053 0.0000e+00
      0.004      0.000     7.9004     95.177     36.220  35.933081     2.2097      8.789   182.5512 1.0821e+02     8.1859      0.004      0.006    24.6003 0.0000e+00
      0.003     -0.001     7.9075     95.259     36.220  35.933591     2.2204      8.789   182.3972 1.0875e+02     8.1110      0.004      0.006    24.5935 0.0000e+00
      0.002     -0.002     7.9081     95.273     36.227  35.941023     2.2199      8.789   182.2747 1.0957e+02     7.9876      0.002      0.003    24.5932 0.0000e+00
      0.000     -0.002     7.9130     95.216     36.247  35.959490     2.2208      8.789   182.1882 1.1011e+02     8.0251     -0.000     -0.000    24.5967 0.0000e+00
     -0.001     -0.001     7.9224     95.131     36.256  35.966522     2.2144      8.789   182.0400 1.1005e+02     8.1886     -0.001     -0.002    24.5994 0.0000e+00
     -0.001      0.000     7.9312     95.079     36.254  35.962588     2.2261      8.790   181.9456 1.0977e+02     8.3256     -0.001     -0.002    24.6003 0.0000e+00
     -0.000      0.002     7.9321     95.049     36.268  35.975382     2.2297      8.791   181.9936 1.0977e+02     8.3149     -0.000      0.000    24.5996 0.0000e+00
      0.001      0.002     7.9269     95.024     36.287  35.994312     2.1994      8.793   182.1032 1.0969e+02     8.1955      0.001      0.002    24.5979 0.0000e+00
      0.003      0.002     7.9167     95.031     36.293  36.001117     2.2097      8.794   182.1526 1.0900e+02     8.1457      0.003      0.004    24.5955 0.0000e+00
      0.003      0.002     7.9143     95.067     36.284  35.994205     2.2796      8.794   182.1604 1.0857e+02     8.2260      0.003      0.004    24.5921 0.0000e+00
      0.003      0.002     7.9138     95.104     36.262  35.974186     2.3366      8.794   182.1975 1.0891e+02     8.3466      0.003      0.004    24.5895 0.0000e+00
      0.003      0.002     7.9093     95.129     36.235  35.949431     2.3406      8.794   182.2578 1.0923e+02     8.3397      0.002      0.003    24.5893 0.0000e+00
      0.004      0.001     7.9102     95.129     36.232  35.948693     2.3278      8.795   182.3727 1.0885e+02     8.2785      0.003      0.004    24.5905 0.0000e+00
      0.005     -0.001     7.9141     95.103     36.248  35.965268     2.3406      8.796   182.4684 1.0813e+02     8.2902      0.005      0.008    24.5933 0.0000e+00
      0.006     -0.003     7.9165     95.074     36.243  35.959491     2.3706      8.797   182.4683 1.0839e+02     8.3098      0.006      0.009    24.5971 0.0000e+00
      0.004     -0.004     7.9188     95.090     36.229  35.942286     2.3986      8.798   182.3713 1.1010e+02     8.3455      0.005      0.007    24.6005 0.0000e+00
      0.001     -0.004     7.9185     95.173     36.237  35.947590     2.3971      8.798   182.2421 1.1191e+02     8.3458      0.001      0.002    24.6032 0.0000e+00
     -0.002     -0.004     7.9152     95.267     36.253  35.960167     2.3688      8.799   182.2826 1.1277e+02     8.2792     -0.003     -0.004    24.6057 0.0000e+00
     -0.003     -0.003     7.9115     95.306     36.263  35.967447     2.3563      8.800   182.3451 1.1297e+02     8.2574     -0.004     -0.005    24.6043 0.0000e+00
     -0.002      0.000     7.9121     95.289     36.270  35.972161     2.3713      8.800   182.2226 1.1264e+02     8.2881     -0.002     -0.003    24.5983 0.0000e+00
     -0.001      0.002     7.9220     95.241     36.254  35.953713     2.3743      8.800   182.1789 1.1210e+02     8.3090     -0.001     -0.001    24.5943 0.0000e+00
     -0.000      0.003     7.9333     95.186     36.237  35.934736     2.3187      8.800   182.3324 1.1202e+02     8.2706     -0.000      0.000    24.5915 0.0000e+00
      0.001      0.003     7.9362     95.145     36.239  35.933054     2.2564      8.802   182.5307 1.1206e+02     8.2337      0.000      0.001    24.5862 0.0000e+00
      0.002      0.002     7.9348     95.104     36.244  35.933366     2.2609      8.803   182.5969 1.1209e+02     8.3067      0.002      0.003    24.5812 0.0000e+00
      0.003      0.000     7.9305     95.021     36.251  35.938501     2.3235      8.804   182.5312 1.1234e+02     8.4357      0.003      0.005    24.5794 0.0000e+00
      0.003 4.8917e-07     7.9252     94.892     36.245  35.931691     2.3887      8.805   182.4237 1.1273e+02     8.4269      0.004      0.005    24.5782 0.0000e+00
      0.002      0.000     7.9228     94.763     36.229  35.914483     2.4009      8.806   182.3299 1.1334e+02     8.2679      0.003      0.003    24.5721 0.0000e+00
      0.000      0.000     7.9226     94.680     36.236  35.920780     2.3704      8.807   182.3439 1.1409e+02     8.1875     -0.000     -0.000    24.5651 0.0000e+00
      0.000      0.001     7.9164     94.655     36.260  35.944390     2.3530      8.807   182.4206 1.1447e+02     8.2065     -0.001     -0.001    24.5623 0.0000e+00
      0.001      0.002     7.9035     94.652     36.260  35.946140     2.3491      8.808   182.4828 1.1398e+02     8.1562      0.001      0.001    24.5618 0.0000e+00
      0.002      0.003     7.8921     94.702     36.255  35.941950     2.3392      8.810   182.4946 1.1290e+02     8.0233      0.002      0.004    24.5606 0.0000e+00
      0.004      0.003     7.8838     94.847     36.268  35.957176     2.3335      8.812   182.5636 1.1218e+02     7.9326      0.004      0.006    24.5589 0.0000e+00
      0.005      0.002     7.8852     95.023     36.248  35.939886     2.3305      8.813   182.8005 1.1208e+02     7.9821      0.005      0.007    24.5590 0.0000e+00
      0.005      0.001     7.8830     95.157     36.230  35.923253     2.3358      8.814   183.0349 1.1250e+02     8.1095      0.005      0.007    24.5593 0.0000e+00
      0.005      0.000     7.8836     95.240     36.251  35.946421     2.3314      8.815   183.0749 1.1343e+02     8.1065      0.005      0.008    24.5618 0.0000e+00
      0.005     -0.001     7.8990     95.300     36.267  35.966208     2.3112      8.816   182.9402 1.1428e+02     7.9453      0.005      0.007    24.5667 0.0000e+00
      0.004     -0.001     7.9150     95.352     36.270  35.972163     2.3079      8.817   182.7822 1.1500e+02     7.8685      0.004      0.005    24.5705 0.0000e+00
      0.003      0.000     7.9265     95.392     36.252  35.954972     2.3246      8.817   182.7137 1.1605e+02     8.0319      0.003      0.005    24.5713 0.0000e+00
      0.002      0.001     7.9314     95.403     36.245  35.948703     2.3551      8.818   182.8011 1.1700e+02     8.3153      0.002      0.003    24.5732 0.0000e+00
      0.002      0.002     7.9353     95.395     36.255  35.959814     2.3519      8.820   182.8925 1.1699e+02     8.3911      0.001      0.002    24.5803 0.0000e+00
      0.004      0.002     7.9386     95.373     36.255  35.962422     2.3024      8.820   182.8720 1.1593e+02     8.2310      0.004      0.005    24.5856 0.0000e+00
      0.007      0.002     7.9433     95.310     36.270  35.980237     2.2804      8.819   182.9833 1.1463e+02     8.1559      0.007      0.010    24.5840 0.0000e+00
      0.008      0.001     7.9441     95.247     36.272  35.984870     2.3105      8.819   183.2061 1.1461e+02     8.2353      0.009      0.013    24.5828 0.0000e+00
      0.007      0.000     7.9412     95.218     36.241  35.954995     2.3508      8.819   183.2416 1.1632e+02     8.3368      0.008      0.012    24.5875 0.0000e+00
      0.006     -0.001     7.9421     95.188     36.221  35.936273     2.3508      8.820   183.1548 1.1821e+02     8.3230      0.005      0.007    24.5920 0.0000e+00
      0.004     -0.001     7.9336     95.140     36.234  35.948858     2.3103      8.820   183.1897 1.1895e+02     8.2056      0.003      0.005    24.5943 0.0000e+00
      0.004     -0.001     7.9261     95.112     36.265  35.980251     2.2694      8.820   183.3191 1.1870e+02     8.0793      0.003      0.005    24.5976 0.0000e+00
      0.005      0.000     7.9260     95.159     36.281  35.998600     2.2642      8.821   183.4284 1.1830e+02     8.0255      0.005      0.007    24.5999 0.0000e+00
      0.007      0.001     7.9234     95.281     36.260  35.980360     2.2893      8.822   183.5645 1.1832e+02     8.1011      0.006      0.009    24.6008 0.0000e+00
      0.007      0.001     7.9189     95.434     36.227  35.950065     2.2816      8.823   183.6748 1.1890e+02     8.1055      0.006      0.009    24.6006 0.0000e+00
      0.007      0.000     7.9134     95.564     36.226  35.949555     2.2543      8.824   183.6431 1.1979e+02     8.1131      0.006      0.009    24.6007 0.0000e+00
      0.006     -0.001     7.9176     95.633     36.250  35.974198     2.2664      8.823   183.6115 1.2057e+02     8.2954      0.005      0.007    24.6039 0.0000e+00
      0.005     -0.001     7.9284     95.623     36.269  35.994224     2.2955      8.823   183.6375 1.2130e+02     8.4311      0.004      0.006    24.6086 0.0000e+00
      0.005     -0.000     7.9420     95.536     36.274  36.001344     2.3061      8.825   183.6131 1.2220e+02     8.4553      0.005      0.007    24.6121 0.0000e+00
      0.004      0.001     7.9546     95.431     36.268  35.996833     2.2698      8.828   183.5743 1.2300e+02     8.3833      0.004      0.006    24.6130 0.0000e+00
      0.004      0.003     7.9599     95.393     36.275  36.003140     2.2147      8.829   183.5983 1.2325e+02     8.3122      0.004      0.005    24.6124 0.0000e+00
      0.005      0.005     7.9600     95.406     36.288  36.014147     2.2146      8.829   183.6455 1.2305e+02     8.3810      0.004      0.005    24.6138 0.0000e+00
      0.006      0.005     7.9501     95.386     36.276  36.003015     2.2265      8.829   183.1134 1.2209e+02     8.3959      0.006      0.007    24.6179 0.0000e+00
      0.009      0.006     7.9370     95.323     36.264  35.995448     2.2175      8.828   182.1548 1.2089e+02     8.3211      0.009      0.013    24.6209 0.0000e+00
      0.012      0.010     7.9346     95.266     36.249  35.986113     2.2300      8.826   180.8307 1.2115e+02     8.3304      0.012      0.019    24.6202 0.0000e+00
      0.013      0.020     7.9405     95.244     36.214  35.953596     2.2528      8.824   179.4067 1.2283e+02     8.4397      0.013      0.020    24.6166 0.0000e+00
      0.012      0.033     7.9389     95.267     36.187  35.919546     2.2772      8.821   179.1350 1.2483e+02     8.5838      0.010      0.015    24.6155 0.0000e+00
      0.015      0.047     7.9301     95.293     36.177  35.891650     2.2995      8.819   178.3190 1.2356e+02     8.6048      0.009      0.013    24.6225 0.0000e+00
      0.031      0.062     7.9236     95.242     36.179  35.870082     2.3066      8.818   176.3376 1.1471e+02     8.4888      0.026      0.038    24.6330 0.0000e+00
      0.059      0.076     7.9199     95.118     36.180  35.849085     2.3041      8.817   175.1391 1.0229e+02     8.4112      0.060      0.087    24.6402 0.0000e+00
      0.086      0.087     7.9238     94.998     36.179  35.828093     2.3196      8.815   174.7559 9.3818e+01     8.4516      0.086      0.125    24.6320 0.0000e+00
      0.107      0.093     7.9346     94.885     36.174  35.806581     2.3697      8.815   174.5429 8.9239e+01     8.6017      0.104      0.152    24.6015 0.0000e+00
      0.128      0.096     7.9356     94.830     36.160  35.779311     2.3940      8.813   174.3706 8.4900e+01     8.7229      0.125      0.182    24.5659 0.0000e+00
      0.152      0.098     7.9247     94.960     36.147  35.752136     2.3711      8.811   174.3936 8.0455e+01     8.7214      0.148      0.216    24.5351 0.0000e+00
      0.178      0.103     7.9209     95.274     36.145  35.731787     2.3601      8.811   174.6494 7.8062e+01     8.6864      0.175      0.255    24.5079 0.0000e+00
      0.203      0.106     7.9145     95.654     36.162  35.723601     2.3936      8.810   174.9682 7.8712e+01     8.7092      0.199      0.288    24.4861 0.0000e+00
      0.232      0.106     7.9052     95.988     36.180  35.716574     2.4520      8.810   175.3223 8.1150e+01     8.7238      0.225      0.327    24.4668 0.0000e+00
      0.264      0.099     7.9199     96.232     36.193  35.710231     2.4669      8.811   175.7474 8.4769e+01     8.6581      0.259      0.377    24.4505 0.0000e+00
      0.295      0.087     7.9536     96.415     36.204  35.710327     2.4321      8.812   176.1504 8.9786e+01     8.6314      0.293      0.425    24.4273 0.0000e+00
      0.320      0.070     7.9951     96.570     36.216  35.717722     2.4140      8.814   176.4084 9.5687e+01     8.6404      0.317      0.461    24.3870 0.0000e+00
      0.335      0.050     8.0301     96.670     36.235  35.736185     2.4473      8.816   176.5446 1.0182e+02     8.6300      0.331      0.480    24.3490 0.0000e+00
      0.341      0.031     8.0523     96.674     36.238  35.743210     2.5024      8.816   176.6788 1.0791e+02     8.5748      0.335      0.488    24.3251 0.0000e+00
      0.342      0.016     8.0687     96.595     36.226  35.739228     2.5146      8.816   176.9133 1.1344e+02     8.4852      0.337      0.489    24.3094 0.0000e+00
      0.340      0.008     8.0835     96.492     36.229  35.751492     2.4866      8.817   177.2273 1.1801e+02     8.5019      0.334      0.484    24.3030 0.0000e+00
      0.338      0.008     8.0943     96.411     36.231  35.764605     2.4715      8.820   177.5511 1.2154e+02     8.5385      0.330      0.478    24.3031 0.0000e+00
      0.339      0.013     8.0926     96.360     36.228  35.770902     2.4816      8.823   177.9034 1.2377e+02     8.4842      0.331      0.480    24.3092 0.0000e+00
      0.343      0.020     8.0823     96.312     36.217  35.764188     2.4928      8.824   178.2172 1.2558e+02     8.3914      0.337      0.488    24.3208 0.0000e+00
      0.350      0.027     8.0697     96.227     36.201  35.746882     2.4735      8.824   178.4200 1.2794e+02     8.2699      0.343      0.495    24.3358 0.0000e+00
      0.360      0.033     8.0608     96.114     36.210  35.752007     2.4470      8.823   178.5490 1.2993e+02     8.2455      0.351      0.509    24.3518 0.0000e+00
      0.372      0.036     8.0549     96.018     36.225  35.762700     2.4556      8.821   178.7433 1.3056e+02     8.3705      0.366      0.531    24.3659 0.0000e+00
      0.382      0.036     8.0521     95.956     36.215  35.749261     2.4529      8.820   179.0491 1.3032e+02     8.3802      0.375      0.544    24.3728 0.0000e+00
      0.391      0.036     8.0450     95.918     36.184  35.716414     2.4306      8.819   179.3205 1.2844e+02     8.2256      0.381      0.552    24.3676 0.0000e+00
      0.401      0.039     8.0343     95.907     36.154  35.682787     2.4281      8.819   179.6162 1.2613e+02     8.1410      0.395      0.574    24.3622 0.0000e+00
      0.408      0.046     8.0272     95.917     36.144  35.659918     2.4393      8.821   179.9572 1.2513e+02     8.2116      0.403      0.584    24.3565 0.0000e+00
      0.413      0.056     8.0233     95.901     36.137  35.630233     2.4658      8.824   180.1742 1.2439e+02     8.3611      0.402      0.582    24.3490 0.0000e+00
      0.425      0.066     8.0209     95.866     36.113  35.577629     2.4743      8.826   180.3457 1.2459e+02     8.3775      0.411      0.596    24.3478 0.0000e+00
      0.448      0.073     8.0185     95.874     36.098  35.531425     2.4584      8.828   180.5688 1.2515e+02     8.3424      0.437      0.635    24.3465 0.0000e+00
      0.478      0.078     8.0251     95.882     36.111  35.515683     2.4650      8.828   180.8069 1.2482e+02     8.4829      0.471      0.682    24.3303 0.0000e+00
      0.503      0.078     8.0290     95.796     36.132  35.514152     2.4961      8.829   181.1602 1.2350e+02     8.6758      0.497      0.720    24.2955 0.0000e+00
      0.523      0.073     8.0278     95.601     36.147  35.512880     2.5266      8.831   181.5707 1.2112e+02     8.8295      0.515      0.746    24.2545 0.0000e+00
      0.538      0.064     8.0378     95.349     36.149  35.500277     2.5256      8.832   181.8978 1.1830e+02     8.8388      0.528      0.766    24.2089 0.0000e+00
      0.550      0.055     8.0492     95.074     36.154  35.488637     2.5181      8.834   182.1046 1.1564e+02     8.6511      0.539      0.783    24.1652 0.0000e+00
      0.563      0.049     8.0464     94.816     36.184  35.499021     2.5348      8.835   182.0923 1.1377e+02     8.4388      0.552      0.801    24.1363 0.0000e+00
      0.575      0.048     8.0301     94.569     36.198  35.498909     2.5532      8.836   182.0070 1.1303e+02     8.3218      0.564      0.817    24.1160 0.0000e+00
      0.586      0.049     8.0117     94.284     36.193  35.487261     2.5743      8.837   182.1051 1.1349e+02     8.3296      0.576      0.835    24.0982 0.0000e+00
      0.596      0.051     7.9905     94.021     36.193  35.485067     2.5647      8.838   182.3326 1.1490e+02     8.3628      0.583      0.846    24.0750 0.0000e+00
      0.608      0.053     7.9720     93.854     36.181  35.472387     2.5209      8.839   182.5206 1.1705e+02     8.4150      0.593      0.860    24.0454 0.0000e+00
      0.624      0.053     7.9596     93.768     36.173  35.460832     2.5113      8.841   182.7432 1.1990e+02     8.5510      0.612      0.889    24.0232 0.0000e+00
      0.642      0.054     7.9327     93.738     36.191  35.472254     2.5306      8.842   183.0446 1.2247e+02     8.6407      0.630      0.915    24.0155 0.0000e+00
      0.656      0.055     7.9067     93.699     36.210  35.483583     2.5380      8.843   183.3258 1.2419e+02     8.5777      0.646      0.936    24.0169 0.0000e+00
      0.667      0.055     7.8956     93.597     36.205  35.470904     2.5340      8.844   183.5624 1.2455e+02     8.4384      0.653      0.947    24.0171 0.0000e+00
      0.678      0.053     7.8884     93.470     36.187  35.445829     2.5413      8.844   183.6680 1.2398e+02     8.4253      0.662      0.960    24.0108 0.0000e+00
      0.694      0.050     7.8895     93.365     36.181  35.434190     2.5683      8.845   183.6555 1.2348e+02     8.5562      0.680      0.986    24.0021 0.0000e+00
      0.710      0.047     7.8910     93.288     36.208  35.457063     2.6265      8.846   183.7564 1.2270e+02     8.6546      0.698      1.012    23.9923 0.0000e+00
      0.723      0.045     7.8813     93.249     36.222  35.468589     2.6794      8.847   184.0273 1.2180e+02     8.6234      0.711      1.031    23.9801 0.0000e+00
      0.732      0.043     7.8706     93.259     36.200  35.446651     2.6755      8.847   184.2642 1.2109e+02     8.4864      0.719      1.043    23.9698 0.0000e+00
      0.740      0.041     7.8635     93.332     36.196  35.445601     2.6790      8.848   184.3835 1.2107e+02     8.4676      0.725      1.051    23.9620 0.0000e+00
      0.749      0.040     7.8570     93.458     36.205  35.455906     2.7381      8.849   184.4371 1.2172e+02     8.5676      0.733      1.064    23.9556 0.0000e+00
      0.759      0.041     7.8545     93.575     36.195  35.444342     2.7907      8.849   184.4822 1.2225e+02     8.5332      0.743      1.078    23.9521 0.0000e+00
      0.771      0.042     7.8545     93.625     36.187  35.432682     2.7909      8.849   184.5848 1.2313e+02     8.4282      0.756      1.096    23.9528 0.0000e+00
      0.783      0.043     7.8597     93.637     36.200  35.441815     2.7737      8.850   184.7312 1.2437e+02     8.3905      0.769      1.115    23.9582 0.0000e+00
      0.793      0.043     7.8715     93.639     36.188  35.427869     2.7740      8.851   184.8755 1.2543e+02     8.3842      0.778      1.128    23.9621 0.0000e+00
      0.804      0.041     7.8855     93.591     36.153  35.390954     2.8442      8.851   184.9529 1.2573e+02     8.4544      0.787      1.142    23.9590 0.0000e+00
      0.817      0.038     7.8885     93.466     36.144  35.376156     2.9650      8.850   184.9789 1.2526e+02     8.5226      0.801      1.162    23.9516 0.0000e+00
      0.828      0.036     7.8883     93.265     36.150  35.375842     3.0110      8.850   185.1034 1.2487e+02     8.4577      0.814      1.180    23.9461 0.0000e+00
      0.835      0.036     7.8919     93.008     36.166  35.387142     2.9934      8.851   185.3397 1.2422e+02     8.4210      0.819      1.188    23.9446 0.0000e+00
      0.841      0.037     7.8880     92.734     36.168  35.385883     2.9604      8.852   185.5997 1.2343e+02     8.4890      0.823      1.194    23.9427 0.0000e+00
      0.848      0.037     7.8793     92.479     36.148  35.360613     2.9111      8.854   185.8371 1.2288e+02     8.5630      0.831      1.205    23.9328 0.0000e+00
      0.858      0.036     7.8632     92.239     36.132  35.335383     2.8721      8.855   185.9733 1.2222e+02     8.5294      0.841      1.220    23.9215 0.0000e+00
      0.871      0.035     7.8413     92.004     36.143  35.334613     2.8463      8.856   186.0418 1.2182e+02     8.4590      0.855      1.240    23.9165 0.0000e+00
      0.883      0.032     7.8166     91.735     36.168  35.351280     2.8654      8.856   186.2354 1.2134e+02     8.4966      0.868      1.259    23.9133 0.0000e+00
      0.892      0.027     7.7970     91.397     36.168  35.346552     2.9367      8.857   186.4205 1.2039e+02     8.5737      0.877      1.272    23.9087 0.0000e+00
      0.896      0.023     7.7787     91.056     36.166  35.340889     2.9920      8.857   186.3877 1.1984e+02     8.6056      0.881      1.277    23.8935 0.0000e+00
      0.897      0.020     7.7626     90.825     36.174  35.346250     2.9933      8.857   186.3556 1.1956e+02     8.5415      0.879      1.275    23.8742 0.0000e+00
      0.899      0.020     7.7441     90.695     36.177  35.347924     2.9605      8.858   186.4620 1.1957e+02     8.4472      0.880      1.276    23.8643 0.0000e+00
      0.904      0.021     7.7139     90.601     36.192  35.361124     2.9456      8.858   186.6418 1.2024e+02     8.4218      0.886      1.285    23.8582 0.0000e+00
      0.911      0.024     7.6805     90.581     36.211  35.378955     2.9551      8.858   186.8088 1.2131e+02     8.4397      0.893      1.295    23.8533 0.0000e+00
      0.921      0.026     7.6619     90.654     36.204  35.373177     2.9576      8.859   186.9314 1.2285e+02     8.4582      0.903      1.309    23.8501 0.0000e+00
      0.929      0.027     7.6567     90.765     36.183  35.354710     2.9432      8.859   187.0062 1.2409e+02     8.4067      0.912      1.323    23.8474 0.0000e+00
      0.935      0.027     7.6446     90.835     36.172  35.346020     2.9308      8.859   187.0248 1.2468e+02     8.3299      0.918      1.330    23.8453 0.0000e+00
      0.940      0.027     7.6431     90.807     36.155  35.331553     2.9408      8.859   187.0709 1.2515e+02     8.3485      0.921      1.336    23.8441 0.0000e+00
      0.946      0.027     7.6511     90.718     36.131  35.306683     2.9392      8.859   187.1336 1.2493e+02     8.3588      0.927      1.345    23.8462 0.0000e+00
      0.953      0.028     7.6620     90.638     36.131  35.299119     2.9117      8.860   187.1797 1.2403e+02     8.2841      0.935      1.356    23.8487 0.0000e+00
      0.961      0.030     7.6710     90.561     36.149  35.303527     2.8912      8.860   187.1984 1.2298e+02     8.2989      0.942      1.366    23.8509 0.0000e+00
      0.969      0.032     7.6656     90.434     36.158  35.296517     2.8993      8.859   187.2739 1.2151e+02     8.4692      0.950      1.379    23.8566 0.0000e+00
      0.978      0.033     7.6545     90.215     36.154  35.277778     2.9263      8.858   187.4900 1.1979e+02     8.6015      0.960      1.392    23.8579 0.0000e+00
      0.987      0.033     7.6508     89.920     36.155  35.267283     2.9436      8.857   187.6600 1.1813e+02     8.5661      0.968      1.404    23.8461 0.0000e+00
      0.996      0.032     7.6490     89.622     36.191  35.296500     2.9505      8.857   187.6948 1.1681e+02     8.4163      0.977      1.416    23.8245 0.0000e+00
      1.003      0.031     7.6426     89.356     36.210  35.313791     2.9507      8.857   187.7386 1.1616e+02     8.2603      0.984      1.427    23.8023 0.0000e+00
      1.011      0.029     7.6278     89.128     36.179  35.286001     2.9462      8.857   187.8464 1.1597e+02     8.2513      0.992      1.438    23.7810 0.0000e+00
      1.019      0.028     7.6010     88.953     36.166  35.277727     2.9631      8.857   187.8790 1.1627e+02     8.3748      1.000      1.450    23.7643 0.0000e+00
      1.026      0.028     7.5767     88.851     36.161  35.277216     2.9884      8.856   187.8744 1.1712e+02     8.3874      1.006      1.460    23.7569 0.0000e+00
      1.032      0.028     7.5547     88.838     36.161  35.279825     3.0024      8.855   187.9635 1.1829e+02     8.2676      1.012      1.468    23.7555 0.0000e+00
      1.038      0.027     7.5341     88.904     36.190  35.309279     3.0158      8.855   188.0104 1.1964e+02     8.2245      1.018      1.477    23.7580 0.0000e+00
      1.046      0.026     7.5182     89.022     36.196  35.316103     3.0172      8.854   188.0968 1.2090e+02     8.3097      1.025      1.487    23.7652 0.0000e+00
      1.054      0.025     7.5071     89.152     36.177  35.298885     3.0197      8.854   188.2339 1.2200e+02     8.4099      1.034      1.499    23.7738 0.0000e+00
      1.061      0.023     7.5062     89.247     36.170  35.291453     3.0292      8.853   188.2052 1.2266e+02     8.3768      1.041      1.509    23.7768 0.0000e+00
      1.066      0.022     7.5129     89.289     36.172  35.289686     3.0233      8.852   188.0943 1.2260e+02     8.2516      1.045      1.516    23.7769 0.0000e+00
      1.070      0.021     7.5233     89.286     36.167  35.277509     3.0236      8.850   188.0971 1.2199e+02     8.2624      1.049      1.521    23.7780 0.0000e+00
      1.075      0.021     7.5362     89.251     36.169  35.271108     3.0335      8.850   188.2390 1.2106e+02     8.4049      1.054      1.528    23.7803 0.0000e+00
      1.080      0.021     7.5442     89.183     36.180  35.275723     3.0341      8.850   188.3480 1.1987e+02     8.4713      1.058      1.536    23.7810 0.0000e+00
      1.086      0.022     7.5485     89.094     36.177  35.269855     3.0145      8.850   188.3817 1.1869e+02     8.3818      1.064      1.543    23.7758 0.0000e+00
      1.091      0.023     7.5488     89.019     36.172  35.263606     2.9707      8.851   188.4749 1.1779e+02     8.2450      1.071      1.552    23.7653 0.0000e+00
      1.097      0.024     7.5479     88.963     36.173  35.263614     2.9462      8.851   188.6139 1.1699e+02     8.1835      1.075      1.560    23.7523 0.0000e+00
      1.103      0.024     7.5442     88.938     36.180  35.269949     3.0176      8.850   188.6852 1.1630e+02     8.2536      1.081      1.568    23.7425 0.0000e+00
      1.110      0.023     7.5341     88.952     36.187  35.276753     3.1600      8.848   188.7355 1.1600e+02     8.3747      1.089      1.579    23.7396 0.0000e+00
      1.117      0.022     7.5294     88.963     36.193  35.282426     3.2190      8.848   188.8772 1.1595e+02     8.3498      1.096      1.589    23.7384 0.0000e+00
      1.122      0.020     7.5241     88.959     36.185  35.275089     3.1826      8.849   189.0217 1.1635e+02     8.2261      1.101      1.597    23.7374 0.0000e+00
      1.126      0.019     7.5205     88.964     36.159  35.251496     3.1113      8.849   189.1066 1.1727e+02     8.2454      1.106      1.603    23.7372 0.0000e+00
      1.130      0.018     7.5248     88.947     36.155  35.250966     3.0140      8.848   189.2150 1.1814e+02     8.3785      1.108      1.607    23.7362 0.0000e+00
      1.134      0.018     7.5261     88.868     36.172  35.268685     2.9554      8.848   189.2998 1.1902e+02     8.4347      1.112      1.613    23.7355 0.0000e+00
      1.138      0.018     7.5235     88.775     36.178  35.275389     2.9340      8.847   189.3587 1.2004e+02     8.3787      1.116      1.619    23.7362 0.0000e+00
      1.143      0.019     7.5249     88.718     36.173  35.268572     2.9477      8.846   189.4106 1.2097e+02     8.3165      1.121      1.626    23.7399 0.0000e+00
      1.149      0.021     7.5257     88.701     36.156  35.249708     3.0293      8.845   189.4110 1.2169e+02     8.3650      1.127      1.635    23.7443 0.0000e+00
      1.155      0.023     7.5154     88.707     36.146  35.237644     3.1056      8.846   189.4498 1.2198e+02     8.4529      1.133      1.643    23.7468 0.0000e+00
      1.160      0.025     7.5060     88.708     36.160  35.249596     3.1123      8.847   189.5358 1.2191e+02     8.4230      1.137      1.650    23.7467 0.0000e+00
      1.166      0.027     7.5022     88.683     36.181  35.267325     3.1096      8.847   189.5900 1.2152e+02     8.2761      1.143      1.657    23.7444 0.0000e+00
      1.173      0.028     7.5010     88.635     36.178  35.261663     3.1486      8.846   189.6746 1.2066e+02     8.1796      1.151      1.669    23.7412 0.0000e+00
      1.182      0.030     7.5033     88.573     36.163  35.244573     3.1923      8.846   189.7845 1.1996e+02     8.2479      1.160      1.683    23.7387 0.0000e+00
      1.191      0.030     7.5043     88.506     36.171  35.251032     3.2213      8.847   189.8005 1.1977e+02     8.3845      1.168      1.695    23.7363 0.0000e+00
      1.198      0.029     7.5025     88.466     36.198  35.276306     3.2091      8.847   189.7818 1.1958e+02     8.3625      1.175      1.704    23.7322 0.0000e+00
      1.206      0.028     7.4986     88.462     36.219  35.296370     3.1522      8.846   189.9028 1.1947e+02     8.2207      1.182      1.715    23.7274 0.0000e+00
      1.213      0.028     7.4945     88.493     36.226  35.303276     3.1159      8.845   190.1452 1.1981e+02     8.2067      1.190      1.726    23.7248 0.0000e+00
      1.220      0.028     7.4869     88.553     36.218  35.296364     3.1289      8.845   190.3037 1.2046e+02     8.2962      1.195      1.735    23.7230 0.0000e+00
      1.226      0.027     7.4840     88.605     36.197  35.276245     3.1509      8.845   190.3558 1.2149e+02     8.3121      1.201      1.743    23.7210 0.0000e+00
      1.233      0.026     7.4841     88.636     36.172  35.250356     3.1734      8.845   190.4311 1.2291e+02     8.2278      1.209      1.753    23.7203 0.0000e+00
      1.241      0.024     7.4854     88.643     36.159  35.237138     3.2352      8.845   190.5265 1.2470e+02     8.2335      1.217      1.766    23.7213 0.0000e+00
      1.247      0.023     7.4932     88.604     36.168  35.243321     3.2898      8.845   190.6480 1.2711e+02     8.3125      1.224      1.776    23.7221 0.0000e+00
      1.252      0.022     7.4972     88.519     36.188  35.261663     3.3183      8.845   190.7821 1.2995e+02     8.3285      1.228      1.781    23.7220 0.0000e+00
      1.256      0.020     7.4997     88.427     36.197  35.268566     3.3460      8.845   190.8573 1.3307e+02     8.3253      1.232      1.787    23.7211 0.0000e+00
      1.261      0.019     7.5019     88.354     36.193  35.263326     3.3428      8.845   190.9548 1.3641e+02     8.2741      1.237      1.794    23.7192 0.0000e+00
      1.266      0.018     7.4992     88.308     36.193  35.261757     3.3208      8.845   191.0147 1.3984e+02     8.2897      1.241      1.800    23.7163 0.0000e+00
      1.271      0.018     7.4905     88.289     36.182  35.249598     3.3211      8.845   190.9797 1.4330e+02     8.4115      1.246      1.808    23.7136 0.0000e+00
      1.276      0.017     7.4823     88.284     36.177  35.243198     3.3297      8.845   191.0476 1.4694e+02     8.4488      1.251      1.814    23.7110 0.0000e+00
      1.280      0.016     7.4767     88.287     36.183  35.247822     3.3162      8.845   191.1470 1.5067e+02     8.3655      1.255      1.820    23.7081 0.0000e+00
      1.284      0.015     7.4726     88.313     36.178  35.242064     3.2833      8.845   191.1492 1.5375e+02     8.2576      1.260      1.827    23.7070 0.0000e+00
      1.287      0.013     7.4720     88.378     36.173  35.237026     3.2563      8.845   191.1594 1.5630e+02     8.2724      1.262      1.830    23.7061 0.0000e+00
      1.290      0.012     7.4720     88.442     36.188  35.250347     3.2897      8.845   191.2710 1.5875e+02     8.3739      1.265      1.835    23.7043 0.0000e+00
      1.294      0.011     7.4718     88.453     36.214  35.276237     3.3545      8.845   191.3805 1.6090e+02     8.3572      1.269      1.840    23.7030 0.0000e+00
      1.296      0.011     7.4732     88.449     36.234  35.296262     3.3737      8.845   191.4503 1.6277e+02     8.2407      1.271      1.843    23.7019 0.0000e+00
      1.297      0.011     7.4799     88.487     36.240  35.302135     3.3628      8.845   191.5137 1.6437e+02     8.1953      1.272      1.844    23.7006 0.0000e+00
      1.300      0.011     7.4887     88.539     36.223  35.283797     3.3313      8.846   191.5437 1.6635e+02     8.2859      1.274      1.848    23.6994 0.0000e+00
      1.303      0.012     7.4880     88.564     36.206  35.264878     3.3008      8.846   191.6410 1.6886e+02     8.4143      1.278      1.853    23.6992 0.0000e+00
      1.307      0.015     7.4838     88.554     36.207  35.263727     3.2858      8.846   191.6579 1.7092e+02     8.3809      1.282      1.859    23.6997 0.0000e+00
      1.310      0.018     7.4898     88.544     36.215  35.269871     3.2746      8.846   191.5766 1.7267e+02     8.2243      1.284      1.863    23.6997 0.0000e+00
      1.314      0.020     7.4955     88.560     36.222  35.275720     3.2739      8.846   191.6040 1.7409e+02     8.1601      1.286      1.867    23.6982 0.0000e+00
      1.319      0.022     7.4984     88.573     36.218  35.271000     3.2938      8.846   191.6449 1.7443e+02     8.2538      1.292      1.874    23.6949 0.0000e+00
      1.327      0.024     7.4967     88.554     36.226  35.276249     3.3400      8.845   191.6407 1.7430e+02     8.4002      1.301      1.887    23.6920 0.0000e+00
      1.335      0.024     7.4942     88.489     36.228  35.275730     3.3498      8.845   191.6395 1.7458e+02     8.3935      1.309      1.898    23.6900 0.0000e+00
      1.342      0.023     7.4981     88.381     36.219  35.264714     3.3130      8.846   191.7161 1.7516e+02     8.2406      1.316      1.908    23.6883 0.0000e+00
      1.347      0.020     7.4996     88.233     36.226  35.269954     3.2775      8.847   191.8788 1.7542e+02     8.1577      1.321      1.916    23.6864 0.0000e+00
      1.351      0.017     7.4995     88.061     36.234  35.275636     3.2700      8.846   191.9716 1.7558e+02     8.2455      1.325      1.921    23.6836 0.0000e+00
      1.355      0.015     7.4938     87.896     36.230  35.269956     3.2886      8.846   191.9786 1.7588e+02     8.4141      1.328      1.927    23.6801 0.0000e+00
      1.358      0.015     7.4853     87.762     36.225  35.264726     3.2780      8.847   191.9631 1.7594e+02     8.4531      1.331      1.931    23.6773 0.0000e+00
      1.361      0.015     7.4729     87.673     36.238  35.275855     3.2420      8.847   191.9566 1.7638e+02     8.3757      1.334      1.935    23.6752 0.0000e+00
      1.364      0.016     7.4570     87.642     36.241  35.277615     3.2438      8.847   191.9853 1.7686e+02     8.4348      1.337      1.939    23.6723 0.0000e+00
      1.368      0.016     7.4433     87.679     36.252  35.286000     3.2837      8.847   192.0523 1.7673e+02     8.6212      1.341      1.944    23.6696 0.0000e+00
      1.373      0.017     7.4311     87.739     36.282  35.313792     3.3086      8.847   192.1644 1.7639e+02     8.7162      1.346      1.952    23.6681 0.0000e+00
      1.378      0.018     7.4244     87.783     36.266  35.296397     3.3192      8.847   192.1365 1.7625e+02     8.5937      1.352      1.961    23.6669 0.0000e+00
      1.383      0.019     7.4199     87.814     36.236  35.266027     3.3381      8.847   191.9725 1.7632e+02     8.3355      1.357      1.967    23.6655 0.0000e+00
      1.386      0.020     7.4261     87.814     36.235  35.263824     3.3698      8.847   191.9885 1.7631e+02     8.2590      1.359      1.972    23.6631 0.0000e+00
      1.390      0.020     7.4335     87.804     36.243  35.269761     3.4032      8.847   192.1582 1.7625e+02     8.3854      1.361      1.975    23.6599 0.0000e+00
      1.396      0.019     7.4353     87.799     36.250  35.274353     3.3758      8.847   192.3891 1.7543e+02     8.4984      1.368      1.983    23.6576 0.0000e+00
      1.404      0.018     7.4410     87.777     36.233  35.255894     3.2891      8.846   192.5433 1.7432e+02     8.5312      1.377      1.997    23.6558 0.0000e+00
      1.410      0.018     7.4394     87.732     36.215  35.236916     3.2197      8.846   192.4737 1.7384e+02     8.4741      1.384      2.007    23.6534 0.0000e+00
      1.413      0.017     7.4380     87.667     36.214  35.235242     3.2103      8.847   192.4085 1.7378e+02     8.4919      1.387      2.011    23.6504 0.0000e+00
      1.415      0.017     7.4402     87.597     36.216  35.235648     3.2249      8.847   192.4432 1.7385e+02     8.5411      1.388      2.013    23.6475 0.0000e+00
      1.417      0.017     7.4376     87.534     36.224  35.241823     3.2062      8.846   192.4632 1.7350e+02     8.4888      1.389      2.014    23.6453 0.0000e+00
      1.421      0.018     7.4345     87.446     36.231  35.246446     3.1668      8.846   192.4786 1.7257e+02     8.4403      1.393      2.020    23.6442 0.0000e+00
      1.428      0.020     7.4285     87.317     36.215  35.228094     3.1313      8.846   192.5431 1.7139e+02     8.3982      1.400      2.030    23.6429 0.0000e+00
      1.436      0.021     7.4217     87.191     36.198  35.210270     3.1346      8.846   192.5543 1.7061e+02     8.4240      1.408      2.042    23.6417 0.0000e+00
      1.442      0.021     7.4185     87.109     36.209  35.221286     3.1733      8.845   192.5282 1.7041e+02     8.4788      1.415      2.052    23.6393 0.0000e+00
      1.446      0.021     7.4127     87.079     36.222  35.234391     3.1671      8.845   192.6577 1.7031e+02     8.4460      1.420      2.058    23.6350 0.0000e+00
      1.450      0.020     7.4000     87.088     36.231  35.241823     3.1266      8.846   192.9152 1.7011e+02     8.4031      1.422      2.062    23.6314 0.0000e+00
      1.455      0.019     7.3880     87.107     36.238  35.247695     3.1079      8.846   193.0611 1.6971e+02     8.4045      1.426      2.069    23.6301 0.0000e+00
      1.460      0.018     7.3814     87.113     36.233  35.241942     3.1073      8.845   193.0452 1.6891e+02     8.4282      1.432      2.076    23.6302 0.0000e+00
      1.465      0.017     7.3789     87.107     36.228  35.235703     3.1194      8.845   193.0662 1.6811e+02     8.3478      1.436      2.083    23.6299 0.0000e+00
      1.470      0.016     7.3810     87.103     36.228  35.235713     3.1126      8.845   193.1433 1.6772e+02     8.1846      1.442      2.092    23.6290 0.0000e+00
      1.474      0.016     7.3837     87.110     36.235  35.242058     3.0751      8.844   193.1170 1.6744e+02     8.1292      1.446      2.097    23.6275 0.0000e+00
      1.478      0.016     7.3843     87.093     36.244  35.248975     3.0569      8.844   193.0062 1.6722e+02     8.2582      1.449      2.102    23.6256 0.0000e+00
      1.480      0.016     7.3834     87.027     36.252  35.255896     3.0752      8.845   193.0082 1.6675e+02     8.5146      1.451      2.105    23.6248 0.0000e+00
      1.484      0.016     7.3823     86.963     36.261  35.262288     3.1053      8.845   193.1415 1.6577e+02     8.6333      1.454      2.109    23.6246 0.0000e+00
      1.489      0.017     7.3843     86.960     36.263  35.262817     3.1047      8.846   193.2409 1.6468e+02     8.5319      1.460      2.117    23.6237 0.0000e+00
      1.494      0.017     7.3849     86.980     36.264  35.262290     3.0763      8.846   193.2642 1.6373e+02     8.4494      1.466      2.125    23.6223 0.0000e+00
      1.499      0.017     7.3775     86.958     36.259  35.255906     3.0536      8.845   193.2502 1.6308e+02     8.4559      1.471      2.134    23.6206 0.0000e+00
      1.504      0.016     7.3690     86.888     36.252  35.249080     3.0376      8.845   193.2443 1.6270e+02     8.4743      1.474      2.140    23.6175 0.0000e+00
      1.508      0.014     7.3716     86.801     36.245  35.243209     3.0414      8.845   193.2791 1.6233e+02     8.3985      1.479      2.145    23.6139 0.0000e+00
      1.511      0.012     7.3765     86.731     36.250  35.248361     3.0412      8.844   193.3266 1.6214e+02     8.2566      1.481      2.149    23.6117 0.0000e+00
      1.513      0.012     7.3742     86.716     36.248  35.247928     3.0021      8.844   193.3882 1.6233e+02     8.2961      1.484      2.152    23.6110 0.0000e+00
      1.515      0.013     7.3669     86.761     36.237  35.237970     2.9598      8.844   193.4224 1.6233e+02     8.5001      1.486      2.155    23.6110 0.0000e+00
      1.518      0.013     7.3593     86.828     36.255  35.254850     2.9455      8.844   193.3093 1.6191e+02     8.6387      1.487      2.157    23.6114 0.0000e+00
      1.522      0.012     7.3510     86.875     36.263  35.261685     2.9456      8.844   193.1388 1.6090e+02     8.6399      1.492      2.163    23.6132 0.0000e+00
      1.527      0.010     7.3492     86.883     36.260  35.257170     2.9362      8.843   193.1687 1.5999e+02     8.4807      1.500      2.174    23.6156 0.0000e+00
      1.531      0.008     7.3550     86.892     36.267  35.263703     2.9232      8.843   193.3262 1.6030e+02     8.3542      1.503      2.179    23.6165 0.0000e+00
      1.531      0.006     7.3612     86.908     36.281  35.277233     2.9299      8.843   193.4079 1.6095e+02     8.4078      1.502      2.178    23.6150 0.0000e+00
      1.530      0.006     7.3680     86.917     36.298  35.293857     2.9419      8.843   193.4688 1.6128e+02     8.4459      1.501      2.176    23.6136 0.0000e+00
      1.530      0.007     7.3650     86.914     36.278  35.274365     2.8942      8.843   193.5460 1.6159e+02     8.3708      1.500      2.175    23.6123 0.0000e+00
      1.531      0.010     7.3670     86.900     36.237  35.231893     2.7854      8.844   193.6533 1.6149e+02     8.2508      1.502      2.178    23.6114 0.0000e+00
      1.534      0.014     7.3689     86.883     36.232  35.224462     2.7343      8.844   193.8197 1.6083e+02     8.2589      1.504      2.182    23.6115 0.0000e+00
      1.539      0.016     7.3693     86.841     36.259  35.247959     2.7591      8.844   193.8369 1.5968e+02     8.3665      1.508      2.187    23.6116 0.0000e+00
      1.546      0.017     7.3699     86.767     36.275  35.262198     2.7772      8.844   193.6895 1.5833e+02     8.3904      1.516      2.198    23.6110 0.0000e+00
      1.553      0.016     7.3674     86.678     36.283  35.269723     2.7779      8.843   193.6715 1.5740e+02     8.3773      1.524      2.210    23.6077 0.0000e+00
      1.558      0.014     7.3688     86.607     36.289  35.275499     2.7762      8.843   193.7051 1.5691e+02     8.3784      1.529      2.216    23.6034 0.0000e+00
      1.559      0.012     7.3649     86.568     36.282  35.268589     2.7898      8.843   193.7519 1.5667e+02     8.4389      1.529      2.218    23.6004 0.0000e+00
      1.559      0.011     7.3591     86.548     36.262  35.249622     2.8088      8.843   193.8942 1.5668e+02     8.5279      1.530      2.219    23.5986 0.0000e+00
      1.560      0.011     7.3499     86.536     36.250  35.236517     2.7813      8.843   193.9627 1.5644e+02     8.4976      1.529      2.218    23.5977 0.0000e+00
      1.563      0.013     7.3436     86.535     36.251  35.237027     2.7318      8.843   193.9769 1.5562e+02     8.4821      1.532      2.222    23.5977 0.0000e+00
      1.568      0.016     7.3408     86.550     36.271  35.255796     2.7022      8.842   194.0669 1.5487e+02     8.5464      1.538      2.231    23.5982 0.0000e+00
      1.572      0.020     7.3395     86.558     36.291  35.273100     2.6478      8.841   194.1043 1.5412e+02     8.5575      1.542      2.236    23.5981 0.0000e+00
      1.577      0.022     7.3388     86.547     36.276  35.255905     2.5733      8.842   193.9991 1.5281e+02     8.5136      1.546      2.242    23.5973 0.0000e+00
      1.584      0.022     7.3378     86.516     36.261  35.238234     2.5261      8.843   193.9993 1.5120e+02     8.4248      1.553      2.253    23.5961 0.0000e+00
      1.592      0.021     7.3408     86.468     36.275  35.249779     2.4935      8.843   194.1059 1.4988e+02     8.4399      1.561      2.265    23.5951 0.0000e+00
      1.598      0.018     7.3420     86.421     36.295  35.268596     2.4780      8.842   194.0838 1.4917e+02     8.5256      1.568      2.274    23.5926 0.0000e+00
      1.602      0.015     7.3413     86.370     36.301  35.275398     2.4963      8.842   194.0761 1.4884e+02     8.5053      1.572      2.281    23.5882 0.0000e+00
      1.605      0.012     7.3398     86.310     36.293  35.268581     2.5235      8.844   194.1848 1.4878e+02     8.3989      1.574      2.283    23.5845 0.0000e+00
      1.605      0.009     7.3348     86.268     36.273  35.249614     2.5165      8.844   194.2794 1.4875e+02     8.2647      1.574      2.283    23.5815 0.0000e+00
      1.607      0.006     7.3314     86.248     36.258  35.236416     2.4862      8.844   194.3596 1.4859e+02     8.2489      1.576      2.285    23.5800 0.0000e+00
      1.610      0.005     7.3283     86.242     36.257  35.235896     2.4898      8.843   194.3803 1.4845e+02     8.3448      1.579      2.291    23.5808 0.0000e+00
      1.612      0.005     7.3205     86.264     36.265  35.243327     2.5264      8.842   194.3578 1.4850e+02     8.3985      1.581      2.294    23.5823 0.0000e+00
      1.611      0.006     7.3170     86.301     36.285  35.262823     2.5465      8.842   194.4323 1.4867e+02     8.3523      1.581      2.293    23.5842 0.0000e+00
      1.611      0.009     7.3164     86.344     36.305  35.281280     2.5325      8.842   194.5926 1.4880e+02     8.2298      1.579      2.290    23.5857 0.0000e+00
      1.611      0.014     7.3138     86.375     36.302  35.276146     2.5066      8.841   194.7472 1.4837e+02     8.2163      1.579      2.291    23.5859 0.0000e+00
      1.616      0.020     7.3173     86.345     36.293  35.264195     2.4917      8.841   194.7526 1.4706e+02     8.3596      1.584      2.298    23.5858 0.0000e+00
      1.623      0.025     7.3202     86.236     36.297  35.263666     2.4695      8.841   194.6576 1.4541e+02     8.3911      1.591      2.308    23.5859 0.0000e+00
      1.632      0.030     7.3237     86.059     36.308  35.269745     2.4300      8.841   194.6309 1.4358e+02     8.2901      1.600      2.321    23.5850 0.0000e+00
      1.641      0.032     7.3299     85.860     36.317  35.274238     2.3967      8.841   194.6019 1.4172e+02     8.2994      1.609      2.334    23.5820 0.0000e+00
      1.651      0.031     7.3273     85.664     36.299  35.254536     2.3831      8.841   194.5658 1.4009e+02     8.4350      1.619      2.348    23.5769 0.0000e+00
      1.660      0.028     7.3196     85.439     36.265  35.221877     2.3986      8.841   194.6243 1.3872e+02     8.5633      1.629      2.363    23.5711 0.0000e+00
      1.667      0.026     7.3033     85.214     36.239  35.196592     2.4010      8.841   194.7072 1.3795e+02     8.5526      1.636      2.373    23.5646 0.0000e+00
      1.671      0.024     7.2860     85.069     36.245  35.202613     2.3290      8.841   194.7075 1.3762e+02     8.4420      1.639      2.377    23.5575 0.0000e+00
      1.675      0.024     7.2724     85.010     36.277  35.231229     2.2191      8.840   194.7143 1.3684e+02     8.4556      1.641      2.381    23.5546 0.0000e+00
      1.680      0.025     7.2522     84.983     36.277  35.225348     2.1791      8.839   194.7891 1.3567e+02     8.5808      1.646      2.388    23.5560 0.0000e+00
      1.687      0.026     7.2288     84.937     36.252  35.194942     2.2200      8.839   194.8382 1.3456e+02     8.6578      1.654      2.399    23.5574 0.0000e+00
      1.695      0.028     7.2167     84.823     36.245  35.180807     2.2388      8.839   194.7909 1.3316e+02     8.6349      1.662      2.410    23.5567 0.0000e+00
      1.703      0.030     7.2149     84.639     36.253  35.181337     2.2234      8.838   194.7337 1.3164e+02     8.6460      1.670      2.422    23.5535 0.0000e+00
      1.711      0.030     7.2141     84.409     36.280  35.201346     2.2088      8.837   194.8350 1.3034e+02     8.7925      1.678      2.434    23.5470 0.0000e+00
      1.719      0.029     7.2141     84.136     36.317  35.232380     2.1952      8.836   194.9828 1.2928e+02     8.9029      1.686      2.445    23.5368 0.0000e+00
      1.727      0.027     7.2055     83.830     36.328  35.239312     2.2171      8.836   195.0577 1.2842e+02     8.9212      1.694      2.456    23.5257 0.0000e+00
      1.734      0.026     7.1898     83.512     36.312  35.221711     2.2485      8.836   195.1382 1.2746e+02     8.8427      1.700      2.466    23.5153 0.0000e+00
      1.739      0.024     7.1721     83.222     36.300  35.209907     2.2585      8.835   195.2692 1.2647e+02     8.7392      1.706      2.474    23.5071 0.0000e+00
      1.745      0.021     7.1491     83.028     36.315  35.223492     2.2801      8.833   195.3503 1.2569e+02     8.7969      1.712      2.483    23.5005 0.0000e+00
      1.750      0.020     7.1234     82.948     36.352  35.259059     2.3009      8.832   195.3441 1.2504e+02     8.8914      1.717      2.490    23.4950 0.0000e+00
      1.755      0.020     7.0961     82.943     36.421  35.322708     2.2690      8.832   195.4524 1.2454e+02     8.8232      1.722      2.497    23.4921 0.0000e+00
      1.759      0.022     7.0683     82.966     36.531  35.422042     2.2108      8.832   195.5409 1.2429e+02     8.6901      1.725      2.502    23.4921 0.0000e+00
      1.762      0.025     7.0513     82.973     36.634  35.508365     2.2040      8.831   195.4682 1.2370e+02     8.7165      1.727      2.505    23.4930 0.0000e+00
      1.767      0.029     7.0464     82.908     36.688  35.541583     2.2373      8.829   195.4341 1.2217e+02     8.8688      1.732      2.512    23.4917 0.0000e+00
      1.777      0.032     7.0478     82.693     36.736  35.569849     2.2392      8.829   195.4721 1.2022e+02     8.9610      1.742      2.526    23.4873 0.0000e+00
      1.789      0.036     7.0519     82.297     36.778  35.596309     2.1940      8.828   195.5844 1.1854e+02     8.9089      1.755      2.545    23.4798 0.0000e+00
      1.800      0.038     7.0565     81.767     36.801  35.607704     2.1487      8.826   195.7587 1.1720e+02     8.7519      1.766      2.561    23.4615 0.0000e+00
      1.809      0.039     7.0578     81.172     36.846  35.644159     2.1408      8.824   195.8585 1.1593e+02     8.7349      1.773      2.572    23.4301 0.0000e+00
      1.817      0.039     7.0449     80.574     36.867  35.656383     2.1650      8.823   195.8453 1.1458e+02     8.8402      1.782      2.584    23.4032 0.0000e+00
      1.827      0.038     7.0111     80.054     36.847  35.628586     2.1666      8.822   195.8570 1.1320e+02     8.7959      1.792      2.599    23.3854 0.0000e+00
      1.838      0.036     6.9652     79.665     36.848  35.625304     2.1350      8.821   195.9135 1.1168e+02     8.6772      1.803      2.615    23.3719 0.0000e+00
      1.848      0.034     6.9152     79.412     36.840  35.616691     2.1159      8.819   195.9265 1.1038e+02     8.6354      1.813      2.630    23.3641 0.0000e+00
      1.857      0.031     6.8616     79.285     36.809  35.587890     2.1106      8.817   195.9286 1.0958e+02     8.6319      1.822      2.643    23.3529 0.0000e+00
      1.864      0.029     6.8181     79.274     36.814  35.594324     2.1116      8.816   195.9381 1.0891e+02     8.6353      1.828      2.652    23.3393 0.0000e+00
      1.869      0.027     6.7857     79.358     36.850  35.631039     2.1040      8.815   196.0425 1.0816e+02     8.6420      1.833      2.658    23.3333 0.0000e+00
      1.875      0.026     6.7644     79.485     36.871  35.651114     2.0770      8.813   196.2436 1.0725e+02     8.6788      1.838      2.666    23.3336 0.0000e+00
      1.882      0.026     6.7541     79.617     36.870  35.646709     2.0679      8.811   196.3906 1.0617e+02     8.7384      1.845      2.676    23.3350 0.0000e+00
      1.889      0.027     6.7520     79.708     36.868  35.641217     2.0853      8.809   196.4436 1.0518e+02     8.7482      1.853      2.687    23.3387 0.0000e+00
      1.896      0.029     6.7619     79.758     36.878  35.648161     2.1043      8.808   196.4539 1.0444e+02     8.7291      1.859      2.696    23.3433 0.0000e+00
      1.902      0.031     6.7728     79.824     36.902  35.667208     2.0982      8.807   196.5153 1.0364e+02     8.6781      1.865      2.705    23.3403 0.0000e+00
      1.910      0.033     6.7867     79.877     36.922  35.681158     2.0702      8.806   196.5837 1.0253e+02     8.6773      1.872      2.715    23.3347 0.0000e+00
      1.919      0.035     6.7964     79.850     36.937  35.689926     2.0396      8.805   196.5922 1.0120e+02     8.8561      1.882      2.729    23.3313 0.0000e+00
      1.930      0.037     6.7965     79.775     36.964  35.709763     2.0110      8.803   196.6184 9.9769e+01     9.0642      1.892      2.744    23.3275 0.0000e+00
      1.940      0.037     6.8046     79.697     36.992  35.730644     1.9999      8.802   196.7282 9.8413e+01     9.0753      1.904      2.760    23.3219 0.0000e+00
      1.950      0.036     6.8142     79.599     37.019  35.752036     1.9881      8.800   196.8877 9.7362e+01     8.9571      1.914      2.774    23.3153 0.0000e+00
      1.958      0.034     6.8103     79.479     37.050  35.778061     1.9927      8.798   196.9985 9.6441e+01     9.0348      1.921      2.785    23.3073 0.0000e+00
      1.966      0.031     6.8029     79.354     37.070  35.791509     2.0390      8.798   197.0356 9.5485e+01     9.2982      1.928      2.796    23.2976 0.0000e+00
      1.974      0.029     6.7992     79.188     37.072  35.787739     2.0737      8.798   197.0784 9.4613e+01     9.4431      1.936      2.808    23.2889 0.0000e+00
      1.981      0.028     6.7918     78.997     37.086  35.795910     2.0721      8.797   197.1710 9.3820e+01     9.3861      1.943      2.819    23.2824 0.0000e+00
      1.988      0.028     6.7800     78.842     37.119  35.826850     2.0605      8.796   197.2946 9.3091e+01     9.2228      1.949      2.827    23.2784 0.0000e+00
      1.993      0.028     6.7732     78.710     37.137  35.844579     2.0747      8.796   197.3687 9.2389e+01     9.1770      1.955      2.835    23.2706 0.0000e+00
      2.000      0.028     6.7603     78.606     37.113  35.819929     2.1107      8.796   197.3783 9.1463e+01     9.2762      1.961      2.844    23.2608 0.0000e+00
      2.008      0.027     6.7399     78.521     37.078  35.782599     2.1135      8.795   197.4112 9.0300e+01     9.2617      1.969      2.856    23.2535 0.0000e+00
      2.017      0.025     6.7307     78.422     37.071  35.773920     2.0748      8.793   197.4218 8.9426e+01     9.1379      1.979      2.871    23.2523 0.0000e+00
      2.024      0.023     6.7169     78.339     37.076  35.778440     2.0512      8.793   197.5066 8.8910e+01     9.1459      1.985      2.880    23.2555 0.0000e+00
      2.029      0.022     6.7083     78.305     37.069  35.773801     2.0777      8.792   197.6623 8.8490e+01     9.3234      1.990      2.886    23.2532 0.0000e+00
      2.033      0.020     6.7052     78.333     37.072  35.781278     2.1202      8.792   197.7560 8.8154e+01     9.5078      1.994      2.892    23.2466 0.0000e+00
      2.036      0.020     6.6941     78.415     37.090  35.805408     2.1239      8.791   197.8641 8.7677e+01     9.5313      1.996      2.895    23.2435 0.0000e+00
      2.041      0.020     6.6866     78.515     37.092  35.811753     2.1222      8.790   197.9373 8.7010e+01     9.5056      2.000      2.901    23.2441 0.0000e+00
      2.047      0.021     6.6828     78.600     37.071  35.794554     2.1572      8.789   197.9538 8.6335e+01     9.6406      2.008      2.911    23.2463 0.0000e+00
      2.053      0.022     6.6846     78.682     37.063  35.787814     2.1983      8.789   197.8911 8.5666e+01     9.8652      2.014      2.920    23.2533 0.0000e+00
      2.059      0.022     6.6913     78.765     37.071  35.793708     2.2368      8.788   197.7809 8.5076e+01    10.0362      2.020      2.929    23.2632 0.0000e+00
      2.064      0.022     6.7010     78.826     37.085  35.802365     2.3554      8.786   197.7404 8.4542e+01    10.1363      2.025      2.936    23.2699 0.0000e+00
      2.070      0.022     6.7066     78.866     37.183  35.892486     2.5587      8.785   197.6598 8.3977e+01    10.2894      2.030      2.945    23.2730 0.0000e+00
      2.075      0.023     6.7128     78.878     37.358  36.058495     2.6816      8.785   197.4950 8.3436e+01    10.4526      2.036      2.952    23.2746 0.0000e+00
      2.081      0.023     6.7219     78.851     37.466  36.159863     2.7758      8.785   197.3820 8.2787e+01    10.5725      2.041      2.958    23.2740 0.0000e+00
      2.087      0.024     6.7271     78.788     37.476  36.166371     3.6804      8.784   197.3260 8.1984e+01    11.1243      2.047      2.967    23.2659 0.0000e+00
      2.094      0.024     6.7321     78.651     37.451  36.137173     5.3214      8.783   197.2472 8.1204e+01    12.0685      2.054      2.978    23.2564 0.0000e+00
      2.101      0.023     6.7345     78.425     37.377  36.060625     6.2450      8.782   197.2045 8.0519e+01    12.6637      2.060      2.988    23.2550 0.0000e+00
      2.107      0.022     6.7309     78.198     37.253  35.938779     6.8415      8.782   197.2399 7.9959e+01    13.0262      2.066      2.996    23.2530 0.0000e+00
      2.112      0.021     6.7282     78.033     37.178  35.869490    12.6418      8.781   197.3307 7.9449e+01    15.8024      2.071      3.004    23.2461 0.0000e+00
      2.117      0.020     6.7194     77.935     37.160  35.857358    23.2660      8.780   197.5286 7.8924e+01    20.9176      2.076      3.011    23.2398 0.0000e+00
      2.122      0.018     6.6963     77.905     37.156  35.855555    29.0448      8.779   197.7401 7.8519e+01    23.6692      2.081      3.019    23.2319 0.0000e+00
      2.127      0.017     6.6754     77.930     37.213  35.911141    29.6529      8.779   197.8222 7.8252e+01    23.9646      2.086      3.025    23.2274 0.0000e+00
      2.131      0.015     6.6617     77.992     37.329  36.021844    31.0180      8.779   197.8341 7.7974e+01    25.0009      2.089      3.030    23.2350 0.0000e+00
      2.135      0.014     6.6511     78.071     37.430  36.115410    45.6910      8.779   197.8833 7.7694e+01    35.9948      2.094      3.037    23.2435 0.0000e+00
      2.138      0.012     6.6493     78.107     37.479  36.154132    72.5867      8.779   197.9869 7.7440e+01    56.1541      2.096      3.041    23.2449 0.0000e+00
      2.140      0.011     6.6520     78.069     37.510  36.172763    87.2420      8.779   198.0540 7.7191e+01    67.2395      2.099      3.044    23.2456 0.0000e+00
      2.143      0.011     6.6571     77.995     37.564  36.213755    88.6015      8.778   198.0065 7.6971e+01    69.6668      2.102      3.048    23.2447 0.0000e+00
      2.145      0.011     6.6672     77.915     37.635  36.269052    89.3657      8.778   197.9280 7.6726e+01    86.7656      2.104      3.051    23.2398 0.0000e+00
      2.148      0.012     6.6734     77.815     37.719  36.333730    90.5648      8.778   197.9664 7.6386e+01   118.0766      2.107      3.055    23.2279 0.0000e+00
      2.151      0.013     6.6699     77.696     37.897  36.488133    91.0308      8.778   198.0408 7.6036e+01   134.9693      2.109      3.059    23.2103 0.0000e+00
      2.155      0.014     6.6641     77.588     38.106  36.676516    89.0160      8.778   198.0527 7.5678e+01   134.3247      2.113      3.065    23.1978 0.0000e+00
      2.159      0.014     6.6605     77.487     38.143  36.707877    66.4455      8.778   198.0239 7.5232e+01   110.1120      2.117      3.070    23.1829 0.0000e+00
      2.164      0.014     6.6549     77.356     38.110  36.676959    25.1281      8.778   198.0371 7.4840e+01    65.5160      2.122      3.077    23.1578 0.0000e+00
      2.168      0.014     6.6465     77.199     38.120  36.683406     2.6272      8.778   198.1256 7.4574e+01    41.1717      2.126      3.083    23.1331 0.0000e+00
      2.170      0.013     6.6393     77.053     38.107  36.658926     0.5933      8.778   198.0616 7.4234e+01    38.2139      2.128      3.086    23.1146 0.0000e+00
      2.173      0.011     6.6335     76.918     38.103  36.634764     0.3121      8.777   197.9523 7.3805e+01    29.6854      2.130      3.090    23.1105 0.0000e+00
      2.176      0.009     6.6213     76.735     38.135  36.645040     0.1009      8.776   198.0079 7.3432e+01    14.5022      2.134      3.095    23.1161 0.0000e+00
      2.179      0.008     6.6062     76.488     38.160  36.656242     0.0043      8.775   198.1318 7.3103e+01     6.3372      2.137      3.100    23.1152 0.0000e+00
      2.181      0.006     6.5954     76.234     38.150  36.643272     0.0338      8.774   198.3315 7.2863e+01     5.6023      2.138      3.102    23.0979 0.0000e+00
      2.182      0.004     6.5903     76.012     38.119  36.615125     0.0338      8.773   198.5302 7.2795e+01     4.8991      2.139      3.103    23.0678 0.0000e+00
      2.182      0.002     6.5799     75.843     38.070  36.569736    -0.0117      8.772   198.5550 7.2783e+01     3.7779      2.140      3.104    23.0381 0.0000e+00
      2.182     -0.001     6.5571     75.736     37.970  36.475194    -0.0264      8.771   198.4597 7.2796e+01     3.2500      2.140      3.104    23.0192 0.0000e+00
      2.182     -0.006     6.5357     75.673     37.778  36.296893    -0.0028      8.769   198.4967 7.2878e+01     3.3666      2.140      3.104    23.0163 0.0000e+00
      2.181     -0.016     6.5149     75.641     37.452  36.000193     0.0243      8.767   198.6577 7.2984e+01     4.1287      2.139      3.103    23.0236 0.0000e+00
      2.180     -0.033     6.4992     75.641     37.081  35.679659     0.1853      8.765   198.7716 7.3251e+01    12.0893      2.139      3.103    23.0264 0.0000e+00
      2.176     -0.054     6.4921     75.749     36.866  35.530423     0.4878      8.763   198.8410 7.4155e+01    26.7895      2.136      3.099    23.0229 0.0000e+00
      2.163     -0.076     6.4855     76.099     36.797  35.528313     0.6516      8.761   198.8950 7.6496e+01    34.9832      2.126      3.085    23.0295 0.0000e+00
      2.137     -0.095     6.4816     76.764     36.745  35.527350     0.7016      8.759   198.9944 8.0365e+01    37.0670      2.099      3.046    23.0484 0.0000e+00
      2.100     -0.109     6.4739     77.729     36.706  35.518847     1.0339      8.759   199.1814 8.4703e+01    51.1990      2.059      2.987    23.0909 0.0000e+00
      2.063     -0.115     6.4669     78.865     36.724  35.552445     1.6064      8.758   199.3498 8.8741e+01    76.8306      2.022      2.933    23.1787 0.0000e+00
      2.030     -0.115     6.4823     79.962     36.783  35.616354     1.9226      8.758   199.3101 9.2092e+01    90.7128      1.988      2.884    23.2816 0.0000e+00
      2.003     -0.113     6.5312     80.885     36.828  35.657090     1.9687      8.758   199.1307 9.4537e+01    90.9495      1.961      2.844    23.3493 0.0000e+00
      1.982     -0.109     6.6123     81.579     36.845  35.664287     2.0299      8.758   199.0745 9.6996e+01    78.9067      1.945      2.821    23.3826 0.0000e+00
      1.960     -0.106     6.7151     81.975     36.829  35.639912     2.1304      8.758   199.1460 1.0077e+02    56.4642      1.926      2.793    23.4032 0.0000e+00
      1.930     -0.106     6.8105     82.035     36.809  35.616159     2.1768      8.758   199.1351 1.0540e+02    44.0610      1.893      2.746    23.4148 0.0000e+00
      1.898     -0.109     6.8899     81.791     36.829  35.630883     2.1915      8.758   199.0287 1.0946e+02    42.5545      1.859      2.697    23.4097 0.0000e+00
      1.870     -0.115     6.9548     81.387     36.829  35.627582     2.2660      8.758   199.0640 1.1297e+02    38.5568      1.833      2.658    23.3916 0.0000e+00
      1.844     -0.122     6.9905     80.966     36.778  35.576237     2.3695      8.758   199.2176 1.1678e+02    31.2173      1.809      2.624    23.3787 0.0000e+00
      1.816     -0.128     6.9967     80.589     36.714  35.517674     2.4028      8.758   199.3381 1.2173e+02    27.0849      1.783      2.586    23.3740 0.0000e+00
      1.784     -0.133     6.9709     80.292     36.678  35.490545     2.3774      8.758   199.4016 1.2822e+02    26.3385      1.752      2.541    23.3692 0.0000e+00
      1.745     -0.138     6.9320     80.128     36.681  35.502028     2.3706      8.759   199.3833 1.3562e+02    23.5242      1.712      2.483    23.3638 0.0000e+00
      1.703     -0.138     6.8962     80.144     36.703  35.529624     2.3787      8.760   199.3743 1.4309e+02    18.5409      1.669      2.421    23.3591 0.0000e+00
      1.664     -0.135     6.8623     80.312     36.743  35.570422     2.3762      8.761   199.3790 1.5014e+02    15.7874      1.630      2.364    23.3623 0.0000e+00
      1.630     -0.128     6.8340     80.542     36.789  35.614623     2.3651      8.763   199.3540 1.5650e+02    15.4426      1.596      2.315    23.3763 0.0000e+00
      1.600     -0.119     6.8157     80.741     36.798  35.619918     2.3441      8.764   199.3315 1.6245e+02    15.2250      1.568      2.274    23.3898 0.0000e+00
      1.574     -0.110     6.8173     80.877     36.753  35.570987     2.3721      8.765   199.2780 1.6830e+02    14.4890      1.543      2.238    23.3975 0.0000e+00
      1.548     -0.105     6.8344     80.966     36.648  35.467138     2.4704      8.766   199.1370 1.7483e+02    13.3072      1.519      2.203    23.4015 0.0000e+00
      1.522     -0.104     6.8572     81.018     35.964  34.808437     2.5175      8.768   199.0041 1.8195e+02    12.6177      1.492      2.165    23.4008 0.0000e+00
      1.496     -0.108     6.8760     81.041     35.333  34.204862     2.5006      8.770   198.9624 1.8855e+02    12.4044      1.465      2.125    23.3956 0.0000e+00
      1.472     -0.115     6.8874     81.069     35.904  34.767544     2.5068      8.772   198.8906 1.9545e+02    11.8897      1.444      2.094    23.3858 0.0000e+00
      1.445     -0.124     6.8955     81.144     36.543  35.394313     2.5505      8.774   198.8243 2.0350e+02    11.1087      1.420      2.060    23.3803 0.0000e+00
      1.411     -0.133     6.8994     81.278     36.583  35.438706     2.5961      8.776   198.8490 2.1286e+02    10.7156      1.385      2.009    23.3860 0.0000e+00
      1.373     -0.142     6.8986     81.466     36.570  35.431204     2.6007      8.778   198.8441 2.2443e+02    10.6209      1.347      1.953    23.3972 0.0000e+00
      1.333     -0.147     6.8976     81.711     36.563  35.430512     2.5727      8.781   198.7655 2.3870e+02    10.2020      1.307      1.896    23.4120 0.0000e+00
      1.293     -0.148     6.9019     81.999     36.558  35.430344     2.5494      8.783   198.6728 2.5361e+02     9.4772      1.267      1.837    23.4245 0.0000e+00
      1.254     -0.144     6.9134     82.294     36.553  35.429184     2.5525      8.785   198.5841 2.6930e+02     9.0652      1.231      1.785    23.4302 0.0000e+00
      1.216     -0.138     6.9279     82.555     36.534  35.416487     2.5846      8.787   198.5536 2.8420e+02     9.1140      1.191      1.728    23.4359 0.0000e+00
      1.182     -0.131     6.9478     82.744     36.512  35.403733     2.6213      8.788   198.5616 2.9237e+02     9.4189      1.156      1.676    23.4468 0.0000e+00
      1.152     -0.126     6.9726     82.897     36.503  35.401892     2.6469      8.791   198.5953 2.9933e+02     9.8823      1.130      1.639    23.4545 0.0000e+00
      1.122     -0.124     6.9981     83.087     36.489  35.394236     2.6606      8.793   198.6166 3.0974e+02    10.1394      1.100      1.595    23.4562 0.0000e+00
      1.093     -0.124     7.0219     83.293     36.462  35.374614     2.6790      8.795   198.5611 3.1972e+02    10.1369      1.070      1.553    23.4630 0.0000e+00
      1.063     -0.128     7.0348     83.456     36.434  35.355000     2.7455      8.797   198.5265 3.3462e+02     9.8510      1.044      1.515    23.4776 0.0000e+00
      1.030     -0.133     7.0423     83.599     36.420  35.347442     2.8404      8.798   198.5422 3.5560e+02     9.2789      1.012      1.466    23.4878 0.0000e+00
      0.994     -0.136     7.0593     83.784     36.413  35.346692     2.8937      8.799   198.5788 3.7082e+02     9.0274      0.976      1.414    23.4920 0.0000e+00
      0.956     -0.136     7.0788     83.996     36.407  35.345942     2.9154      8.801   198.5396 3.8188e+02     9.1328      0.937      1.360    23.5022 0.0000e+00
      0.917     -0.134     7.0896     84.182     36.392  35.338386     2.9527      8.803   198.4118 3.9649e+02     9.1863      0.898      1.303    23.5148 0.0000e+00
      0.881     -0.129     7.0977     84.331     36.367  35.318783     2.9872      8.805   198.3246 4.1183e+02     9.1279      0.862      1.250    23.5216 0.0000e+00
      0.851     -0.124     7.1134     84.468     36.342  35.299285     2.9833      8.806   198.2592 4.3152e+02     9.0073      0.832      1.207    23.5284 0.0000e+00
      0.825     -0.121     7.1328     84.593     36.331  35.292988     2.9637      8.808   198.2235 4.5633e+02     8.9917      0.809      1.173    23.5375 0.0000e+00
      0.797     -0.121     7.1475     84.693     36.339  35.306092     2.9737      8.809   198.3240 4.7791e+02     9.0761      0.783      1.136    23.5468 0.0000e+00
      0.766     -0.125     7.1577     84.795     36.354  35.330834     2.9717      8.812   198.4412 4.9639e+02     8.8331      0.750      1.088    23.5550 0.0000e+00
      0.734     -0.131     7.1683     84.918     36.348  35.338366     2.9231      8.814   198.3499 5.3258e+02     8.2738      0.721      1.046    23.5602 0.0000e+00
      0.699     -0.138     7.1801     85.058     36.328  35.333740     2.8934      8.815   198.0806 5.8007e+02     7.9835      0.688      0.998    23.5644 0.0000e+00
      0.661     -0.145     7.1854     85.256     36.322  35.338368     2.8962      8.816   197.7658 6.0078e+02     8.0215      0.647      0.939    23.5721 0.0000e+00
      0.623     -0.152     7.1919     85.557     36.313  35.330888     2.9227      8.818   197.4697 5.8741e+02     8.1876      0.610      0.885    23.5846 0.0000e+00
      0.585     -0.154     7.2008     85.928     36.294  35.306749     2.9564      8.820   197.1673 5.6558e+02     8.3176      0.575      0.833    23.6035 0.0000e+00
      0.545     -0.148     7.2077     86.267     36.295  35.300291     2.9626      8.823   196.9493 5.9383e+02     8.2614      0.536      0.778    23.6284 0.0000e+00
      0.500     -0.133     7.2200     86.489     36.315  35.316248     2.9636      8.825   196.8126 6.9294e+02     8.2250      0.492      0.713    23.6456 0.0000e+00
      0.456     -0.112     7.2461     86.565     36.309  35.309329     2.9937      8.827   196.6328 8.1008e+02     8.6974      0.443      0.642    23.6459 0.0000e+00
      0.425     -0.088     7.2838     86.546     36.277  35.280089     3.0436      8.828   196.4097 8.6903e+02     9.5665      0.409      0.593    23.6338 0.0000e+00
      0.411     -0.062     7.3158     86.485     36.272  35.279942     3.0508      8.829   196.1800 8.4599e+02     9.9882      0.399      0.579    23.6227 0.0000e+00
      0.410     -0.037     7.3375     86.386     36.290  35.307564     3.0223      8.831   196.0934 7.7235e+02     9.9706      0.403      0.583    23.6171 0.0000e+00
      0.411     -0.014     7.3413     86.306     36.328  35.360289     3.0488      8.834   195.9647 6.9395e+02    10.6511      0.405      0.587    23.6160 0.0000e+00
      0.408      0.001     7.3372     86.336     36.352  35.409880     3.1458      8.838   195.4836 7.1137e+02    12.1025      0.400      0.580    23.6183 0.0000e+00
      0.404     -0.004     7.3325     86.526     36.302  35.399618     3.2220      8.839   194.6645 7.8046e+02    12.9670      0.393      0.569    23.6246 0.0000e+00
      0.409     -0.036     7.3202     86.929     36.221  35.363164     3.2215      8.837   193.8042 7.7055e+02    13.0423      0.397      0.576    23.6388 0.0000e+00
      0.421     -0.100     7.3070     87.549     36.182  35.349870     3.1815      8.836   193.0833 7.1810e+02    13.0126      0.416      0.603    23.6578 0.0000e+00
      0.421     -0.194     7.3047     88.306     36.197  35.365815     3.0623      8.836   191.9714 6.6526e+02    13.5308      0.427      0.619    23.6903 0.0000e+00
      0.381     -0.311     7.3113     89.141     36.261  35.429069     2.9044      8.833   190.9430 8.8331e+02    14.6277      0.396      0.575    23.7472 0.0000e+00
      0.283     -0.433     7.3329     89.877     36.028  35.226399     3.2614      8.826   190.2003 1.3565e+03    15.2753      0.297      0.431    23.8205 0.0000e+00
      0.131     -0.528     7.3860     90.251     32.134  31.456083     8.4360      8.815   186.9487 1.7533e+03    15.4171      0.139      0.201    23.8614 0.0000e+00
     -0.056     -0.565     7.4501     90.198     22.576  22.126120    65.7190      8.804   181.8277 2.0286e+03    17.0259     -0.049     -0.071    23.8450 0.0000e+00
     -0.257     -0.539     7.5281     89.881     13.032  12.785364   170.7943      8.797   179.1324 1.9776e+03    20.2098     -0.257     -0.373    23.8304 0.0000e+00
     -0.437     -0.459     7.5965     89.506      9.800   9.621019   228.1337      8.795   178.7088 1.7274e+03    22.0079     -0.456     -0.660    23.8701 0.0000e+00
     -0.548     -0.348     7.6172     89.141     12.874  12.641209   233.3502      8.795   178.5988 1.5409e+03    21.6194     -0.569     -0.825    23.9516 0.0000e+00
     -0.587     -0.230     7.5960     88.733     20.006  19.643527   233.8003      8.802   178.7490 1.3847e+03    15.5794     -0.584     -0.847    24.0306 0.0000e+00
     -0.593     -0.125     7.5551     88.298     27.398  26.897759   233.7920      8.808   179.4062 1.2751e+03     4.6251     -0.581     -0.843    24.0751 0.0000e+00
     -0.593     -0.050     7.5200     87.886     31.313  30.730525   233.3412      8.799   180.1781 1.0683e+03    -1.2447     -0.582     -0.845    24.0894 0.0000e+00
     -0.593     -0.012     7.4921     87.332     32.618  31.994372   228.1834      8.790   180.4240 8.4514e+02    -1.2841     -0.580     -0.842    24.0921 0.0000e+00
     -0.593     -0.001     7.4586     86.443     29.241  28.666836   171.1705      8.804   180.4004 8.2866e+02     3.6032     -0.582     -0.844    24.0922 0.0000e+00
     -0.593 -8.839e-10     7.4159     85.315     20.658  20.240243    66.6290      8.823   180.5811 8.4338e+02    12.7224     -0.582     -0.845    24.0873 0.0000e+00
     -0.593 -9.723e-09     7.3916     84.276     13.589  13.304554     9.6213      8.825   181.0607 6.7577e+02    17.7702     -0.582     -0.844    24.0694 0.0000e+00
     -0.593 -1.069e-07     7.3578     83.571     10.459  10.234804     4.3703      8.818   181.3817 4.1661e+02    17.8369     -0.582     -0.844    24.0408 0.0000e+00
     -0.593 -1.069e-07     7.2837     83.237      8.339   8.158537     2.9143      8.818   181.3637 6.0923e+02    13.2894     -0.582     -0.845    24.0068 0.0000e+00
     -0.593 -9.720e-09     7.1818     83.264      6.528   6.385896     1.0731      8.821   181.7034 9.5005e+02     4.9743     -0.582     -0.844    23.9707 0.0000e+00
     -0.593 -8.840e-10     7.0889     83.569      5.912   5.782568     0.1106      8.818   182.3919 7.1468e+02     0.5122     -0.582     -0.844    23.9397 0.0000e+00
     -0.593 -8.035e-11     7.0357     84.044      5.807   5.679082     0.0503      8.818   183.0632 8.2511e+02     0.2266     -0.582     -0.844    23.9191 0.0000e+00
     -0.593 -7.305e-12     7.0063     84.616      5.640   5.514782     0.0435      8.823   183.7122 1.5918e+03     0.1894     -0.582     -0.845    23.9084 0.0000e+00
     -0.593 -6.640e-13     7.0134     85.186      5.373   5.253184     0.0209      8.827   184.2152 1.6258e+03     0.1303     -0.582     -0.844    23.9012 0.0000e+00
     -0.593 -6.035e-14     7.0443     85.681      4.907   4.796821     0.0264      8.825   184.8423 8.3341e+02     0.2295     -0.582     -0.845    23.8944 0.0000e+00
     -0.593 -5.490e-15     7.0851     86.086      4.468   4.368227     0.0595      8.822   186.0471 3.6064e+02     0.2271     -0.582     -0.844    23.8892 0.0000e+00
     -0.593 -4.989e-16     7.1384     86.437      4.349   4.252261     0.0555      8.821   187.5107 3.2714e+02     0.0676     -0.581     -0.843    23.8858 0.0000e+00
     -0.593 -4.535e-17     7.1885     86.774      4.509   4.408289     0.0275      8.822   188.6871 3.3579e+02     0.0771     -0.582     -0.844    23.8830 0.0000e+00
     -0.593 -4.123e-18     7.2312     87.084      4.584   4.480949     0.0380      8.824   189.6014 3.3512e+02     0.2051     -0.582     -0.844    23.8809 0.0000e+00
     -0.593 -3.748e-19     7.2644     87.371      4.406   4.307232     0.0482      8.827   190.4777 3.3277e+02     0.1814     -0.583     -0.845    23.8794 0.0000e+00
     -0.593 -3.407e-20     7.2918     87.661      4.111   4.018344     0.0262      8.828   191.2805 3.4198e+02     0.0632     -0.582     -0.844    23.8781 0.0000e+00
     -0.593 -3.098e-21     7.3219     87.941      3.798   3.712057     0.0057      8.829   191.3065 4.4981e+02     0.0407     -0.581     -0.843    23.8769 0.0000e+00
     -0.593 -2.816e-22     7.3486     88.212      3.534   3.454631     0.0087      8.831   190.1040 5.6224e+02     0.1141     -0.582     -0.844    23.8756 0.0000e+00
     -0.593 -2.560e-23     7.3705     88.476      3.389   3.313044     0.0369      8.831   188.6155 4.8479e+02     0.1301     -0.583     -0.845    23.8743 0.0000e+00
     -0.593 -2.328e-24     7.3972     88.722      3.342   3.267082     0.0474      8.833   187.5054 3.7011e+02     0.0641     -0.582     -0.844    23.8734 0.0000e+00
     -0.593 -2.116e-25     7.4203     88.956      3.290   3.215643     0.0350      8.838   187.0917 3.3534e+02     0.1019     -0.582     -0.845    23.8723 0.0000e+00
     -0.593 -1.923e-26     7.4431     89.180      3.142   3.071175     0.0451      8.840   187.4002 3.2299e+02     0.2108     -0.582     -0.844    23.8706 0.0000e+00
     -0.593 -1.749e-27     7.4665     89.388      2.981   2.913950     0.0454      8.840   187.5348 3.2253e+02     0.1850     -0.582     -0.844    23.8694 0.0000e+00
     -0.593 -1.603e-28     7.4869     89.578      2.901   2.834941     0.0129      8.841   187.5151 3.2532e+02     0.0635     -0.582     -0.844    23.8681 0.0000e+00
     -0.594 -2.890e-29     7.5064     89.669      2.878   2.812689    -0.0063      8.841   187.5917 3.4039e+02     0.0054     -0.582     -0.845    23.8670 0.0000e+00
     -0.594 -9.990e-29     7.5266 -9.990e-29 -9.990e-29 -9.990e-29 -9.990e-29 -9.990e-29 -9.990e-29 3.6672e+02 -9.990e-29     -0.582     -0.845    23.8655 0.0000e+00
     -0.593 -9.990e-29     7.5429 -9.990e-29 -9.990e-29 -9.990e-29 -9.990e-29 -9.990e-29 -9.990e-29 3.8293e+02 -9.990e-29     -0.582     -0.844    23.8643 0.0000e+00
     -0.593 -9.990e-29     7.5615 -9.990e-29 -9.990e-29 -9.990e-29 -9.990e-29 -9.990e-29 -9.990e-29 3.8737e+02 -9.990e-29     -0.582     -0.844    23.8630 0.0000e+00
     -0.593 -9.990e-29     7.5755 -9.990e-29 -9.990e-29 -9.990e-29 -9.990e-29 -9.990e-29 -9.990e-29 3.8897e+02 -9.990e-29     -0.582     -0.844    23.8620 0.0000e+00
