* Sea-Bird SBE19plus  Data File:
* FileName = C:\R\Reservoirs\Data\DataNotYetUploadedToEDI\Raw_CTD\RawDownloads\080524_fcr50_S7809_0004.hex
* Software version 2.8.0.119
* Temperature SN = 7809
* Conductivity SN = 7809
* System UpLoad Time = Aug 05 2024 17:28:13
* <ApplicationData>
* <Seaterm232>
* <SoftwareVersion>2.8.0.119</SoftwareVersion>
* <BuildDate>07-Nov-2018</BuildDate>
* </Seaterm232>
* </ApplicationData>
* <InstrumentState>
* <HardwareData DeviceType='SBE19plus' SerialNumber='01907809'>
*
*    <Manufacturer>Sea-Bird Electronics, Inc.</Manufacturer>
*
*    <FirmwareVersion>3.1.8</FirmwareVersion>
*
*    <FirmwareDate>Mar  9 2016 16:22:29</FirmwareDate>
*
*    <CommandSetVersion>1.4</CommandSetVersion>
*
*    <PCBAssembly PCBSerialNum='120721' AssemblyNum='41054J'/>
*
*    <PCBAssembly PCBSerialNum='120715' AssemblyNum='41967A'/>
*
*    <PCBAssembly PCBSerialNum='116699' AssemblyNum='41606'/>
*
*    <PCBAssembly PCBSerialNum='120719' AssemblyNum='41059D'/>
*
*    <MfgDate>28-Apr-2017</MfgDate>
*
*    <InternalSensors>
*
*       <Sensor id='Main Temperature'>
*
*          <type>temperature0</type>
*
*          <SerialNumber>01907809</SerialNumber>
*
*       </Sensor>
*
*       <Sensor id='Main Conductivity'>
*
*          <type>conductivity-0</type>
*
*          <SerialNumber>01907809</SerialNumber>
*
*       </Sensor>
*
*       <Sensor id='Main Pressure'>
*
*          <type>strain-0</type>
*
*          <SerialNumber>10586018</SerialNumber>
*
*       </Sensor>
*
*    </InternalSensors>
*
*    <ExternalSensors>
*
*       <Sensor id='volt 0'>
*
*          <type>pH</type>
*
*          <SerialNumber>27-0363</SerialNumber>
*
*       </Sensor>
*
*       <Sensor id='volt 1'>
*
*          <type>ORP</type>
*
*          <SerialNumber>27-0363</SerialNumber>
*
*       </Sensor>
*
*       <Sensor id='volt 2'>
*
*          <type>OXY</type>
*
*          <SerialNumber>43-0434</SerialNumber>
*
*       </Sensor>
*
*       <Sensor id='volt 3'>
*
*          <type>PAR</type>
*
*          <SerialNumber>1122</SerialNumber>
*
*       </Sensor>
*
*       <Sensor id='volt 4'>
*
*          <type>ECO AFL/FL</type>
*
*          <SerialNumber>FLNTURT-2496</SerialNumber>
*
*       </Sensor>
*
*       <Sensor id='volt 5'>
*
*          <type>ECO-NTU</type>
*
*          <SerialNumber>FLNTURT-2496</SerialNumber>
*
*       </Sensor>
*
*       <Sensor id='serial'>
*
*          <type>not assigned</type>
*
*          <SerialNumber>not assigned</SerialNumber>
*
*       </Sensor>
*
*    </ExternalSensors>
*
* </HardwareData>
* <StatusData DeviceType='SBE19plus' SerialNumber='01907809'>
*
*    <DateTime>2024-08-05T17:26:21</DateTime>
*
*    <LoggingState>not logging</LoggingState>
*
*    <EventSummary numEvents='0'/>
*
*    <Power>
*
*       <vMain>12.4</vMain>
*
*       <vLith>8.3</vLith>
*
*       <iMain>63.1</iMain>
*
*       <iPump>159.1</iPump>
*
*       <iExt01>20.9</iExt01>
*
*       <iExt2345>38.5</iExt2345>
*
*    </Power>
*
*    <MemorySummary>
*
*       <Bytes>79810</Bytes>
*
*       <Samples>3470</Samples>
*
*       <SamplesFree>2857318</SamplesFree>
*
*       <SampleLength>23</SampleLength>
*
*       <Profiles>5</Profiles>
*
*    </MemorySummary>
*
* </StatusData>
* <ConfigurationData DeviceType='SBE19plus' SerialNumber='01907809'>
*
*    <ProfileMode>
*
*       <ScansToAverage>1</ScansToAverage>
*
*       <MinimumCondFreq>0</MinimumCondFreq>
*
*       <PumpDelay>45</PumpDelay>
*
*       <AutoRun>no</AutoRun>
*
*       <IgnoreSwitch>no</IgnoreSwitch>
*
*    </ProfileMode>
*
*    <Battery>
*
*       <Type>alkaline</Type>
*
*       <CutOff>7.5</CutOff>
*
*    </Battery>
*
*    <DataChannels>
*
*       <ExtVolt0>yes</ExtVolt0>
*
*       <ExtVolt1>yes</ExtVolt1>
*
*       <ExtVolt2>yes</ExtVolt2>
*
*       <ExtVolt3>yes</ExtVolt3>
*
*       <ExtVolt4>yes</ExtVolt4>
*
*       <ExtVolt5>yes</ExtVolt5>
*
*       <SBE38>no</SBE38>
*
*       <WETLABS>no</WETLABS>
*
*       <OPTODE>no</OPTODE>
*
*       <SBE63>no</SBE63>
*
*       <SeaFET>no</SeaFET>
*
*       <GTD>no</GTD>
*
*    </DataChannels>
*
*    <EchoCharacters>yes</EchoCharacters>
*
*    <OutputExecutedTag>yes</OutputExecutedTag>
*
*    <OutputFormat>raw HEX</OutputFormat>
*
* </ConfigurationData>
* <CalibrationCoefficients DeviceType='SBE19plus' SerialNumber='01907809'>
*
*    <Calibration format='TEMP1' id='Main Temperature'>
*
*       <SerialNum>01907809</SerialNum>
*
*       <CalDate>31-Jan-23</CalDate>
*
*       <TA0>1.218232e-03</TA0>
*
*       <TA1>2.815090e-04</TA1>
*
*       <TA2>-1.578887e-06</TA2>
*
*       <TA3>1.972343e-07</TA3>
*
*       <TOFFSET>0.000000e+00</TOFFSET>
*
*    </Calibration>
*
*    <Calibration format='WBCOND0' id='Main Conductivity'>
*
*       <SerialNum>01907809</SerialNum>
*
*       <CalDate>31-Jan-23</CalDate>
*
*       <G>-1.005652e+00</G>
*
*       <H>1.267963e-01</H>
*
*       <I>-1.561708e-04</I>
*
*       <J>2.645944e-05</J>
*
*       <CPCOR>-9.570000e-08</CPCOR>
*
*       <CTCOR>3.250000e-06</CTCOR>
*
*       <CSLOPE>1.000000e+00</CSLOPE>
*
*    </Calibration>
*
*    <Calibration format='STRAIN0' id='Main Pressure'>
*
*       <SerialNum>10586018</SerialNum>
*
*       <CalDate>20-Jan-23</CalDate>
*
*       <PA0>4.416439e-02</PA0>
*
*       <PA1>4.850502e-04</PA1>
*
*       <PA2>-3.090426e-12</PA2>
*
*       <PTCA0>5.254757e+05</PTCA0>
*
*       <PTCA1>1.050255e+01</PTCA1>
*
*       <PTCA2>-2.922435e-01</PTCA2>
*
*       <PTCB0>2.516687e+01</PTCB0>
*
*       <PTCB1>3.750000e-04</PTCB1>
*
*       <PTCB2>0.000000e+00</PTCB2>
*
*       <PTEMPA0>-5.470820e+01</PTEMPA0>
*
*       <PTEMPA1>5.485421e+01</PTEMPA1>
*
*       <PTEMPA2>-3.446578e-01</PTEMPA2>
*
*       <POFFSET>8.500000e-01</POFFSET>
*
*       <PRANGE>1.600000e+02</PRANGE>
*
*    </Calibration>
*
*    <Calibration format='VOLT0' id='Volt 0'>
*
*       <OFFSET>-4.920000e-02</OFFSET>
*
*       <SLOPE>1.248122e+00</SLOPE>
*
*    </Calibration>
*
*    <Calibration format='VOLT0' id='Volt 1'>
*
*       <OFFSET>-4.784000e-02</OFFSET>
*
*       <SLOPE>1.248871e+00</SLOPE>
*
*    </Calibration>
*
*    <Calibration format='VOLT0' id='Volt 2'>
*
*       <OFFSET>-4.864632e-02</OFFSET>
*
*       <SLOPE>1.248714e+00</SLOPE>
*
*    </Calibration>
*
*    <Calibration format='VOLT0' id='Volt 3'>
*
*       <OFFSET>-4.743790e-02</OFFSET>
*
*       <SLOPE>1.248571e+00</SLOPE>
*
*    </Calibration>
*
*    <Calibration format='VOLT0' id='Volt 4'>
*
*       <OFFSET>-4.671263e-02</OFFSET>
*
*       <SLOPE>1.248951e+00</SLOPE>
*
*    </Calibration>
*
*    <Calibration format='VOLT0' id='Volt 5'>
*
*       <OFFSET>-4.871053e-02</OFFSET>
*
*       <SLOPE>1.249136e+00</SLOPE>
*
*    </Calibration>
*
*    <Calibration format='FREQ0' id='external frequency channel'>
*
*       <EXTFREQSF>1.000014e+00</EXTFREQSF>
*
*    </Calibration>
*
* </CalibrationCoefficients>
* <EventCounters DeviceType='SBE19plus' SerialNumber='01907809'>
*
*    <EventSummary numEvents='0'/>
*
* </EventCounters></InstrumentState>
* <Headers>
*
* cast   4 05 Aug 2024 12:53:57 samples 2290 to 2914, avg = 1, stop = mag switch
*
# nquan = 15
# nvalues = 423                         
# units = specified
# name 0 = depFM: Depth [fresh water, m]
# name 1 = dz/dtM: Descent Rate [m/s]
# name 2 = sbeox0Mg/L: Oxygen, SBE 43 [mg/l]
# name 3 = sbeox0PS: Oxygen, SBE 43 [% saturation]
# name 4 = specc: Specific Conductance [uS/cm]
# name 5 = c0uS/cm: Conductivity [uS/cm]
# name 6 = flECO-AFL: Fluorescence, WET Labs ECO-AFL/FL [mg/m^3]
# name 7 = ph: pH
# name 8 = orp: Oxidation Reduction Potential [mV]
# name 9 = par/sat/log: PAR/Logarithmic, Satlantic
# name 10 = turbWETntu0: Turbidity, WET Labs ECO [NTU]
# name 11 = prdM: Pressure, Strain Gauge [db]
# name 12 = prdE: Pressure, Strain Gauge [psi]
# name 13 = tv290C: Temperature [ITS-90, deg C]
# name 14 = flag:  0.000e+00
# span 0 =     -0.241,      5.435       
# span 1 =     -0.064,      0.160       
# span 2 =     5.4199,     8.5873       
# span 3 =     64.323,    107.676       
# span 4 =     41.272,     67.905       
# span 5 =  43.181423,  58.332726       
# span 6 =    -0.0736,    48.1868       
# span 7 =      7.597,      7.878       
# span 8 =    18.1634,   128.9585       
# span 9 = 1.2351e-01, 2.7199e+03       
# span 10 =    -0.0443,    54.4692      
# span 11 =     -0.252,      5.331      
# span 12 =     -0.367,      7.731      
# span 13 =    17.0419,    28.1469      
# span 14 = 0.0000e+00, 0.0000e+00      
# interval = seconds: 0.25
# start_time = Aug 05 2024 12:53:57 [Instrument's time stamp, header]
# bad_flag = -9.990e-29
# <Sensors count="9" >
#   <sensor Channel="1" >
#     <!-- Count, Temperature -->
#     <TemperatureSensor SensorID="58" >
#       <SerialNumber>7809</SerialNumber>
#       <CalibrationDate>31-Jan-23</CalibrationDate>
#       <A0>1.21823180e-003</A0>
#       <A1>2.81508993e-004</A1>
#       <A2>-1.57888696e-006</A2>
#       <A3>1.97234302e-007</A3>
#       <Slope>1.00000000</Slope>
#       <Offset>0.0000</Offset>
#     </TemperatureSensor>
#   </sensor>
#   <sensor Channel="2" >
#     <!-- Frequency 0, Conductivity -->
#     <ConductivitySensor SensorID="3" >
#       <SerialNumber>7809</SerialNumber>
#       <CalibrationDate>31-Jan-23</CalibrationDate>
#       <UseG_J>1</UseG_J>
#       <!-- Cell const and series R are applicable only for wide range sensors. -->
#       <SeriesR>0.0000</SeriesR>
#       <CellConst>2000.0000</CellConst>
#       <ConductivityType>0</ConductivityType>
#       <Coefficients equation="0" >
#         <A>0.00000000e+000</A>
#         <B>0.00000000e+000</B>
#         <C>0.00000000e+000</C>
#         <D>0.00000000e+000</D>
#         <M>0.0</M>
#         <CPcor>-9.57000000e-008</CPcor>
#       </Coefficients>
#       <Coefficients equation="1" >
#         <G>-1.00565232e+000</G>
#         <H>1.26796307e-001</H>
#         <I>-1.56170788e-004</I>
#         <J>2.64594368e-005</J>
#         <CPcor>-9.57000000e-008</CPcor>
#         <CTcor>3.2500e-006</CTcor>
#         <!-- WBOTC not applicable unless ConductivityType = 1. -->
#         <WBOTC>0.00000000e+000</WBOTC>
#       </Coefficients>
#       <Slope>1.00000000</Slope>
#       <Offset>0.00000</Offset>
#     </ConductivitySensor>
#   </sensor>
#   <sensor Channel="3" >
#     <!-- Count, Pressure, Strain Gauge -->
#     <PressureSensor SensorID="46" >
#       <SerialNumber>7809</SerialNumber>
#       <CalibrationDate>20-Jan-23</CalibrationDate>
#       <PA0>4.41643944e-002</PA0>
#       <PA1>4.85050239e-004</PA1>
#       <PA2>-3.09042623e-012</PA2>
#       <PTEMPA0>-5.47081996e+001</PTEMPA0>
#       <PTEMPA1>5.48542136e+001</PTEMPA1>
#       <PTEMPA2>-3.44657813e-001</PTEMPA2>
#       <PTCA0>5.25475731e+005</PTCA0>
#       <PTCA1>1.05025484e+001</PTCA1>
#       <PTCA2>-2.92243463e-001</PTCA2>
#       <PTCB0>2.51668750e+001</PTCB0>
#       <PTCB1>3.75000000e-004</PTCB1>
#       <PTCB2>0.00000000e+000</PTCB2>
#       <Offset>0.000000</Offset>
#     </PressureSensor>
#   </sensor>
#   <sensor Channel="4" >
#     <!-- A/D voltage 0, Oxygen, SBE 43 -->
#     <OxygenSensor SensorID="38" >
#       <SerialNumber>0434</SerialNumber>
#       <CalibrationDate>18-Feb-23</CalibrationDate>
#       <Use2007Equation>1</Use2007Equation>
#       <CalibrationCoefficients equation="0" >
#         <!-- Coefficients for Owens-Millard equation. -->
#         <Boc>0.0000</Boc>
#         <Soc>0.0000e+000</Soc>
#         <offset>0.0000</offset>
#         <Pcor>0.00e+000</Pcor>
#         <Tcor>0.0000</Tcor>
#         <Tau>0.0</Tau>
#       </CalibrationCoefficients>
#       <CalibrationCoefficients equation="1" >
#         <!-- Coefficients for Sea-Bird equation - SBE calibration in 2007 and later. -->
#         <Soc>5.1878e-001</Soc>
#         <offset>-0.5046</offset>
#         <A>-4.2788e-003</A>
#         <B> 1.5372e-004</B>
#         <C>-2.1853e-006</C>
#         <D0> 2.5826e+000</D0>
#         <D1> 1.92634e-004</D1>
#         <D2>-4.64803e-002</D2>
#         <E> 3.6000e-002</E>
#         <Tau20> 0.9900</Tau20>
#         <H1>-3.3000e-002</H1>
#         <H2> 5.0000e+003</H2>
#         <H3> 1.4500e+003</H3>
#       </CalibrationCoefficients>
#     </OxygenSensor>
#   </sensor>
#   <sensor Channel="5" >
#     <!-- A/D voltage 1, PAR/Logarithmic, Satlantic -->
#     <PARLog_SatlanticSensor SensorID="76" >
#       <SerialNumber>1122</SerialNumber>
#       <CalibrationDate>08-Sep-2021</CalibrationDate>
#       <a0>9.6751e-001</a0>
#       <a1>8.0992e-001</a1>
#       <Im>1.3589e+000</Im>
#       <Multiplier>1.0000e+000</Multiplier>
#     </PARLog_SatlanticSensor>
#   </sensor>
#   <sensor Channel="6" >
#     <!-- A/D voltage 2, pH -->
#     <pH_Sensor SensorID="43" >
#       <SerialNumber>0363</SerialNumber>
#       <CalibrationDate>28-Feb-23</CalibrationDate>
#       <Slope>4.7364</Slope>
#       <Offset>2.5433</Offset>
#     </pH_Sensor>
#   </sensor>
#   <sensor Channel="7" >
#     <!-- A/D voltage 3, Oxidation Reduction Potential -->
#     <OxidationReductionPotentialSensor SensorID="41" >
#       <SerialNumber>0363</SerialNumber>
#       <CalibrationDate>28-Feb-23</CalibrationDate>
#       <B>2.499480</B>
#       <M>-0.496195</M>
#       <Offset>0.0</Offset>
#     </OxidationReductionPotentialSensor>
#   </sensor>
#   <sensor Channel="8" >
#     <!-- A/D voltage 4, Fluorometer, WET Labs ECO-AFL/FL -->
#     <FluoroWetlabECO_AFL_FL_Sensor SensorID="20" >
#       <SerialNumber>FLNTURT-2496</SerialNumber>
#       <CalibrationDate>02-Sep-2021</CalibrationDate>
#       <ScaleFactor>4.80000000e+001</ScaleFactor>
#       <!-- Dark output -->
#       <Vblank>0.0550</Vblank>
#     </FluoroWetlabECO_AFL_FL_Sensor>
#   </sensor>
#   <sensor Channel="9" >
#     <!-- A/D voltage 5, Turbidity Meter, WET Labs, ECO-NTU -->
#     <TurbidityMeter SensorID="67" >
#       <SerialNumber>FLNTURT--2496</SerialNumber>
#       <CalibrationDate>02-Sep-2021</CalibrationDate>
#       <ScaleFactor>197.000000</ScaleFactor>
#       <!-- Dark output -->
#       <DarkVoltage>0.070000</DarkVoltage>
#     </TurbidityMeter>
#   </sensor>
# </Sensors>
# datcnv_date = Aug 05 2024 17:39:11, 7.26.7.129 [datcnv_vars = 14]
# datcnv_in = C:\R\Reservoirs\Data\DataNotYetUploadedToEDI\Raw_CTD\RawDownloads\080524_fcr30_S7809004.hex C:\R\Reservoirs\Data\DataNotYetUploadedToEDI\Raw_CTD\RawDownloads\SBE19plusV2_7809_start20230701.xmlcon
# datcnv_skipover = 0
# datcnv_ox_hysteresis_correction = yes
# datcnv_ox_tau_correction = yes
# filter_date = Aug 05 2024 17:40:42, 7.26.7.129
# filter_in = C:\R\Reservoirs\Data\DataNotYetUploadedToEDI\Raw_CTD\RawDownloads\080524_fcr30_S7809004.cnv
# filter_low_pass_tc_A = 0.030
# filter_low_pass_tc_B = 0.150
# filter_low_pass_A_vars = sbeox0Mg/L prdM prdE tv290C
# filter_low_pass_B_vars = depFM dz/dtM sbeox0PS specc c0uS/cm flECO-AFL ph orp par/sat/log turbWETntu0
# alignctd_date = Aug 05 2024 17:41:31, 7.26.7.129
# alignctd_in = C:\R\Reservoirs\Data\DataNotYetUploadedToEDI\Raw_CTD\RawDownloads\080524_fcr30_S7809004.cnv
# alignctd_adv = dz/dtM 1.000, sbeox0PS 1.000, specc 1.000, c0uS/cm 1.000, flECO-AFL 1.000, ph 1.000, orp 1.000, turbWETntu0 1.000                                                                                                   
# file_type = ascii
*END*
     -0.241      0.114     7.3357     95.898     41.669  44.225731     4.3810      7.749    18.1634 2.1418e+03     7.2433     -0.252     -0.367    28.0980 0.0000e+00
     -0.193      0.138     7.3614     96.492     41.834  44.372272     4.4145      7.732    18.9942 2.1023e+03     7.2497     -0.193     -0.282    28.1406 0.0000e+00
     -0.133      0.153     7.3986     97.013     41.998  44.519102     4.6497      7.717    19.8413 1.8158e+03     7.3009     -0.124     -0.181    28.1469 0.0000e+00
     -0.080      0.160     7.4424     97.434     42.049  44.541075     5.0699      7.699    20.7481 1.1891e+03     7.3505     -0.074     -0.107    28.1013 0.0000e+00
     -0.041      0.157     7.4981     97.815     42.001  44.447469     5.3087      7.679    21.0111 7.2241e+02     7.3366     -0.036     -0.051    28.0587 0.0000e+00
     -0.014      0.142     7.5509     98.206     41.942  44.339379     5.3309      7.663    21.2134 6.6983e+02     7.3036     -0.014     -0.020    28.0236 0.0000e+00
      0.012      0.117     7.5964     98.527     41.895  44.249712     5.3135      7.650    22.1614 7.5841e+02     7.2250      0.007      0.009    27.9986 0.0000e+00
      0.049      0.085     7.6325     98.689     41.865  44.188415     5.3475      7.638    23.4402 8.5274e+02     7.1383      0.046      0.066    27.9619 0.0000e+00
      0.088      0.050     7.6658     98.673     41.865  44.169479     5.4429      7.628    24.5434 9.1297e+02     7.1095      0.096      0.139    27.9064 0.0000e+00
      0.105      0.014     7.7092     98.503     41.856  44.147678     5.5010      7.618    25.3477 9.3122e+02     7.0812      0.114      0.165    27.8482 0.0000e+00
      0.095     -0.021     7.7441     98.248     41.835  44.115224     5.4841      7.612    26.0233 9.5915e+02     7.0357      0.098      0.142    27.7969 0.0000e+00
      0.067     -0.050     7.7609     97.956     41.823  44.094443     5.2969      7.607    26.6027 9.9023e+02     7.0721      0.068      0.099    27.7634 0.0000e+00
      0.035     -0.064     7.7628     97.658     41.821  44.086824     4.9854      7.606    27.1907 1.2221e+03     7.2136      0.031      0.045    27.7442 0.0000e+00
      0.010     -0.061     7.7480     97.407     41.828  44.086570     4.8225      7.607    27.8849 2.0861e+03     7.3114      0.005      0.007    27.7307 0.0000e+00
     -0.005     -0.044     7.7287     97.234     41.843  44.091363     4.8086      7.609    28.6294 2.7199e+03     7.3325     -0.007     -0.011    27.7179 0.0000e+00
     -0.011     -0.023     7.7073     97.160     41.840  44.081277     4.7679      7.611    29.3951 2.1524e+03     7.3322     -0.015     -0.021    27.7064 0.0000e+00
     -0.008     -0.004     7.6817     97.176     41.792  44.028084     4.6799      7.614    30.0017 1.5614e+03     7.3073     -0.010     -0.014    27.7045 0.0000e+00
     -0.002      0.007     7.6627     97.223     41.729  43.956007     4.6356      7.617    30.4573 1.5426e+03     7.3045     -0.001     -0.001    27.6960 0.0000e+00
      0.005      0.011     7.6513     97.275     41.691  43.908004     4.6485      7.620    31.0312 1.5250e+03     7.3326      0.005      0.007    27.6760 0.0000e+00
      0.010      0.010     7.6452     97.334     41.683  43.891989     4.7358      7.622    31.6930 1.4262e+03     7.3407      0.011      0.015    27.6699 0.0000e+00
      0.012      0.008     7.6501     97.382     41.687  43.889308     4.8829      7.623    32.3505 1.4127e+03     7.3002      0.013      0.019    27.6705 0.0000e+00
      0.012      0.008     7.6548     97.420     41.678  43.875574     4.9535      7.624    33.1301 1.5036e+03     7.2176      0.012      0.018    27.6626 0.0000e+00
      0.009      0.010     7.6597     97.469     41.661  43.852880     4.9650      7.624    33.8911 1.5045e+03     7.1957      0.008      0.012    27.6514 0.0000e+00
      0.008      0.012     7.6672     97.546     41.682  43.868804     5.0977      7.624    34.6692 1.4436e+03     7.1717      0.005      0.007    27.6420 0.0000e+00
      0.013      0.012     7.6714     97.634     41.763  43.941152     5.3432      7.621    35.7409 1.4107e+03     7.0645      0.010      0.014    27.6345 0.0000e+00
      0.024      0.008     7.6748     97.699     41.813  43.965924     5.4690      7.614    36.9547 1.3600e+03     6.9932      0.025      0.036    27.6289 0.0000e+00
      0.032      0.001     7.6781     97.693     41.798  43.914386     5.4620      7.607    37.9021 1.2871e+03     6.9585      0.034      0.049    27.6245 0.0000e+00
      0.033     -0.008     7.6858     97.594     41.858  43.952694     5.4668      7.601    38.6780 1.1648e+03     6.9522      0.035      0.050    27.6193 0.0000e+00
      0.027     -0.015     7.6949     97.449     42.005  44.111690     5.5845      7.598    39.5386 1.0946e+03     7.0539      0.030      0.043    27.6102 0.0000e+00
      0.013     -0.019     7.7065     97.325     42.045  44.186466     5.7874      7.597    40.1343 1.2851e+03     7.2316      0.012      0.017    27.5737 0.0000e+00
     -0.001     -0.020     7.7148     97.246     41.914  44.095158     5.8805      7.598    40.2880 1.5259e+03     7.2910     -0.005     -0.009    27.5193 0.0000e+00
     -0.005     -0.019     7.7098     97.184     41.809  44.023358     5.8610      7.601    40.4497 1.5303e+03     7.2245     -0.008     -0.012    27.4837 0.0000e+00
     -0.001     -0.015     7.6958     97.125     41.841  44.080102     5.8355      7.604    40.9715 1.3688e+03     7.2139     -0.001     -0.001    27.4859 0.0000e+00
      0.004     -0.010     7.6784     97.078     41.895  44.146537     5.8046      7.609    41.5205 1.3006e+03     7.2656      0.008      0.011    27.5352 0.0000e+00
     -0.001     -0.005     7.6651     97.055     41.873  44.128407     5.7789      7.614    41.8394 1.2872e+03     7.3028      0.002      0.003    27.5985 0.0000e+00
     -0.011      0.000     7.6536     97.077     41.794  44.051334     5.7659      7.618    42.0744 1.0951e+03     7.2875     -0.015     -0.021    27.6496 0.0000e+00
     -0.016      0.006     7.6448     97.137     41.715  43.976358     5.7135      7.622    42.2965 9.2164e+02     7.2511     -0.019     -0.027    27.6762 0.0000e+00
     -0.012      0.016     7.6407     97.217     41.656  43.920107     5.6365      7.624    42.6314 9.8974e+02     7.2729     -0.012     -0.018    27.6805 0.0000e+00
     -0.003      0.029     7.6367     97.317     41.615  43.879001     5.6171      7.626    43.0260 1.3716e+03     7.3455     -0.003     -0.005    27.6858 0.0000e+00
      0.008      0.040     7.6382     97.448     41.597  43.860194     5.6292      7.628    43.3687 1.5339e+03     7.3778      0.007      0.011    27.6933 0.0000e+00
      0.021      0.047     7.6419     97.605     41.561  43.819667     5.6332      7.630    43.7630 1.2031e+03     7.3223      0.020      0.030    27.7043 0.0000e+00
      0.035      0.048     7.6473     97.768     41.519  43.769822     5.6408      7.632    44.0940 1.0792e+03     7.2558      0.035      0.052    27.7124 0.0000e+00
      0.049      0.045     7.6542     97.932     41.524  43.765310     5.6545      7.636    44.1870 1.1232e+03     7.2565      0.047      0.070    27.7139 0.0000e+00
      0.064      0.038     7.6645     98.064     41.535  43.765091     5.6825      7.640    44.1990 1.1474e+03     7.2970      0.064      0.092    27.7146 0.0000e+00
      0.075      0.029     7.6787     98.139     41.550  43.767163     5.8291      7.644    44.3259 1.3986e+03     7.2669      0.075      0.110    27.7109 0.0000e+00
      0.080      0.019     7.6915     98.165     41.583  43.790328     6.0788      7.648    44.6887 1.6258e+03     7.1314      0.078      0.113    27.7044 0.0000e+00
      0.081      0.010     7.7071     98.154     41.590  43.791271     6.2044      7.653    45.1439 1.5818e+03     6.9904      0.080      0.117    27.6944 0.0000e+00
      0.080      0.003     7.7211     98.128     41.580  43.778557     6.2239      7.657    45.5279 1.4829e+03     6.9629      0.079      0.115    27.6793 0.0000e+00
      0.077     -0.002     7.7283     98.094     41.568  43.763544     6.2486      7.659    46.0622 1.4334e+03     7.0377      0.075      0.108    27.6597 0.0000e+00
      0.076     -0.002     7.7329     98.052     41.544  43.736699     6.3197      7.662    46.6141 1.3909e+03     7.0747      0.074      0.108    27.6443 0.0000e+00
      0.075     -0.001     7.7314     98.013     41.518  43.707869     6.4417      7.666    46.8664 1.3719e+03     7.0354      0.074      0.107    27.6399 0.0000e+00
      0.075      0.002     7.7295     97.988     41.482  43.668851     6.5015      7.670    46.9610 1.3606e+03     6.9715      0.072      0.105    27.6370 0.0000e+00
      0.076      0.002     7.7281     97.991     41.461  43.645772     6.5177      7.674    46.9838 1.3486e+03     6.9515      0.073      0.106    27.6340 0.0000e+00
      0.078     -0.004     7.7235     98.001     41.503  43.682722     6.5877      7.676    46.9696 1.3320e+03     7.0668      0.075      0.109    27.6327 0.0000e+00
      0.081     -0.017     7.7216     97.956     41.576  43.734750     6.6908      7.677    47.2199 1.3265e+03     7.2391      0.079      0.115    27.6313 0.0000e+00
      0.081     -0.030     7.7182     97.836     41.641  43.767020     6.7405      7.677    47.8591 1.3439e+03     7.2582      0.082      0.119    27.6298 0.0000e+00
      0.074     -0.038     7.7194     97.683     41.711  43.818935     6.7143      7.676    48.6751 1.3319e+03     7.1952      0.079      0.115    27.6294 0.0000e+00
      0.054     -0.038     7.7226     97.522     41.741  43.854633     6.4983      7.672    49.5146 1.3396e+03     7.2291      0.058      0.082    27.6284 0.0000e+00
      0.026     -0.028     7.7244     97.391     41.688  43.817807     6.1184      7.667    50.2668 1.4387e+03     7.2922      0.020      0.030    27.5968 0.0000e+00
      0.010     -0.009     7.7204     97.370     41.607  43.754550     5.9161      7.663    50.8002 1.4521e+03     7.3095      0.002      0.004    27.5386 0.0000e+00
      0.013      0.014     7.7125     97.477     41.568  43.724573     5.9170      7.662    51.2313 1.2306e+03     7.2670      0.008      0.011    27.5071 0.0000e+00
      0.030      0.035     7.6982     97.653     41.568  43.709261     6.0878      7.664    51.6076 1.0597e+03     7.1885      0.026      0.037    27.5191 0.0000e+00
      0.055      0.049     7.6800     97.845     41.583  43.696332     6.4162      7.667    51.9087 1.2599e+03     7.2143      0.054      0.079    27.5471 0.0000e+00
      0.077      0.052     7.6737     98.032     41.604  43.695150     6.6167      7.672    52.2902 1.4616e+03     7.3055      0.079      0.115    27.5784 0.0000e+00
      0.091      0.044     7.6813     98.182     41.617  43.694940     6.6566      7.677    52.6922 1.4225e+03     7.3349      0.092      0.133    27.6024 0.0000e+00
      0.096      0.032     7.7006     98.282     41.621  43.693765     6.6901      7.682    52.9846 1.4076e+03     7.2967      0.096      0.138    27.5764 0.0000e+00
      0.098      0.020     7.7220     98.335     41.609  43.680940     6.7475      7.686    53.2441 1.3971e+03     7.2197      0.096      0.140    27.5286 0.0000e+00
      0.100      0.012     7.7418     98.335     41.596  43.666815     6.8011      7.690    53.5071 1.3400e+03     7.2222      0.098      0.142    27.5023 0.0000e+00
      0.102      0.008     7.7560     98.318     41.582  43.649939     6.8303      7.693    53.8407 1.3470e+03     7.2939      0.100      0.144    27.4870 0.0000e+00
      0.103      0.006     7.7642     98.369     41.542  43.603829     6.8758      7.696    54.2662 1.3645e+03     7.3685      0.101      0.146    27.4808 0.0000e+00
      0.104      0.006     7.7689     98.457     41.499  43.553609     6.9430      7.700    54.6943 1.3182e+03     7.4405      0.102      0.148    27.4832 0.0000e+00
      0.106      0.006     7.7686     98.478     41.500  43.550513     6.9682      7.704    55.1455 1.2727e+03     7.4475      0.104      0.152    27.4850 0.0000e+00
      0.108      0.005     7.7626     98.405     41.518  43.566383     6.9730      7.707    55.5050 1.2540e+03     7.4543      0.107      0.155    27.4821 0.0000e+00
      0.110      0.004     7.7686     98.277     41.508  43.555071     6.9844      7.709    55.6858 1.2547e+03     7.4875      0.108      0.157    27.4765 0.0000e+00
      0.110      0.002     7.7824     98.228     41.496  43.540682     6.9811      7.710    55.6970 1.2619e+03     7.4052      0.108      0.157    27.4695 0.0000e+00
      0.110     -0.001     7.7826     98.289     41.477  43.519354     6.9743      7.711    55.7259 1.2625e+03     7.1768      0.108      0.157    27.4639 0.0000e+00
      0.110     -0.006     7.7793     98.309     41.448  43.487608     6.9611      7.712    56.0355 1.2882e+03     6.9805      0.108      0.157    27.4605 0.0000e+00
      0.110     -0.010     7.7628     98.229     41.437  43.474213     6.9551      7.713    56.4287 1.3036e+03     6.9786      0.109      0.159    27.4588 0.0000e+00
      0.107     -0.011     7.7563     98.141     41.449  43.484337     6.9343      7.713    56.8672 1.2866e+03     7.1193      0.107      0.156    27.4580 0.0000e+00
      0.101     -0.007     7.7707     98.155     41.450  43.483057     6.8758      7.711    57.5516 1.2676e+03     7.2470      0.099      0.143    27.4563 0.0000e+00
      0.095      0.000     7.7720     98.238     41.428  43.458733     6.8224      7.706    58.5090 1.2788e+03     7.2591      0.091      0.132    27.4539 0.0000e+00
      0.091      0.010     7.7646     98.303     41.417  43.444133     6.7965      7.701    59.4080 1.3169e+03     7.1967      0.088      0.126    27.4519 0.0000e+00
      0.095      0.020     7.7515     98.341     41.413  43.433468     6.8623      7.697    59.9035 1.3285e+03     7.1419      0.090      0.130    27.4490 0.0000e+00
      0.108      0.030     7.7563     98.421     41.444  43.456724     7.0106      7.696    60.1982 1.2775e+03     7.1089      0.105      0.152    27.4465 0.0000e+00
      0.123      0.037     7.7659     98.553     41.524  43.534886     7.1000      7.696    60.4757 1.2003e+03     7.1049      0.123      0.177    27.4447 0.0000e+00
      0.134      0.042     7.7717     98.664     41.601  43.616833     7.1030      7.697    60.7644 1.1846e+03     7.0938      0.133      0.192    27.4425 0.0000e+00
      0.143      0.046     7.7732     98.786     41.597  43.622392     7.1124      7.697    61.1078 1.2377e+03     7.1120      0.140      0.204    27.4352 0.0000e+00
      0.151      0.047     7.7788     98.934     41.504  43.538639     7.1718      7.697    61.5301 1.2885e+03     7.2568      0.148      0.214    27.4209 0.0000e+00
      0.161      0.046     7.7981     99.094     41.451  43.492828     7.2218      7.699    61.8262 1.2428e+03     7.4089      0.155      0.226    27.4111 0.0000e+00
      0.176      0.043     7.8008     99.260     41.476  43.512820     7.2260      7.703    61.9351 1.1088e+03     7.4479      0.172      0.250    27.4133 0.0000e+00
      0.195      0.034     7.8105     99.387     41.510  43.526455     7.2399      7.707    62.1589 9.7308e+02     7.3530      0.192      0.278    27.4252 0.0000e+00
      0.208      0.019     7.8199     99.428     41.534  43.530702     7.2812      7.712    62.4667 8.9522e+02     7.1157      0.208      0.301    27.4442 0.0000e+00
      0.213      0.002     7.8285     99.374     41.577  43.564151     7.3090      7.715    62.7312 8.5899e+02     6.9701      0.211      0.306    27.4661 0.0000e+00
      0.208     -0.013     7.8452     99.255     41.632  43.613501     7.3181      7.717    63.0339 8.1271e+02     7.0274      0.207      0.300    27.4586 0.0000e+00
      0.195     -0.021     7.8617     99.108     41.639  43.619589     7.3169      7.719    63.3729 8.2607e+02     7.0561      0.195      0.282    27.4181 0.0000e+00
      0.177     -0.020     7.8694     98.992     41.592  43.574280     7.2943      7.722    63.7337 9.3287e+02     7.0444      0.171      0.248    27.3925 0.0000e+00
      0.166     -0.012     7.8645     98.940     41.523  43.509989     7.2531      7.726    64.1264 1.0278e+03     7.1245      0.157      0.229    27.3825 0.0000e+00
      0.167     -0.001     7.8569     98.949     41.483  43.476994     7.2348      7.731    64.5073 1.0281e+03     7.2051      0.161      0.234    27.3714 0.0000e+00
      0.176      0.010     7.8429     98.994     41.495  43.492723     7.2475      7.735    64.8117 9.7952e+02     7.2681      0.172      0.249    27.3686 0.0000e+00
      0.186      0.015     7.8324     99.051     41.517  43.509748     7.2740      7.739    64.9672 9.5572e+02     7.3049      0.183      0.266    27.3755 0.0000e+00
      0.195      0.014     7.8268     99.096     41.507  43.492422     7.3051      7.742    65.0113 9.3590e+02     7.1719      0.193      0.281    27.3852 0.0000e+00
      0.199      0.009     7.8263     99.108     41.493  43.473640     7.3077      7.745    65.0870 9.2044e+02     6.9916      0.198      0.287    27.4007 0.0000e+00
      0.197      0.003     7.8298     99.105     41.496  43.473067     7.3052      7.749    65.2802 9.1697e+02     7.0038      0.193      0.280    27.4064 0.0000e+00
      0.193     -0.000     7.8362     99.097     41.510  43.485491     7.2921      7.753    65.5397 8.9899e+02     7.2169      0.188      0.273    27.3924 0.0000e+00
      0.189     -0.000     7.8429     99.097     41.523  43.496903     7.2402      7.755    65.8160 9.0596e+02     7.4509      0.184      0.268    27.3842 0.0000e+00
      0.187      0.002     7.8425     99.129     41.511  43.484102     7.2013      7.758    66.0396 9.3958e+02     7.5104      0.182      0.264    27.3801 0.0000e+00
      0.191      0.006     7.8435     99.164     41.486  43.457654     7.1972      7.761    66.2638 9.4850e+02     7.4578      0.187      0.271    27.3742 0.0000e+00
      0.196      0.007     7.8430     99.178     41.459  43.431016     7.2494      7.764    66.5481 9.3140e+02     7.3611      0.193      0.280    27.3730 0.0000e+00
      0.200      0.005     7.8412     99.188     41.444  43.415920     7.3412      7.766    66.7245 8.9695e+02     7.1958      0.195      0.283    27.3710 0.0000e+00
      0.202      0.000     7.8461     99.193     41.430  43.402073     7.3910      7.767    66.9332 8.6537e+02     7.0978      0.199      0.288    27.3690 0.0000e+00
      0.202     -0.010     7.8496     99.159     41.420  43.390545     7.3852      7.769    67.2652 8.8108e+02     7.0646      0.198      0.289    27.3692 0.0000e+00
      0.200     -0.022     7.8491     99.073     41.436  43.403479     7.3042      7.770    67.3837 9.6247e+02     7.0006      0.196      0.286    27.3709 0.0000e+00
      0.194     -0.032     7.8497     98.948     41.466  43.431510     7.1783      7.769    67.6771 1.0512e+03     6.9730      0.192      0.280    27.3732 0.0000e+00
      0.182     -0.036     7.8514     98.793     41.510  43.475566     7.1197      7.767    68.5752 1.0667e+03     7.0375      0.180      0.261    27.3751 0.0000e+00
      0.167     -0.027     7.8494     98.649     41.526  43.491836     7.1190      7.762    69.3809 1.0642e+03     7.0978      0.166      0.239    27.3734 0.0000e+00
      0.149     -0.007     7.8422     98.600     41.476  43.437815     7.1118      7.760    69.7605 1.0814e+03     7.0524      0.147      0.212    27.3677 0.0000e+00
      0.138      0.018     7.8334     98.689     41.436  43.393658     7.0659      7.760    69.9820 1.0301e+03     7.0357      0.125      0.182    27.3620 0.0000e+00
      0.148      0.041     7.8207     98.883     41.447  43.402234     7.0059      7.762    70.0805 9.5809e+02     7.1690      0.135      0.196    27.3600 0.0000e+00
      0.178      0.059     7.8060     99.138     41.460  43.414564     6.9854      7.765    70.2623 9.1584e+02     7.2973      0.175      0.253    27.3604 0.0000e+00
      0.211      0.069     7.8006     99.407     41.462  43.415779     6.9927      7.769    70.6318 8.5500e+02     7.3231      0.211      0.307    27.3593 0.0000e+00
      0.234      0.069     7.8103     99.648     41.465  43.416930     7.1024      7.774    71.0199 8.0448e+02     7.3101      0.233      0.338    27.3556 0.0000e+00
      0.247      0.060     7.8271     99.857     41.477  43.428478     7.3045      7.778    71.4282 7.9372e+02     7.2767      0.243      0.352    27.3505 0.0000e+00
      0.255      0.048     7.8485    100.002     41.479  43.428460     7.4144      7.780    71.8688 8.2412e+02     7.2616      0.250      0.362    27.3500 0.0000e+00
      0.261      0.040     7.8722    100.089     41.469  43.416711     7.4315      7.782    72.3890 9.0128e+02     7.2974      0.256      0.370    27.3499 0.0000e+00
      0.269      0.038     7.8898    100.176     41.467  43.413364     7.4953      7.785    73.0716 9.5537e+02     7.2662      0.263      0.381    27.3476 0.0000e+00
      0.279      0.039     7.9089    100.262     41.444  43.387983     7.6034      7.787    73.7554 9.2330e+02     7.1227      0.273      0.395    27.3458 0.0000e+00
      0.290      0.042     7.9210    100.345     41.420  43.363721     7.6480      7.789    74.2904 8.6692e+02     6.9978      0.285      0.412    27.3441 0.0000e+00
      0.302      0.044     7.9242    100.455     41.429  43.373896     7.6434      7.791    74.8078 8.2422e+02     6.9519      0.296      0.430    27.3430 0.0000e+00
      0.314      0.045     7.9330    100.588     41.439  43.384073     7.6478      7.793    75.3647 7.8284e+02     7.0119      0.309      0.447    27.3405 0.0000e+00
      0.326      0.046     7.9404    100.713     41.417  43.359820     7.6596      7.795    75.8608 7.5296e+02     7.1416      0.320      0.464    27.3384 0.0000e+00
      0.337      0.050     7.9452    100.843     41.393  43.334544     7.6614      7.796    76.4189 7.2913e+02     7.1544      0.331      0.479    27.3388 0.0000e+00
      0.347      0.055     7.9539    100.998     41.392  43.332351     7.6442      7.796    77.1225 7.0538e+02     7.0290      0.341      0.493    27.3400 0.0000e+00
      0.360      0.064     7.9663    101.181     41.394  43.333296     7.6107      7.794    77.9147 6.8627e+02     6.9924      0.352      0.509    27.3401 0.0000e+00
      0.376      0.075     7.9753    101.390     41.407  43.345971     7.5712      7.791    78.7711 6.7363e+02     7.1557      0.367      0.532    27.3395 0.0000e+00
      0.396      0.085     7.9848    101.620     41.419  43.358661     7.5577      7.788    79.4744 6.7316e+02     7.3301      0.387      0.561    27.3382 0.0000e+00
      0.421      0.095     7.9978    101.875     41.421  43.359796     7.5561      7.787    79.9652 6.9000e+02     7.3248      0.413      0.599    27.3369 0.0000e+00
      0.450      0.101     8.0120    102.155     41.421  43.359682     7.5512      7.787    80.4040 6.9671e+02     7.2288      0.441      0.639    27.3360 0.0000e+00
      0.480      0.104     8.0291    102.461     41.419  43.357278     7.5732      7.788    80.8210 6.6720e+02     7.1254      0.471      0.682    27.3355 0.0000e+00
      0.508      0.104     8.0469    102.756     41.394  43.330726     7.6142      7.789    81.2225 6.2752e+02     7.0310      0.500      0.725    27.3352 0.0000e+00
      0.533      0.101     8.0679    103.023     41.359  43.292539     7.6400      7.792    81.6443 6.0088e+02     7.0094      0.523      0.759    27.3341 0.0000e+00
      0.558      0.097     8.0891    103.293     41.344  43.276392     7.6527      7.794    82.1350 5.7927e+02     7.0009      0.546      0.792    27.3332 0.0000e+00
      0.583      0.092     8.1150    103.542     41.331  43.262439     7.6669      7.796    82.5955 5.5929e+02     6.9972      0.572      0.830    27.3323 0.0000e+00
      0.606      0.087     8.1402    103.754     41.321  43.250765     7.6866      7.797    82.9106 5.4715e+02     7.0330      0.594      0.862    27.3315 0.0000e+00
      0.627      0.081     8.1581    103.959     41.332  43.262189     7.6994      7.800    83.1919 5.3802e+02     7.0918      0.615      0.892    27.3314 0.0000e+00
      0.648      0.074     8.1817    104.136     41.343  43.273623     7.7140      7.803    83.5010 5.1950e+02     7.1610      0.637      0.924    27.3312 0.0000e+00
      0.667      0.067     8.2027    104.275     41.332  43.262072     7.7881      7.806    83.8091 4.9855e+02     7.1183      0.657      0.953    27.3298 0.0000e+00
      0.682      0.061     8.2166    104.398     41.321  43.249472     7.8962      7.809    84.0776 4.8446e+02     6.9863      0.670      0.971    27.3287 0.0000e+00
      0.694      0.056     8.2352    104.500     41.321  43.248213     7.9391      7.811    84.2526 4.7258e+02     6.9306      0.680      0.986    27.3286 0.0000e+00
      0.707      0.052     8.2496    104.590     41.320  43.246852     7.9325      7.815    84.4626 4.6225e+02     6.9568      0.693      1.006    27.3284 0.0000e+00
      0.720      0.050     8.2589    104.681     41.307  43.233005     7.9657      7.816    84.7230 4.5730e+02     7.0306      0.706      1.025    27.3277 0.0000e+00
      0.732      0.048     8.2701    104.766     41.284  43.207739     8.0243      7.817    84.9062 4.5562e+02     7.0716      0.718      1.042    27.3266 0.0000e+00
      0.745      0.047     8.2777    104.846     41.272  43.195243     8.0422      7.818    85.1286 4.5690e+02     7.0071      0.731      1.060    27.3254 0.0000e+00
      0.759      0.045     8.2842    104.936     41.286  43.208863     8.0487      7.820    85.4331 4.6155e+02     6.9342      0.745      1.081    27.3249 0.0000e+00
      0.769      0.045     8.2922    105.040     41.322  43.245468     8.1193      7.821    85.8345 4.5952e+02     6.9759      0.756      1.096    27.3243 0.0000e+00
      0.779      0.049     8.2989    105.159     41.334  43.257008     8.2300      7.821    86.2822 4.5033e+02     7.0674      0.763      1.107    27.3239 0.0000e+00
      0.789      0.056     8.3046    105.298     41.302  43.221441     8.2805      7.820    86.6306 4.4357e+02     7.0509      0.774      1.123    27.3235 0.0000e+00
      0.799      0.064     8.3121    105.459     41.282  43.196263     8.2813      7.820    86.9495 4.3822e+02     6.9806      0.782      1.134    27.3223 0.0000e+00
      0.815      0.069     8.3202    105.647     41.297  43.206461     8.3714      7.820    87.2130 4.2513e+02     6.9689      0.793      1.149    27.3215 0.0000e+00
      0.843      0.071     8.3299    105.851     41.315  43.217785     8.5626      7.822    87.3214 4.0648e+02     7.0127      0.827      1.198    27.3203 0.0000e+00
      0.872      0.069     8.3412    106.046     41.308  43.206226     8.6873      7.824    87.3997 3.9504e+02     7.0654      0.861      1.249    27.3173 0.0000e+00
      0.889      0.064     8.3544    106.213     41.298  43.193637     8.7063      7.827    87.5567 3.9085e+02     7.0600      0.875      1.268    27.3132 0.0000e+00
      0.899      0.057     8.3705    106.347     41.298  43.192513     8.6927      7.830    87.6719 3.8748e+02     7.0158      0.882      1.278    27.3048 0.0000e+00
      0.907      0.052     8.3891    106.465     41.298  43.192637     8.7147      7.831    87.8457 3.8313e+02     7.0427      0.889      1.290    27.2952 0.0000e+00
      0.917      0.052     8.4060    106.592     41.301  43.195135     8.7966      7.831    88.2814 3.7750e+02     7.1804      0.898      1.303    27.2900 0.0000e+00
      0.929      0.058     8.4198    106.752     41.327  43.222714     8.8590      7.831    88.8107 3.7237e+02     7.3154      0.910      1.321    27.2874 0.0000e+00
      0.943      0.062     8.4305    106.979     41.374  43.272213     8.8704      7.832    89.2545 3.6652e+02     7.3415      0.924      1.341    27.2870 0.0000e+00
      0.963      0.060     8.4374    107.157     41.389  43.285844     8.8672      7.834    89.6034 3.5469e+02     7.3938      0.941      1.366    27.2876 0.0000e+00
      0.988      0.050     8.4495    107.192     41.366  43.260571     8.8626      7.834    89.9318 3.4097e+02     7.5728      0.971      1.408    27.2872 0.0000e+00
      1.008      0.034     8.4573    107.189     41.329  43.220525     8.8551      7.836    90.2133 3.3509e+02     7.7286      0.995      1.443    27.2875 0.0000e+00
      1.015      0.017     8.4803    107.172     41.293  43.182481     8.8600      7.837    90.4264 3.3575e+02     7.8089      0.998      1.447    27.2877 0.0000e+00
      1.011      0.003     8.5016    107.111     41.292  43.181423     8.8971      7.837    90.7017 3.3852e+02     7.6553      0.991      1.438    27.2851 0.0000e+00
      1.001     -0.004     8.4955    107.038     41.317  43.207727     8.9458      7.837    90.9603 3.4457e+02     7.2382      0.983      1.426    27.2821 0.0000e+00
      0.989     -0.001     8.4976    107.003     41.353  43.246627     8.9658      7.838    91.1453 3.4963e+02     7.0010      0.969      1.405    27.2811 0.0000e+00
      0.984      0.009     8.4976    107.020     41.376  43.270942     8.9730      7.839    91.3030 3.4598e+02     7.0419      0.958      1.389    27.2816 0.0000e+00
      0.992      0.024     8.4911    107.085     41.353  43.247824     9.0826      7.841    91.4043 3.3760e+02     7.0841      0.970      1.407    27.2820 0.0000e+00
      1.007      0.037     8.4836    107.215     41.328  43.220995     9.2837      7.843    91.5103 3.3077e+02     7.0326      0.990      1.435    27.2815 0.0000e+00
      1.022      0.048     8.4804    107.453     41.433  43.327388     9.3817      7.844    91.7235 3.2509e+02     6.9668      1.002      1.453    27.2828 0.0000e+00
      1.037      0.055     8.4821    107.676     41.699  43.582124     9.3780      7.846    91.9177 3.2068e+02     6.9372      1.016      1.473    27.2848 0.0000e+00
      1.051      0.058     8.4869    107.301     41.943  43.762045     9.4213      7.848    92.0515 3.1658e+02     6.9468      1.031      1.496    27.2845 0.0000e+00
      1.063      0.059     8.4956    105.623     42.079  43.788920     9.5143      7.849    92.3081 3.1081e+02     7.0153      1.042      1.512    27.2828 0.0000e+00
      1.076      0.059     8.5138    102.748     42.168  43.779931     9.5612      7.851    92.6106 3.0348e+02     7.0486      1.052      1.526    27.2823 0.0000e+00
      1.093      0.057     8.5503     99.773     42.222  43.780144     9.5565      7.853    92.8711 2.9605e+02     7.0074      1.070      1.552    27.2792 0.0000e+00
      1.113      0.054     8.5616     97.565     42.254  43.791414     9.5486      7.854    93.2205 2.9030e+02     6.9952      1.093      1.586    27.1888 0.0000e+00
      1.129      0.050     8.4568     96.115     42.259  43.789214     9.5326      7.855    93.6514 2.8683e+02     7.0381      1.110      1.609    27.0129 0.0000e+00
      1.140      0.048     8.2029     95.260     42.230  43.753544     9.5130      7.856    94.1238 2.8418e+02     7.1153      1.119      1.622    26.8830 0.0000e+00
      1.146      0.046     7.9430     95.095     42.222  43.740955     9.5027      7.856    94.6296 2.8067e+02     7.1083      1.123      1.630    26.8242 0.0000e+00
      1.154      0.046     7.7801     95.688     42.244  43.763941     9.4995      7.856    94.9495 2.7575e+02     6.9884      1.130      1.637    26.8090 0.0000e+00
      1.165      0.050     7.6708     96.873     42.254  43.777570     9.5576      7.856    95.0652 2.6983e+02     6.9297      1.142      1.655    26.8058 0.0000e+00
      1.180      0.055     7.5974     98.333     42.254  43.778810     9.6650      7.857    95.1685 2.6365e+02     6.9799      1.157      1.678    26.7962 0.0000e+00
      1.197      0.060     7.5826     99.883     42.255  43.778933     9.7236      7.858    95.4245 2.5714e+02     7.0824      1.174      1.702    26.7893 0.0000e+00
      1.214      0.064     7.6338    101.493     42.257  43.779048     9.7588      7.860    95.8381 2.5059e+02     7.1105      1.191      1.727    26.7922 0.0000e+00
      1.230      0.068     7.7400    103.070     42.259  43.780193    10.0567      7.861    96.2111 2.4450e+02     7.0800      1.206      1.748    26.7989 0.0000e+00
      1.247      0.070     7.8615    104.352     42.271  43.792783    10.6042      7.862    96.4930 2.3924e+02     7.1578      1.222      1.774    26.7995 0.0000e+00
      1.264      0.073     7.9846    105.244     42.284  43.804325    10.9014      7.864    96.6647 2.3461e+02     7.2651      1.240      1.798    26.7967 0.0000e+00
      1.283      0.076     8.1154    106.070     42.276  43.792794    10.9457      7.866    96.8248 2.2901e+02     7.3189      1.256      1.823    26.7930 0.0000e+00
      1.304      0.078     8.2501    106.815     42.267  43.780309    11.1568      7.868    97.0516 2.2280e+02     7.5011      1.279      1.855    26.7930 0.0000e+00
      1.326      0.078     8.3620    106.595     42.272  43.780310    11.5313      7.870    97.3423 2.1753e+02     7.7942      1.300      1.886    26.7944 0.0000e+00
      1.347      0.077     8.4147    104.510     42.290  43.792797    11.7363      7.870    97.7581 2.1268e+02     7.9251      1.321      1.916    26.7930 0.0000e+00
      1.367      0.074     8.4760    100.687     42.305  43.804330    11.7618      7.870    98.1219 2.0808e+02     7.9571      1.342      1.946    26.7886 0.0000e+00
      1.385      0.069     8.5696     96.045     42.297  43.792798    11.8484      7.871    98.2993 2.0416e+02     8.0093      1.359      1.971    26.7841 0.0000e+00
      1.401      0.065     8.5873     91.294     42.288  43.780313    12.0019      7.872    98.5261 2.0057e+02     7.9762      1.373      1.992    26.7774 0.0000e+00
      1.416      0.060     8.4170     86.801     42.291  43.780315    12.0779      7.874    98.8853 1.9684e+02     7.9325      1.388      2.014    26.7696 0.0000e+00
      1.431      0.056     8.0730     82.775     42.306  43.792812    12.0931      7.874    99.2869 1.9308e+02     7.9595      1.405      2.037    26.7650 0.0000e+00
      1.446      0.052     7.6863     79.430     42.321  43.804458    12.2271      7.874    99.6822 1.8968e+02     7.9944      1.419      2.058    26.7630 0.0000e+00
      1.459      0.048     7.2971     77.010     42.314  43.794175    12.4744      7.874    99.8792 1.8660e+02     8.0468      1.431      2.076    26.7588 0.0000e+00
      1.470      0.045     6.9323     75.460     42.316  43.795424    12.6109      7.874    99.9473 1.8371e+02     8.0469      1.442      2.091    26.7538 0.0000e+00
      1.480      0.042     6.6086     74.480     42.342  43.819555    12.6128      7.874   100.0758 1.8104e+02     7.9613      1.452      2.107    26.7509 0.0000e+00
      1.490      0.040     6.3268     73.753     42.357  43.832041    12.6218      7.874   100.3133 1.7838e+02     7.9006      1.462      2.120    26.7453 0.0000e+00
      1.499      0.038     6.1395     73.124     42.347  43.819442    12.8864      7.874   100.6684 1.7565e+02     7.9271      1.470      2.133    26.7422 0.0000e+00
      1.509      0.036     6.0233     72.566     42.323  43.794166    13.3819      7.875   101.0146 1.7306e+02     8.0086      1.480      2.147    26.7429 0.0000e+00
      1.519      0.034     5.9564     72.024     42.311  43.780318    13.6609      7.875   101.2292 1.7084e+02     8.0328      1.490      2.162    26.7402 0.0000e+00
      1.528      0.032     5.9030     71.467     42.311  43.778956    13.7204      7.875   101.4569 1.6910e+02     8.0141      1.500      2.175    26.7340 0.0000e+00
      1.536      0.030     5.8504     70.879     42.310  43.777697    13.9599      7.876   101.7881 1.6770e+02     8.0216      1.506      2.184    26.7304 0.0000e+00
      1.543      0.028     5.8104     70.291     42.297  43.765097    14.3843      7.876   102.0509 1.6638e+02     8.0212      1.513      2.194    26.7317 0.0000e+00
      1.550      0.026     5.7655     69.751     42.286  43.753553    14.6322      7.877   102.2251 1.6530e+02     8.0097      1.519      2.204    26.7307 0.0000e+00
      1.556      0.024     5.7236     69.239     42.298  43.765073    14.6765      7.878   102.4311 1.6424e+02     8.0178      1.525      2.212    26.7279 0.0000e+00
      1.562      0.024     5.6749     68.710     42.310  43.777435    14.7456      7.878   102.8208 1.6305e+02     7.9486      1.532      2.221    26.7281 0.0000e+00
      1.567      0.027     5.6254     68.189     42.310  43.776071    14.8595      7.876   103.5819 1.6204e+02     7.7878      1.538      2.230    26.7280 0.0000e+00
      1.572      0.035     5.5837     67.848     42.288  43.748583    14.9135      7.871   104.9228 1.6093e+02     7.7476      1.541      2.235    26.7280 0.0000e+00
      1.578      0.045     5.5439     67.970     42.249  43.698960    14.9410      7.867   106.5575 1.5980e+02     7.8042      1.548      2.245    26.7285 0.0000e+00
      1.587      0.052     5.5024     68.820     42.236  43.683853    15.1342      7.863   107.7735 1.5729e+02     7.7214      1.553      2.251    26.7267 0.0000e+00
      1.605      0.057     5.4548     70.383     42.234  43.692874    15.4511      7.861   108.3545 1.5211e+02     7.5320      1.568      2.274    26.7276 0.0000e+00
      1.631      0.060     5.4199     72.403     42.216  43.681105    15.6093      7.861   108.5917 1.4777e+02     7.4265      1.605      2.328    26.7268 0.0000e+00
      1.651      0.063     5.4214     74.681     42.209  43.668505    15.6072      7.861   108.9210 1.4614e+02     7.4366      1.624      2.356    26.7065 0.0000e+00
      1.661      0.067     5.4902     77.015     42.218  43.667474    15.6258      7.861   109.4972 1.4463e+02     7.4836      1.627      2.361    26.6978 0.0000e+00
      1.670      0.067     5.6248     79.152     42.228  43.668620    15.6682      7.860   110.1374 1.4253e+02     7.4478      1.637      2.375    26.7247 0.0000e+00
      1.684      0.067     5.7881     80.951     42.248  43.682350    15.6779      7.860   110.7252 1.3937e+02     7.3458      1.648      2.390    26.7368 0.0000e+00
      1.707      0.070     5.9769     82.350     42.282  43.706513    15.6684      7.859   111.1832 1.3472e+02     7.2740      1.671      2.424    26.7230 0.0000e+00
      1.733      0.073     6.1750     83.392     42.307  43.706868    15.6614      7.857   111.5456 1.3115e+02     7.2294      1.703      2.471    26.7099 0.0000e+00
      1.753      0.071     6.3500     84.339     42.313  43.686602    15.6350      7.857   111.9241 1.2886e+02     7.1828      1.721      2.496    26.6996 0.0000e+00
      1.768      0.066     6.4965     85.293     42.349  43.715332    15.5910      7.857   112.4031 1.2608e+02     7.0864      1.731      2.510    26.6888 0.0000e+00
      1.785      0.064     6.6108     85.895     42.440  43.800336    15.5710      7.856   113.0352 1.2408e+02     7.0195      1.752      2.543    26.6877 0.0000e+00
      1.800      0.070     6.6873     85.841     42.518  43.825737    15.5592      7.855   113.5443 1.2340e+02     7.0239      1.768      2.565    26.6526 0.0000e+00
      1.807      0.085     6.7619     85.466     42.541  43.768466    15.4647      7.854   113.7404 1.2244e+02     6.9686      1.771      2.570    26.6011 0.0000e+00
      1.819      0.099     6.8541     85.355     42.544  43.742479    15.3197      7.852   113.9439 1.1921e+02     6.8626      1.776      2.576    26.6043 0.0000e+00
      1.850      0.107     6.9140     85.503     42.537  43.765377    15.2540      7.852   114.4555 1.1189e+02     6.8021      1.804      2.617    26.6219 0.0000e+00
      1.899      0.107     6.9069     85.608     42.542  43.791493    15.2445      7.852   115.0218 1.0364e+02     6.7824      1.866      2.708    26.5556 0.0000e+00
      1.943      0.100     6.8676     85.613     42.570  43.804380    15.2127      7.851   115.2847 9.9046e+01     6.7269      1.914      2.776    26.4029 0.0000e+00
      1.968      0.087     6.8684     85.352     42.589  43.794217    15.1772      7.850   115.3975 9.7100e+01     6.6438      1.934      2.805    26.3650 0.0000e+00
      1.979      0.071     6.8866     84.590     42.616  43.795510    15.1815      7.850   115.5248 9.6014e+01     6.6315      1.943      2.819    26.4536 0.0000e+00
      1.982      0.057     6.8833     83.310     42.660  43.819980    15.2062      7.851   115.4477 9.5063e+01     6.6468      1.942      2.816    26.4837 0.0000e+00
      1.987      0.052     6.8959     81.603     42.690  43.836140    15.2843      7.851   115.2397 9.3058e+01     6.6245      1.945      2.821    26.4458 0.0000e+00
      2.000      0.057     6.8904     79.654     42.730  43.863936    15.4189      7.852   115.2470 8.9939e+01     6.5669      1.960      2.842    26.4053 0.0000e+00
      2.019      0.067     6.8297     77.755     42.789  43.902143    15.4852      7.853   115.4498 8.6563e+01     6.4968      1.979      2.871    26.3739 0.0000e+00
      2.041      0.080     6.7281     76.135     42.842  43.917218    15.4950      7.853   115.6266 8.3632e+01     6.4942      2.002      2.904    26.3506 0.0000e+00
      2.062      0.094     6.5879     74.855     42.897  43.919207    15.4877      7.853   115.6634 8.1010e+01     6.4662      2.023      2.934    26.3362 0.0000e+00
      2.084      0.105     6.4218     73.844     42.960  43.926107    15.4468      7.853   115.7225 7.8087e+01     6.3640      2.041      2.960    26.3222 0.0000e+00
      2.110      0.112     6.2640     73.014     43.086  44.000552    15.4163      7.853   115.9114 7.4687e+01     6.3171      2.067      2.997    26.3034 0.0000e+00
      2.144      0.114     6.1371     72.336     43.265  44.121005    15.4103      7.853   116.0545 7.0914e+01     6.3098      2.100      3.045    26.2559 0.0000e+00
      2.181      0.113     6.0440     71.811     43.340  44.112907    15.5081      7.853   116.1623 6.7406e+01     6.2757      2.140      3.103    26.1866 0.0000e+00
      2.215      0.108     5.9742     71.512     43.357  44.029458    16.6733      7.852   116.3544 6.5022e+01     6.1776      2.175      3.156    26.1135 0.0000e+00
      2.240      0.101     5.9120     71.476     43.482  44.064002    18.8041      7.852   116.5700 6.3453e+01     6.0796      2.198      3.188    26.0560 0.0000e+00
      2.260      0.091     5.8652     71.610     43.626  44.149587    19.9638      7.853   116.7904 6.2026e+01     6.0479      2.216      3.213    25.9974 0.0000e+00
      2.279      0.082     5.8305     71.880     43.681  44.175515    20.1743      7.853   117.0407 6.0711e+01     6.0336      2.236      3.242    25.8928 0.0000e+00
      2.298      0.077     5.8164     72.280     43.709  44.187037    21.5742      7.852   117.2736 5.9433e+01     6.1120      2.254      3.269    25.7649 0.0000e+00
      2.317      0.075     5.8325     72.752     43.769  44.225400    24.1473      7.851   117.4549 5.8107e+01     6.2776      2.273      3.295    25.6479 0.0000e+00
      2.337      0.075     5.8502     73.215     43.827  44.258465    25.5583      7.851   117.5984 5.6897e+01     6.3618      2.292      3.325    25.5783 0.0000e+00
      2.355      0.075     5.8737     73.539     43.857  44.269416    25.7010      7.851   117.8044 5.5715e+01     6.3793      2.309      3.349    25.5572 0.0000e+00
      2.373      0.074     5.9106     73.565     43.896  44.294300    25.8808      7.852   118.3106 5.4397e+01     6.8313      2.326      3.373    25.5450 0.0000e+00
      2.393      0.072     5.9535     73.240     43.986  44.368889    26.2171      7.852   118.8139 5.2972e+01     7.7616      2.345      3.402    25.5169 0.0000e+00
      2.414      0.069     5.9995     72.747     44.052  44.409537    26.4049      7.852   118.8139 5.1562e+01     8.3018      2.367      3.433    25.4822 0.0000e+00
      2.434      0.066     6.0331     72.301     44.016  44.341392    26.3532      7.851   118.7400 5.0492e+01     8.3749      2.388      3.463    25.4616 0.0000e+00
      2.449      0.062     6.0409     71.914     44.014  44.306607    25.5671      7.851   119.0400 4.9772e+01     8.6800      2.403      3.485    25.4467 0.0000e+00
      2.461      0.060     6.0077     71.509     44.111  44.369772    24.1170      7.850   119.4295 4.8967e+01     9.2582      2.412      3.499    25.4368 0.0000e+00
      2.474      0.060     5.9624     71.139     44.169  44.406824    23.3190      7.850   119.6629 4.8036e+01     9.6266      2.426      3.518    25.4028 0.0000e+00
      2.488      0.061     5.9315     70.871     44.205  44.437189    23.1680      7.850   119.7978 4.7089e+01     9.7527      2.440      3.539    25.3607 0.0000e+00
      2.504      0.064     5.9074     70.641     44.265  44.482991    22.1911      7.850   119.8556 4.6013e+01     9.9631      2.453      3.559    25.3333 0.0000e+00
      2.523      0.068     5.8775     70.406     44.268  44.452789    20.3877      7.850   119.9316 4.4948e+01    10.2234      2.475      3.588    25.2796 0.0000e+00
      2.541      0.069     5.8447     70.126     44.307  44.452825    19.4000      7.850   120.2002 4.3977e+01    10.3034      2.492      3.615    25.2520 0.0000e+00
      2.559      0.068     5.8274     69.763     44.438  44.546850    19.4631      7.849   120.5223 4.2887e+01    10.3499      2.507      3.636    25.2636 0.0000e+00
      2.579      0.065     5.8096     69.446     44.506  44.573955    21.1170      7.848   120.5571 4.1816e+01    10.7862      2.530      3.669    25.2494 0.0000e+00
      2.597      0.061     5.7955     69.337     44.508  44.526589    24.1325      7.848   120.4482 4.1133e+01    11.4453      2.551      3.699    25.2044 0.0000e+00
      2.609      0.059     5.7817     69.390     44.578  44.545364    25.7684      7.847   120.5824 4.0656e+01    11.7259      2.559      3.712    25.1567 0.0000e+00
      2.620      0.058     5.7504     69.520     44.690  44.610444    25.9395      7.845   120.8894 4.0071e+01    11.7194      2.568      3.724    25.1184 0.0000e+00
      2.633      0.057     5.7211     69.808     44.741  44.615167    26.4266      7.843   121.2342 3.9401e+01    11.8108      2.582      3.745    25.0757 0.0000e+00
      2.650      0.057     5.7217     70.238     44.776  44.602401    31.6999      7.843   121.5677 3.8674e+01    12.3531      2.598      3.768    25.0143 0.0000e+00
      2.668      0.056     5.7388     70.598     44.867  44.646442    41.3489      7.842   121.6526 3.7971e+01    13.2550      2.616      3.794    24.9536 0.0000e+00
      2.684      0.054     5.7476     70.766     44.975  44.703266    46.6104      7.841   121.5724 3.7386e+01    13.6975      2.633      3.818    24.9058 0.0000e+00
      2.698      0.051     5.7767     70.872     45.053  44.718083    47.1008      7.841   121.7166 3.6911e+01    13.7057      2.646      3.838    24.8526 0.0000e+00
      2.709      0.051     5.8276     71.099     45.040  44.635077    47.4196      7.841   122.4497 3.6619e+01    14.4134      2.657      3.855    24.8016 0.0000e+00
      2.717      0.052     5.8677     71.425     44.974  44.524728    47.9513      7.840   123.4677 3.6415e+01    15.7980      2.665      3.865    24.7493 0.0000e+00
      2.726      0.056     5.8818     71.771     44.944  44.526367    48.1868      7.838   123.8722 3.6008e+01    16.5438      2.671      3.873    24.6985 0.0000e+00
      2.741      0.062     5.8896     72.355     44.928  44.527999    47.5526      7.836   123.7265 3.5134e+01    16.7354      2.683      3.892    24.6271 0.0000e+00
      2.763      0.071     5.9205     73.672     44.986  44.481026    40.2422      7.836   123.7708 3.4166e+01    18.4904      2.712      3.934    24.5428 0.0000e+00
      2.783      0.077     5.9635     76.029     45.006  44.466057    26.8322      7.835   124.1500 3.3572e+01    21.7776      2.733      3.964    24.4496 0.0000e+00
      2.800      0.078     5.9805     79.317     44.895  44.473895    19.5057      7.834   124.5259 3.2684e+01    23.6189      2.740      3.974    24.5074 0.0000e+00
      2.824      0.074     5.9916     83.039     44.942  44.512533    18.7100      7.834   124.7884 3.1519e+01    23.9473      2.769      4.015    24.6646 0.0000e+00
      2.849      0.070     6.1218     86.445     45.187  44.552366    17.1280      7.833   124.9142 3.0902e+01    25.8159      2.801      4.062    24.3939 0.0000e+00
      2.864      0.068     6.3404     88.989     45.410  44.574324    14.3022      7.833   125.2737 3.0627e+01    29.2347      2.811      4.077    24.2534 0.0000e+00
      2.873      0.068     6.5809     90.383     45.527  44.587299    12.7424      7.832   126.0369 3.0226e+01    31.1252      2.816      4.083    24.6318 0.0000e+00
      2.886      0.068     6.9214     90.544     45.558  44.582146    12.4679      7.831   126.4848 2.9461e+01    31.4564      2.826      4.100    24.6254 0.0000e+00
      2.906      0.073     7.2675     89.648     45.568  44.575451    11.0093      7.831   126.5594 2.8518e+01    32.9328      2.849      4.133    24.2582 0.0000e+00
      2.927      0.083     7.5184     87.918     45.532  44.569795     8.3568      7.830   126.8519 2.7799e+01    35.6533      2.873      4.168    24.0365 0.0000e+00
      2.945      0.090     7.6570     85.708     45.405  44.577277     6.8973      7.827   127.5273 2.6912e+01    37.1253      2.885      4.186    23.9308 0.0000e+00
      2.970      0.093     7.6601     83.510     45.315  44.602651     6.7460      7.824   128.3582 2.5411e+01    37.1352      2.909      4.218    23.9257 0.0000e+00
      3.003      0.091     7.5852     81.632     45.371  44.622863     6.6770      7.821   128.8964 2.3825e+01    36.8995      2.948      4.275    23.9029 0.0000e+00
      3.032      0.088     7.4345     80.150     45.482  44.631158     6.0633      7.820   128.9585 2.2803e+01    34.9595      2.978      4.319    23.8638 0.0000e+00
      3.051      0.086     7.1996     79.082     45.550  44.639308     4.9437      7.820   128.8502 2.2163e+01    31.4076      2.994      4.342    24.0885 0.0000e+00
      3.065      0.082     6.9773     78.373     45.590  44.657846     4.3266      7.820   128.7059 2.1452e+01    29.4452      3.004      4.357    24.3047 0.0000e+00
      3.082      0.080     6.8355     77.886     45.612  44.664843     4.2522      7.816   128.5900 2.0430e+01    28.9615      3.019      4.379    24.1890 0.0000e+00
      3.104      0.080     6.7301     77.472     45.622  44.660405     4.2524      7.810   128.6539 1.9306e+01    26.0035      3.044      4.415    24.0249 0.0000e+00
      3.126      0.084     6.6465     77.037     45.653  44.667648     4.2876      7.802   128.7043 1.8284e+01    20.7332      3.066      4.447    23.9836 0.0000e+00
      3.149      0.089     6.5947     76.801     45.793  44.688917     4.3121      7.793   128.0810 1.7171e+01    17.9132      3.086      4.477    23.9699 0.0000e+00
      3.174      0.092     6.5564     77.202     46.014  44.726957     4.3074      7.783   126.7102 1.6161e+01    17.4919      3.113      4.517    23.9638 0.0000e+00
      3.196      0.096     6.5342     78.482     46.170  44.746460     4.2974      7.769   125.1219 1.5279e+01    15.5379      3.133      4.545    23.9214 0.0000e+00
      3.220      0.102     6.4849     80.488     46.319  44.734116     4.2992      7.754   122.7289 1.4339e+01    12.0838      3.156      4.577    23.9636 0.0000e+00
      3.245      0.107     6.4612     82.736     46.450  44.767900     4.3040      7.740   118.2546 1.3501e+01    10.2638      3.183      4.617    23.8498 0.0000e+00
      3.271      0.111     6.5292     84.778     46.459  44.837401     4.2967      7.726   112.0631 1.2275e+01    10.1338      3.202      4.644    23.5139 0.0000e+00
      3.304      0.113     6.6420     86.441     46.500  44.876308     4.1527      7.714   105.7735 1.0596e+01     9.5908      3.239      4.697    23.5070 0.0000e+00
      3.339      0.111     6.8600     87.643     46.659  44.984409     3.8783      7.704    99.7681 9.3900e+00     8.5478      3.279      4.757    23.2820 0.0000e+00
      3.368      0.108     7.1008     88.311     46.782  45.128702     3.7256      7.697    94.2590 8.6279e+00     7.9763      3.301      4.789    23.0347 0.0000e+00
      3.394      0.103     7.2352     88.431     46.893  45.161007     3.7134      7.692    90.0128 7.9944e+00     7.9416      3.330      4.830    23.3414 0.0000e+00
      3.418      0.096     7.3867     88.095     47.222  45.374892     3.6721      7.688    86.4571 7.5905e+00     7.8548      3.356      4.867    23.2879 0.0000e+00
      3.437      0.090     7.5211     87.697     47.572  45.746686     3.5679      7.685    82.4996 7.0975e+00     7.5414      3.367      4.883    23.0890 0.0000e+00
      3.459      0.089     7.5428     87.676     47.712  45.784150     3.4934      7.683    78.2990 6.3783e+00     7.2613      3.390      4.917    23.3254 0.0000e+00
      3.485      0.090     7.5732     87.987     48.016  45.827759     3.4789      7.683    74.6445 5.8278e+00     7.2006      3.422      4.962    23.1977 0.0000e+00
      3.505      0.094     7.5771     88.261     48.594  46.337025     3.4673      7.682    71.6957 5.3991e+00     7.2173      3.437      4.985    22.8739 0.0000e+00
      3.526      0.098     7.4790     88.213     48.859  46.672553     3.3361      7.681    69.0601 4.7722e+00     7.0194      3.453      5.009    23.1777 0.0000e+00
      3.553      0.099     7.4920     87.807     48.688  46.456688     3.0745      7.680    66.5243 4.0877e+00     6.5836      3.485      5.054    23.1092 0.0000e+00
      3.583      0.098     7.6151     87.209     48.904  46.583687     2.9097      7.679    63.8359 3.5215e+00     6.2867      3.516      5.098    22.5429 0.0000e+00
      3.610      0.094     7.6363     86.502     49.434  47.128683     2.8914      7.676    60.8180 3.0218e+00     6.2312      3.539      5.133    22.6152 0.0000e+00
      3.635      0.089     7.5987     85.629     49.449  47.142245     2.9034      7.675    57.8259 2.5918e+00     6.2875      3.565      5.171    22.8648 0.0000e+00
      3.658      0.081     7.5752     84.593     49.537  47.128622     2.9137      7.675    55.0188 2.3382e+00     6.3520      3.590      5.209    22.7187 0.0000e+00
      3.673      0.073     7.5502     83.568     50.172  47.725567     2.9240      7.675    52.1734 2.1852e+00     6.3627      3.602      5.226    22.5185 0.0000e+00
      3.688      0.068     7.4678     82.855     50.389  47.947737     2.9281      7.676    49.2343 2.0092e+00     6.3482      3.614      5.243    22.6957 0.0000e+00
      3.705      0.066     7.3849     82.594     50.132  47.592922     2.8468      7.677    46.4118 1.8584e+00     6.2799      3.634      5.271    22.7494 0.0000e+00
      3.721      0.066     7.3301     82.685     50.581  47.942922     2.6983      7.677    43.7726 1.7460e+00     6.1850      3.649      5.293    22.4739 0.0000e+00
      3.737      0.065     7.2190     82.962     51.567  48.941432     2.6312      7.676    41.3296 1.6416e+00     6.1574      3.663      5.312    22.5380 0.0000e+00
      3.757      0.062     7.1356     83.284     51.734  49.063256     2.6264      7.676    39.0714 1.5357e+00     6.1852      3.683      5.341    22.6670 0.0000e+00
      3.777      0.059     7.1484     83.671     51.621  48.780977     2.5403      7.677    36.7740 1.4582e+00     6.2483      3.707      5.378    22.4464 0.0000e+00
      3.790      0.059     7.1848     84.347     52.432  49.527986     2.3883      7.678    34.6322 1.4254e+00     6.3056      3.720      5.394    22.2746 0.0000e+00
      3.799      0.063     7.1814     85.310     52.986  50.095233     2.3199      7.680    32.9638 1.3898e+00     6.3309      3.723      5.398    22.5088 0.0000e+00
      3.810      0.072     7.2090     86.093     52.841  49.798337     2.3133      7.681    31.5724 1.3369e+00     6.3836      3.736      5.418    22.5253 0.0000e+00
      3.825      0.082     7.2874     86.329     53.527  50.319072     2.2085      7.682    30.2851 1.2516e+00     6.8068      3.749      5.437    22.1167 0.0000e+00
      3.847      0.092     7.3355     86.261     54.439  51.247976     2.0269      7.684    29.2725 1.1293e+00     7.5537      3.767      5.464    22.1682 0.0000e+00
      3.882      0.101     7.4034     86.319     54.264  50.997395     1.9238      7.685    28.5352 1.0180e+00     7.9335      3.806      5.520    22.4236 0.0000e+00
      3.917      0.106     7.5361     86.539     54.222  50.718160     1.9018      7.687    27.9095 9.3205e-01     8.0173      3.846      5.577    22.0951 0.0000e+00
      3.944      0.106     7.5823     86.733     55.150  51.554223     1.8610      7.689    27.4715 8.6086e-01     8.7721      3.869      5.612    21.8348 0.0000e+00
      3.968      0.101     7.5054     86.743     55.668  52.089333     1.7886      7.690    27.1976 7.9894e-01    10.1246      3.889      5.641    22.1770 0.0000e+00
      3.993      0.095     7.5273     86.573     55.631  51.917853     1.7418      7.691    26.9211 7.4377e-01    10.8101      3.917      5.681    22.0940 0.0000e+00
      4.015      0.092     7.6239     86.414     56.415  52.465186     1.7278      7.691    26.6226 7.0530e-01    10.8087      3.940      5.714    21.6053 0.0000e+00
      4.035      0.092     7.6332     86.324     57.098  52.991593     1.7114      7.690    26.4281 6.7564e-01    10.8932      3.956      5.737    21.6970 0.0000e+00
      4.056      0.094     7.6053     86.186     56.932  52.694211     1.6272      7.690    26.5489 6.3973e-01    12.3100      3.976      5.767    21.9044 0.0000e+00
      4.080      0.095     7.6158     85.987     57.555  53.187616     1.4833      7.691    26.7919 5.9589e-01    14.9921      4.000      5.801    21.6589 0.0000e+00
      4.108      0.097     7.6336     85.757     58.416  54.003768     1.4031      7.693    26.7852 5.5543e-01    16.4736      4.028      5.841    21.4280 0.0000e+00
      4.136      0.102     7.6305     85.400     58.318  53.735081     1.3896      7.697    26.6394 5.3766e-01    16.6949      4.059      5.886    21.4525 0.0000e+00
      4.160      0.105     7.6453     84.917     58.630  53.685696     1.3291      7.701    26.5784 5.2519e-01    18.4191      4.081      5.919    21.2596 0.0000e+00
      4.182      0.105     7.6488     84.615     59.832  54.612826     1.2127      7.705    26.6489 4.9397e-01    21.6756      4.099      5.945    21.0969 0.0000e+00
      4.210      0.101     7.5985     84.603     60.702  55.291467     1.1557      7.710    26.7184 4.5918e-01    23.5157      4.127      5.986    21.3310 0.0000e+00
      4.242      0.097     7.5968     84.459     60.566  54.904991     1.1557      7.715    26.7309 4.3751e-01    23.7579      4.162      6.036    21.1584 0.0000e+00
      4.271      0.093     7.6139     83.880     60.438  54.512266     1.0794      7.720    26.8857 4.2526e-01    24.2624      4.191      6.079    20.6534 0.0000e+00
      4.291      0.087     7.5804     82.946     61.461  55.369345     0.9324      7.725    27.2129 4.1584e-01    25.2098      4.210      6.106    20.6223 0.0000e+00
      4.308      0.080     7.6053     81.873     62.249  56.058621     0.8524      7.730    27.5901 4.0587e-01    25.7507      4.224      6.125    20.6204 0.0000e+00
      4.328      0.076     7.6447     80.850     62.131  55.605929     0.8514      7.737    28.0910 3.9775e-01    25.8150      4.245      6.156    20.3280 0.0000e+00
      4.347      0.078     7.6368     80.220     62.443  55.484599     0.8292      7.745    28.7093 3.9580e-01    25.5091      4.266      6.186    20.0041 0.0000e+00
      4.363      0.085     7.5472     80.343     62.758  55.734432     0.7667      7.751    29.3011 3.9031e-01    24.8193      4.276      6.203    19.9728 0.0000e+00
      4.381      0.092     7.4131     81.042     63.063  56.086153     0.7206      7.757    29.7402 3.7884e-01    24.3749      4.293      6.227    20.1989 0.0000e+00
      4.407      0.097     7.3718     81.867     63.818  56.688535     0.6956      7.762    30.0606 3.5513e-01    24.2692      4.319      6.263    19.7891 0.0000e+00
      4.439      0.103     7.3762     82.527     64.008  56.602679     0.6566      7.767    30.5071 3.2233e-01    23.8824      4.353      6.313    19.2069 0.0000e+00
      4.470      0.108     7.3700     83.035     64.121  56.381692     0.6157      7.772    31.0949 3.0666e-01    23.1814      4.389      6.366    19.4155 0.0000e+00
      4.495      0.110     7.4366     83.595     64.911  57.001405     0.6088      7.775    32.0064 2.9876e-01    22.8306      4.408      6.393    19.5181 0.0000e+00
      4.518      0.108     7.5310     84.095     65.792  57.870846     0.6068      7.777    33.2673 2.8435e-01    22.7843      4.427      6.421    19.4475 0.0000e+00
      4.547      0.106     7.6193     84.139     66.120  58.128728     0.5829      7.779    34.4668 2.6435e-01    22.6893      4.458      6.467    19.2858 0.0000e+00
      4.579      0.104     7.7215     83.537     65.887  57.705657     0.5610      7.782    35.6678 2.4744e-01    22.6724      4.493      6.516    18.8259 0.0000e+00
      4.606      0.103     7.7751     82.439     66.154  57.709738     0.5661      7.784    37.0348 2.4299e-01    22.7509      4.520      6.554    18.8501 0.0000e+00
      4.628      0.100     7.8119     81.117     66.953  58.304731     0.5949      7.784    38.3465 2.3386e-01    22.8192      4.536      6.579    19.0335 0.0000e+00
      4.653      0.096     7.8245     79.706     67.191  58.293480     0.6017      7.785    39.6536 2.1895e-01    22.7810      4.562      6.617    19.0126 0.0000e+00
      4.680      0.096     7.7961     78.340     67.054  57.700568     0.5726      7.785    41.1383 2.1744e-01    21.9815      4.593      6.661    18.8032 0.0000e+00
      4.702      0.096     7.7241     77.292     67.321  57.614273     0.5342      7.785    42.6179 2.2018e-01    20.5311      4.612      6.688    18.5254 0.0000e+00
      4.722      0.093     7.5910     76.688     67.875  58.202401     0.5216      7.785    43.9492 2.0026e-01    19.7621      4.628      6.712    18.5750 0.0000e+00
      4.749      0.086     7.4685     76.455     67.905  58.332726     0.5280      7.785    45.1028 1.6296e-01    19.6858      4.654      6.750    18.5028 0.0000e+00
      4.779      0.078     7.4068     76.652     67.593  57.919782     0.5123      7.784    46.3272 1.4006e-01    19.2672      4.690      6.803    17.9716 0.0000e+00
      4.802      0.071     7.3596     77.562     67.318  57.782771     0.4816      7.782    47.7407 1.3926e-01    18.4237      4.715      6.838    17.5934 0.0000e+00
      4.813      0.067     7.2663     79.293     66.840  57.692653     0.4641      7.781    49.0295 1.4027e-01    17.8908      4.718      6.844    17.8815 0.0000e+00
      4.822      0.067     7.2075     81.423     66.594  57.529369     0.4590      7.781    50.2084 1.3394e-01    17.7774      4.728      6.858    18.1202 0.0000e+00
      4.831      0.070     7.2744     83.357     66.280  57.396518     0.4440      7.780    51.2396 1.2930e-01    17.7012      4.737      6.871    17.7075 0.0000e+00
      4.846      0.074     7.3426     84.894     65.599  57.293349     0.4252      7.778    52.0326 1.2646e-01    17.5844      4.746      6.882    17.7718 0.0000e+00
      4.874      0.076     7.4331     86.113     65.506  57.362500     0.4226      7.776    52.9146 1.2399e-01    17.4933      4.777      6.929    18.3718 0.0000e+00
      4.907      0.072     7.6951     86.908     65.949  57.407098     0.4209      7.776    54.1605 1.2369e-01    17.4528      4.818      6.987    18.1514 0.0000e+00
      4.932      0.067     7.8950     86.957     66.097  57.260392     0.4130      7.776    55.3947 1.2352e-01    17.4033      4.841      7.020    18.0634 0.0000e+00
      4.942      0.063     7.9051     86.167     66.174  57.176281     0.4027      7.775    56.2218 1.2351e-01    17.3719      4.848      7.032    18.8492 0.0000e+00
      4.946      0.061     7.9985     84.998     66.355  57.215663     0.3966      7.775    57.0206 1.2361e-01    17.4146      4.850      7.035    18.9934 0.0000e+00
      4.951      0.063     8.1833     84.192     66.009  57.101188     0.4131      7.775    57.9115 1.2367e-01    17.4418      4.851      7.036    18.4130 0.0000e+00
      4.966      0.068     8.2178     83.986     65.474  56.999262     0.4610      7.774    58.7331 1.2371e-01    17.3592      4.864      7.054    18.2699 0.0000e+00
      4.994      0.076     8.1289     83.946     65.472  57.063604     0.5091      7.774    59.5553 1.2367e-01    17.2010      4.898      7.105    18.2592 0.0000e+00
      5.024      0.082     8.0319     83.683     65.585  56.989983     0.5211      7.773    60.2809 1.2361e-01    17.1000      4.930      7.150    17.9767 0.0000e+00
      5.046      0.086     7.9156     83.168     65.684  56.934577     0.5141      7.772    60.9677 1.2363e-01    17.0950      4.949      7.178    18.1530 0.0000e+00
      5.064      0.086     7.8369     82.591     65.901  57.028675     0.5075      7.772    61.8362 1.2365e-01    17.1068      4.967      7.204    18.6833 0.0000e+00
      5.081      0.085     7.8524     82.250     65.535  56.730208     0.4994      7.771    62.6945 1.2364e-01    17.1055      4.981      7.225    18.6485 0.0000e+00
      5.102      0.090     7.8664     82.078     64.997  56.311085     0.4832      7.769    63.3437 1.2358e-01    17.0446      5.000      7.252    18.3860 0.0000e+00
      5.127      0.104     7.8211     81.742     65.491  56.470812     0.4692      7.769    63.7487 1.2355e-01    16.9865      5.030      7.295    18.3526 0.0000e+00
      5.150      0.124     7.7683     81.430     66.092  56.628633     0.5395      7.769    63.9781 1.2362e-01    17.3585      5.051      7.327    18.2302 0.0000e+00
      5.175      0.140     7.7398     81.627     65.652  56.313303     1.3991      7.769    64.4818 1.2366e-01    21.8160      5.066      7.349    18.2137 0.0000e+00
      5.215      0.149     7.7091     82.298     65.091  56.088118     2.9717      7.768    65.2798 1.2365e-01    29.9928      5.106      7.407    18.4645 0.0000e+00
      5.271      0.147     7.7088     82.851     65.264  56.256391     3.8313      7.766    66.0549 1.2367e-01    34.4806      5.171      7.501    18.1952 0.0000e+00
      5.325      0.136     7.7452     82.735     65.789  56.505973     3.9438      7.764    66.7981 1.2369e-01    35.2901      5.230      7.584    17.6147 0.0000e+00
      5.362      0.116     7.7309     81.800     66.149  56.564910     4.2908      7.763    67.5544 1.2369e-01    40.2935      5.265      7.636    17.8373 0.0000e+00
      5.382      0.089     7.7628     80.200     66.266  56.460541     4.9050      7.763    68.3164 1.2370e-01    49.5107      5.280      7.659    18.1981 0.0000e+00
      5.393      0.060     7.8448     78.204     66.390  56.387085     5.2199      7.761    68.9562 1.2367e-01    54.4692      5.288      7.670    18.1471 0.0000e+00
      5.400      0.037     7.8670     76.072     66.651  56.438724     5.1193      7.758    69.5253 1.2364e-01    53.7560      5.297      7.681    17.9546 0.0000e+00
      5.406      0.023     7.8095     74.059     66.807  56.449528     3.8051      7.756    70.2066 1.2370e-01    40.8181      5.302      7.690    17.7243 0.0000e+00
      5.409      0.016     7.6672     72.407     66.908  56.454050     1.3817      7.755    70.9997 1.2375e-01    17.0161      5.305      7.694    17.5933 0.0000e+00
      5.412      0.012     7.4884     71.272     67.199  56.620329     0.0470      7.754    71.8876 1.2373e-01     4.0255      5.307      7.697    17.4680 0.0000e+00
      5.414      0.009     7.2987     70.657     67.495  56.808478    -0.0736      7.752    72.7679 1.2364e-01     2.8285      5.309      7.700    17.3160 0.0000e+00
      5.416      0.007     7.1093     70.425     67.616  56.886900    -0.0689      7.750    73.5556 1.2362e-01     2.4413      5.311      7.703    17.2299 0.0000e+00
      5.417      0.007     6.9505     70.364     67.597  56.869814    -0.0540      7.748    74.2699 1.2367e-01     1.8380      5.312      7.705    17.1918 0.0000e+00
      5.418      0.007     6.8512     70.254     67.507  56.792437    -0.0510      7.746    75.0374 1.2369e-01     1.4770      5.313      7.706    17.1189 0.0000e+00
      5.419      0.008     6.8052     69.976     67.500  56.777062    -0.0580      7.744    75.8668 1.2371e-01     1.4250      5.314      7.708    17.0667 0.0000e+00
      5.422      0.008     6.7912     69.545     67.620  56.874447    -0.0630      7.742    76.3826 1.2372e-01     1.1070      5.317      7.712    17.0568 0.0000e+00
      5.424      0.008     6.7929     69.009     67.618  56.890125    -0.0545      7.740    76.6272 1.2369e-01     0.5697      5.319      7.715    17.0633 0.0000e+00
      5.427      0.008     6.7870     68.423     67.451  56.776095    -0.0378      7.739    77.1898 1.2365e-01     0.2913      5.323      7.720    17.0641 0.0000e+00
      5.429      0.007     6.7591     67.784     67.414  56.766082    -0.0356      7.737    78.1953 1.2357e-01     0.2339      5.325      7.723    17.0507 0.0000e+00
      5.431      0.006     6.7187     67.104     67.535  56.896121    -0.0528      7.735    79.2339 1.2353e-01     0.2178      5.326      7.725    17.0419 0.0000e+00
      5.433      0.005     6.6604     66.475     67.559  56.951048    -0.0710      7.733    80.0252 1.2358e-01     0.1641      5.328      7.727    17.0600 0.0000e+00
      5.433      0.004     6.6013     65.926     67.502  56.922109    -0.0730      7.731    80.5345 1.2362e-01     0.0633      5.328      7.728    17.0872 0.0000e+00
      5.434      0.003     6.5399     65.404     67.588  56.990872    -0.0599      7.730    81.0041 1.2365e-01     0.0239      5.329      7.729    17.0961 0.0000e+00
      5.435      0.002     6.4658     64.897     67.635  57.020243    -0.0468      7.729    81.6598 1.2370e-01     0.0294      5.330      7.730    17.1146 0.0000e+00
      5.435      0.001     6.3997     64.488     67.406  56.832589    -0.0477      7.728    82.2676 1.2370e-01    -0.0073      5.330      7.730    17.1512 0.0000e+00
      5.435      0.001     6.3478     64.323     67.229  56.690989    -0.0533      7.727    82.5029 1.2367e-01    -0.0443      5.330      7.730    17.1664 0.0000e+00
      5.435 -9.990e-29     6.2996 -9.990e-29 -9.990e-29 -9.990e-29 -9.990e-29 -9.990e-29 -9.990e-29 1.2368e-01 -9.990e-29      5.330      7.731    17.1586 0.0000e+00
      5.435 -9.990e-29     6.2496 -9.990e-29 -9.990e-29 -9.990e-29 -9.990e-29 -9.990e-29 -9.990e-29 1.2369e-01 -9.990e-29      5.330      7.730    17.1422 0.0000e+00
      5.435 -9.990e-29     6.2040 -9.990e-29 -9.990e-29 -9.990e-29 -9.990e-29 -9.990e-29 -9.990e-29 1.2365e-01 -9.990e-29      5.330      7.730    17.1495 0.0000e+00
      5.435 -9.990e-29     6.1802 -9.990e-29 -9.990e-29 -9.990e-29 -9.990e-29 -9.990e-29 -9.990e-29 1.2362e-01 -9.990e-29      5.331      7.731    17.1680 0.0000e+00
