* Sea-Bird SBE19plus  Data File:
* FileName = C:\DATA\080519_fcr50_0005.hex
* Software version 2.8.0.119 SB_Terminal.dll
* Temperature SN = 7809
* Conductivity SN = 7809
* System UpLoad Time = Aug 05 2019 17:59:47
* <ApplicationData>
* <Seaterm232>
* <SoftwareVersion>2.8.0.119</SoftwareVersion>
* <BuildDate>07-Nov-2018</BuildDate>
* </Seaterm232>
* </ApplicationData>
* cast   5 05 Aug 2019 12:01:40 samples 2069 to 2899, avg = 1, stop = mag switch
# nquan = 16
# nvalues = 702                         
# units = specified
# name 0 = depFM: Depth [fresh water, m]
# name 1 = dz/dtM: Descent Rate [m/s]
# name 2 = sbeox0Mg/L: Oxygen, SBE 43 [mg/l]
# name 3 = sbeox0PS: Oxygen, SBE 43 [% saturation]
# name 4 = specc: Specific Conductance [uS/cm]
# name 5 = c0uS/cm: Conductivity [uS/cm]
# name 6 = flECO-AFL: Fluorescence, WET Labs ECO-AFL/FL [mg/m^3]
# name 7 = ph: pH
# name 8 = orp: Oxidation Reduction Potential [mV]
# name 9 = par/sat/log: PAR/Logarithmic, Satlantic
# name 10 = turbWETntu0: Turbidity, WET Labs ECO [NTU]
# name 11 = prdM: Pressure, Strain Gauge [db]
# name 12 = prdE: Pressure, Strain Gauge [psi]
# name 13 = tv290C: Temperature [ITS-90, deg C]
# name 14 = density00: Density [density, kg/m^3]
# name 15 = flag:  0.000e+00
# span 0 =     -0.576,      9.566       
# span 1 =     -0.001,      0.119       
# span 2 =    -0.0492,     8.8950       
# span 3 =     -0.447,    109.816       
# span 4 =      1.266,    230.310       
# span 5 =   1.188185, 165.525963       
# span 6 =    -0.1550,     8.5720       
# span 7 =      6.727,      8.494       
# span 8 =  -493.7746,   338.8799       
# span 9 = 1.2352e-01, 7.9265e+02       
# span 10 =    -0.5533,    55.5023      
# span 11 =     -0.566,      9.382      
# span 12 =     -0.820,     13.608      
# span 13 =    10.7940,    26.6431      
# span 14 =   996.6303,   999.7457      
# span 15 = 0.0000e+00, 0.0000e+00      
# interval = seconds: 0.25
# start_time = Aug 05 2019 12:01:40 [Instrument's time stamp, header]
# bad_flag = -9.990e-29
# <Sensors count="9" >
#   <sensor Channel="1" >
#     <!-- Count, Temperature -->
#     <TemperatureSensor SensorID="58" >
#       <SerialNumber>7809</SerialNumber>
#       <CalibrationDate>24-Mar-19</CalibrationDate>
#       <A0>1.21792325e-003</A0>
#       <A1>2.81669265e-004</A1>
#       <A2>-1.60333336e-006</A2>
#       <A3>1.98414625e-007</A3>
#       <Slope>1.00000000</Slope>
#       <Offset>0.0000</Offset>
#     </TemperatureSensor>
#   </sensor>
#   <sensor Channel="2" >
#     <!-- Frequency 0, Conductivity -->
#     <ConductivitySensor SensorID="3" >
#       <SerialNumber>7809</SerialNumber>
#       <CalibrationDate>24-Mar-19</CalibrationDate>
#       <UseG_J>1</UseG_J>
#       <!-- Cell const and series R are applicable only for wide range sensors. -->
#       <SeriesR>0.0000</SeriesR>
#       <CellConst>2000.0000</CellConst>
#       <ConductivityType>0</ConductivityType>
#       <Coefficients equation="0" >
#         <A>0.00000000e+000</A>
#         <B>0.00000000e+000</B>
#         <C>0.00000000e+000</C>
#         <D>0.00000000e+000</D>
#         <M>0.0</M>
#         <CPcor>-9.57000000e-008</CPcor>
#       </Coefficients>
#       <Coefficients equation="1" >
#         <G>-1.00589325e+000</G>
#         <H>1.26816302e-001</H>
#         <I>-1.51560448e-004</I>
#         <J>2.67137274e-005</J>
#         <CPcor>-9.57000000e-008</CPcor>
#         <CTcor>3.2500e-006</CTcor>
#         <!-- WBOTC not applicable unless ConductivityType = 1. -->
#         <WBOTC>0.00000000e+000</WBOTC>
#       </Coefficients>
#       <Slope>1.00000000</Slope>
#       <Offset>0.00000</Offset>
#     </ConductivitySensor>
#   </sensor>
#   <sensor Channel="3" >
#     <!-- Count, Pressure, Strain Gauge -->
#     <PressureSensor SensorID="46" >
#       <SerialNumber>7809</SerialNumber>
#       <CalibrationDate>11-Mar-19</CalibrationDate>
#       <PA0>4.56561833e-002</PA0>
#       <PA1>4.85095118e-004</PA1>
#       <PA2>-2.88327090e-012</PA2>
#       <PTEMPA0>-5.48784562e+001</PTEMPA0>
#       <PTEMPA1>5.53756816e+001</PTEMPA1>
#       <PTEMPA2>-5.86727098e-001</PTEMPA2>
#       <PTCA0>5.25246745e+005</PTCA0>
#       <PTCA1>1.22304214e+001</PTCA1>
#       <PTCA2>-3.56745036e-001</PTCA2>
#       <PTCB0>2.51668750e+001</PTCB0>
#       <PTCB1>3.75000000e-004</PTCB1>
#       <PTCB2>0.00000000e+000</PTCB2>
#       <Offset>0.000000</Offset>
#     </PressureSensor>
#   </sensor>
#   <sensor Channel="4" >
#     <!-- A/D voltage 0, Oxygen, SBE 43 -->
#     <OxygenSensor SensorID="38" >
#       <SerialNumber>0434</SerialNumber>
#       <CalibrationDate>13-Apr-19</CalibrationDate>
#       <Use2007Equation>1</Use2007Equation>
#       <CalibrationCoefficients equation="0" >
#         <!-- Coefficients for Owens-Millard equation. -->
#         <Boc>0.0000</Boc>
#         <Soc>0.0000e+000</Soc>
#         <offset>0.0000</offset>
#         <Pcor>0.00e+000</Pcor>
#         <Tcor>0.0000</Tcor>
#         <Tau>0.0</Tau>
#       </CalibrationCoefficients>
#       <CalibrationCoefficients equation="1" >
#         <!-- Coefficients for Sea-Bird equation - SBE calibration in 2007 and later. -->
#         <Soc>4.2007e-001</Soc>
#         <offset>-0.6109</offset>
#         <A>-4.3656e-003</A>
#         <B> 1.7017e-004</B>
#         <C>-2.5341e-006</C>
#         <D0> 2.5826e+000</D0>
#         <D1> 1.92634e-004</D1>
#         <D2>-4.64803e-002</D2>
#         <E> 3.6000e-002</E>
#         <Tau20> 1.1800</Tau20>
#         <H1>-3.3000e-002</H1>
#         <H2> 5.0000e+003</H2>
#         <H3> 1.4500e+003</H3>
#       </CalibrationCoefficients>
#     </OxygenSensor>
#   </sensor>
#   <sensor Channel="5" >
#     <!-- A/D voltage 1, PAR/Logarithmic, Satlantic -->
#     <PARLog_SatlanticSensor SensorID="76" >
#       <SerialNumber>1122</SerialNumber>
#       <CalibrationDate>08-May-2019</CalibrationDate>
#       <a0>9.7456e-001</a0>
#       <a1>8.1640e-001</a1>
#       <Im>1.3589e+000</Im>
#       <Multiplier>1.0000e+000</Multiplier>
#     </PARLog_SatlanticSensor>
#   </sensor>
#   <sensor Channel="6" >
#     <!-- A/D voltage 2, pH -->
#     <pH_Sensor SensorID="43" >
#       <SerialNumber>0363</SerialNumber>
#       <CalibrationDate>15-Apr-19</CalibrationDate>
#       <Slope>4.5952</Slope>
#       <Offset>2.5370</Offset>
#     </pH_Sensor>
#   </sensor>
#   <sensor Channel="7" >
#     <!-- A/D voltage 3, Oxidation Reduction Potential -->
#     <OxidationReductionPotentialSensor SensorID="41" >
#       <SerialNumber>0363</SerialNumber>
#       <CalibrationDate>15-Apr-19</CalibrationDate>
#       <B>2.499480</B>
#       <M>-0.496195</M>
#       <Offset>0.0</Offset>
#     </OxidationReductionPotentialSensor>
#   </sensor>
#   <sensor Channel="8" >
#     <!-- A/D voltage 4, Fluorometer, WET Labs ECO-AFL/FL -->
#     <FluoroWetlabECO_AFL_FL_Sensor SensorID="20" >
#       <SerialNumber>FLNTURT-2496</SerialNumber>
#       <CalibrationDate>08-May-2019</CalibrationDate>
#       <ScaleFactor>5.00000000e+001</ScaleFactor>
#       <!-- Dark output -->
#       <Vblank>0.0550</Vblank>
#     </FluoroWetlabECO_AFL_FL_Sensor>
#   </sensor>
#   <sensor Channel="9" >
#     <!-- A/D voltage 5, Turbidity Meter, WET Labs, ECO-NTU -->
#     <TurbidityMeter SensorID="67" >
#       <SerialNumber>FLNTURT-2496</SerialNumber>
#       <CalibrationDate>08-May-2019</CalibrationDate>
#       <ScaleFactor>189.000000</ScaleFactor>
#       <!-- Dark output -->
#       <DarkVoltage>0.071000</DarkVoltage>
#     </TurbidityMeter>
#   </sensor>
# </Sensors>
# datcnv_date = Aug 05 2019 18:02:47, 7.26.7.129 [datcnv_vars = 15]
# datcnv_in = C:\DATA\080519_fcr50a.hex C:\DATA\SBE19plusV2_7809.xmlcon
# datcnv_skipover = 0
# datcnv_ox_hysteresis_correction = yes
# datcnv_ox_tau_correction = yes
# filter_date = Aug 05 2019 18:03:10, 7.26.7.129
# filter_in = C:\DATA\080519_fcr50a.cnv
# filter_low_pass_tc_A = 0.030
# filter_low_pass_tc_B = 0.150
# filter_low_pass_A_vars = prdM prdE tv290C density00
# filter_low_pass_B_vars = depFM dz/dtM sbeox0Mg/L sbeox0PS specc c0uS/cm flECO-AFL ph orp par/sat/log turbWETntu0
# alignctd_date = Aug 05 2019 18:03:31, 7.26.7.129
# alignctd_in = C:\DATA\080519_fcr50a.cnv
# alignctd_adv = dz/dtM 1.000, sbeox0Mg/L 1.000, sbeox0PS 1.000, specc 1.000, c0uS/cm 1.000, flECO-AFL 1.000, ph 1.000, orp 1.000, turbWETntu0 1.000                                                                                 
# file_type = ascii
*END*
     -0.573 -3.081e-10     7.5331     86.020      1.293   1.213207    -0.1441      7.106   338.8799 1.2485e+02    -0.5469     -0.562     -0.816    21.9118   997.7974 0.0000e+00
     -0.573 -3.387e-09     7.5314     86.001      1.300   1.219724    -0.1550      7.111   320.9338 1.2585e+02    -0.5533     -0.562     -0.816    21.9125   997.7973 0.0000e+00
     -0.573 -3.726e-08     7.5303     85.989      1.345   1.262318    -0.1485      7.123   304.7211 1.2474e+02    -0.4968     -0.562     -0.815    21.9135   997.7971 0.0000e+00
     -0.573 -4.098e-07     7.5302     85.988      1.369   1.284678    -0.1348      7.134   285.0770 1.2129e+02    -0.3886     -0.562     -0.815    21.9140   997.7970 0.0000e+00
     -0.573     -0.000     7.5298     85.984      1.318   1.236623    -0.1281      7.140   263.5842 1.1921e+02    -0.3264     -0.563     -0.816    21.9143   997.7969 0.0000e+00
     -0.573     -0.000     7.5292     85.978      1.266   1.188185    -0.1279      7.142   243.9491 1.1959e+02    -0.3029     -0.562     -0.816    21.9146   997.7968 0.0000e+00
     -0.574     -0.001     7.5302     85.989      1.353   1.269257    -0.1332      7.140   231.9656 1.1990e+02    -0.2669     -0.563     -0.816    21.9151   997.7967 0.0000e+00
     -0.574     -0.001     7.5319     86.009      1.485   1.393170    -0.1315      7.137   226.4148 1.1834e+02    -0.2521     -0.563     -0.816    21.9154   997.7966 0.0000e+00
     -0.574     -0.001     7.5324     86.014      1.580   1.482541    -0.1243      7.132   215.6388 1.1510e+02    -0.2871     -0.563     -0.816    21.9157   997.7966 0.0000e+00
     -0.574     -0.001     7.5330     86.022      1.694   1.589489    -0.1327      7.128   200.1030 1.1385e+02    -0.3306     -0.563     -0.817    21.9158   997.7965 0.0000e+00
     -0.574     -0.001     7.5343     86.037      1.715   1.609106    -0.1384      7.126   185.6131 1.2096e+02    -0.3181     -0.563     -0.817    21.9159   997.7965 0.0000e+00
     -0.574     -0.001     7.5341     86.035      1.630   1.529632    -0.1238      7.124   172.9439 1.3462e+02    -0.1693     -0.563     -0.817    21.9161   997.7965 0.0000e+00
     -0.575     -0.001     7.5323     86.014      1.682   1.579018    -0.1206      7.121   161.8684 1.4691e+02     0.0584     -0.564     -0.817    21.9162   997.7965 0.0000e+00
     -0.575     -0.001     7.5304     85.994      1.810   1.699336    -0.1339      7.116   151.1622 1.6419e+02     0.1742     -0.565     -0.819    21.9165   997.7964 0.0000e+00
     -0.575     -0.001     7.5288     85.975      1.830   1.717132    -0.1369      7.112   141.2372 1.9401e+02     0.1829     -0.564     -0.818    21.9166   997.7964 0.0000e+00
     -0.575     -0.001     7.5275     85.960      1.777   1.667471    -0.1313      7.109   132.2920 2.2472e+02     0.1303     -0.564     -0.818    21.9167   997.7963 0.0000e+00
     -0.576     -0.001     7.5265     85.948      1.711   1.605788    -0.1265      7.107   123.6257 2.4234e+02    -0.0035     -0.565     -0.819    21.9170   997.7963 0.0000e+00
     -0.576     -0.001     7.5246     85.928      1.643   1.541591    -0.1228      7.104   115.6092 2.4927e+02    -0.0907     -0.565     -0.819    21.9172   997.7963 0.0000e+00
     -0.576     -0.001     7.5232     85.916      1.625   1.524894    -0.1206      7.103   108.4134 2.5972e+02    -0.0718     -0.565     -0.819    21.9175   997.7962 0.0000e+00
     -0.576      0.000     7.5212     85.918      1.630   1.530626    -0.1174      7.105   101.4095 2.8073e+02    -0.1356     -0.565     -0.819    21.9173   997.7962 0.0000e+00
     -0.576      0.004     7.4981     85.904      1.576   1.484167    -0.1198      7.107    95.0245 3.0733e+02    -0.3053     -0.565     -0.820    21.9177   997.7962 0.0000e+00
     -0.576      0.008     7.4205     85.863      1.544   1.470071    -0.1230      7.109    88.6023 3.3792e+02    -0.3540     -0.566     -0.820    21.9175   997.7961 0.0000e+00
     -0.576      0.009     7.3008     85.798      1.535   1.486943    -0.1216      7.106    68.5853 3.7339e+02    -0.2976     -0.565     -0.820    21.9184   997.7960 0.0000e+00
     -0.572      0.012     7.2021     85.735      1.970   1.941644    -0.1197      7.053   -98.0435 4.0415e+02    -0.2791     -0.565     -0.819    21.9176   997.7960 0.0000e+00
     -0.562      0.020     7.1438     85.695      6.168   6.144131    -0.1185      7.021  -381.9450 4.2053e+02    -0.2612     -0.549     -0.796    21.9292   997.7939 0.0000e+00
     -0.559      0.035     7.0969     85.666     15.336  15.345612    -0.1235      7.192  -493.7746 4.2673e+02    -0.1798     -0.541     -0.785    22.4448   997.6755 0.0000e+00
     -0.563      0.053     7.0520     85.630     25.266  25.395609    -0.1282      7.522  -326.2344 4.3762e+02    -0.0821     -0.559     -0.810    23.5345   997.4177 0.0000e+00
     -0.554      0.070     7.0177     85.602     32.363  32.658301    -0.1232      7.831   -39.8472 4.6783e+02    -0.0291     -0.552     -0.802    24.2495   997.2425 0.0000e+00
     -0.525      0.086     6.9937     85.595     35.219  35.653434    -0.1155      8.056   118.5999 5.1394e+02     0.0344     -0.517     -0.750    24.5079   997.1782 0.0000e+00
     -0.488      0.101     6.9763     85.592     35.569  36.101471    -0.1213      8.199   141.5815 5.5027e+02     0.1279     -0.477     -0.691    24.8561   997.0933 0.0000e+00
     -0.456      0.110     6.9639     85.568     35.706  36.298456    -0.1319      8.293   150.6060 5.6328e+02     0.2823     -0.445     -0.646    25.2181   997.0035 0.0000e+00
     -0.428      0.110     6.9535     85.528     35.814  36.448479    -0.0879      8.360   157.1610 5.6066e+02     1.5735     -0.421     -0.610    25.4453   996.9473 0.0000e+00
     -0.400      0.106     6.9420     85.497     35.895  36.582543     0.3582      8.406   161.9867 5.5051e+02    15.6411     -0.391     -0.568    25.6167   996.9031 0.0000e+00
     -0.375      0.105     6.9275     85.458     35.898  36.650052     1.1532      8.435   165.6753 5.4367e+02    41.4466     -0.365     -0.531    25.7669   996.8635 0.0000e+00
     -0.354      0.108     6.9138     85.440     35.811  36.630104     1.5816      8.449   167.2588 5.4975e+02    55.4389     -0.348     -0.507    25.8337   996.8462 0.0000e+00
     -0.331      0.113     6.9057     85.480     35.651  36.531875     1.6531      8.452   165.7305 5.8517e+02    55.5023     -0.329     -0.477    25.8700   996.8366 0.0000e+00
     -0.300      0.117     6.9018     85.555     35.420  36.351073     2.0711      8.457   164.0602 6.4709e+02    42.3111     -0.296     -0.429    25.9451   996.8170 0.0000e+00
     -0.264      0.119     6.9004     85.651     35.181  36.157853     2.8198      8.467   164.4436 6.9312e+02    17.9234     -0.257     -0.373    26.0367   996.7928 0.0000e+00
     -0.228      0.115     6.9025     85.778     35.019  36.036395     3.2236      8.479   166.5812 7.0741e+02     4.6215     -0.222     -0.322    26.1418   996.7649 0.0000e+00
     -0.196      0.104     6.9105     85.939     34.919  35.961601     3.2695      8.489   169.5145 7.0906e+02     3.4245     -0.190     -0.277    26.2333   996.7406 0.0000e+00
     -0.168      0.086     6.9256     86.128     34.847  35.888280     3.3650      8.493   171.5169 7.1107e+02     3.2540     -0.163     -0.236    26.3100   996.7201 0.0000e+00
     -0.148      0.066     6.9446     86.331     34.822  35.848040     3.5296      8.494   172.8954 7.1563e+02     3.1174     -0.142     -0.206    26.3845   996.7000 0.0000e+00
     -0.136      0.046     6.9608     86.507     34.841  35.855842     3.6122      8.493   174.0503 7.2031e+02     3.0506     -0.131     -0.191    26.4524   996.6817 0.0000e+00
     -0.130      0.030     6.9713     86.631     34.844  35.855666     3.6276      8.491   174.8116 7.2416e+02     3.0697     -0.126     -0.183    26.5050   996.6675 0.0000e+00
     -0.128      0.020     6.9783     86.721     34.833  35.845901     3.6461      8.486   177.1965 7.2786e+02     3.0861     -0.123     -0.179    26.4954   996.6701 0.0000e+00
     -0.128      0.015     6.9828     86.780     34.850  35.864718     3.6625      8.480   181.1178 7.3175e+02     3.0852     -0.126     -0.183    26.4602   996.6795 0.0000e+00
     -0.127      0.014     6.9852     86.813     34.938  35.956243     3.6868      8.475   183.5919 7.3511e+02     3.0592     -0.127     -0.184    26.4459   996.6834 0.0000e+00
     -0.122      0.015     6.9861     86.838     35.098  36.127417     3.6972      8.470   184.1384 7.3770e+02     3.0331     -0.120     -0.175    26.4426   996.6843 0.0000e+00
     -0.115      0.015     6.9858     86.852     35.242  36.284150     3.6921      8.466   184.2845 7.3994e+02     3.0643     -0.112     -0.163    26.4481   996.6829 0.0000e+00
     -0.109      0.014     6.9879     86.878     35.347  36.391483     3.6864      8.462   185.0133 7.4164e+02     3.0437     -0.106     -0.154    26.4501   996.6824 0.0000e+00
     -0.105      0.012     7.0033     87.048     35.436  36.473106     3.6714      8.458   186.3252 7.4225e+02     2.9481     -0.102     -0.148    26.4474   996.6831 0.0000e+00
     -0.104      0.007     7.0602     87.736     35.479  36.509378     3.6497      8.454   187.7574 7.4088e+02     2.8916     -0.101     -0.147    26.4578   996.6804 0.0000e+00
     -0.104      0.004     7.1642     89.025     35.484  36.512686     3.6322      8.450   189.1657 7.3846e+02     2.8523     -0.102     -0.148    26.4776   996.6751 0.0000e+00
     -0.104      0.002     7.2682     90.326     35.481  36.513100     3.5899      8.447   190.5335 7.3757e+02     2.8336     -0.101     -0.147    26.4774   996.6752 0.0000e+00
     -0.104      0.001     7.3389     91.221     35.475  36.514385     3.5108      8.444   191.4750 7.3887e+02     2.8616     -0.102     -0.148    26.4562   996.6810 0.0000e+00
     -0.104      0.001     7.3823     91.786     35.478  36.528233     3.4649      8.441   190.1390 7.4149e+02     2.8960     -0.103     -0.149    26.4416   996.6849 0.0000e+00
     -0.103      0.002     7.3981     92.014     35.490  36.553610     3.4679      8.436   178.5100 7.4388e+02     2.8881     -0.101     -0.146    26.4408   996.6851 0.0000e+00
     -0.101      0.002     7.3738     91.741     35.491  36.567340     3.5039      8.431   158.6768 7.4493e+02     2.8975     -0.099     -0.144    26.4477   996.6833 0.0000e+00
     -0.101      0.002     7.3113     90.986     35.481  36.567325     3.5714      8.430   147.1943 7.4538e+02     3.0103     -0.099     -0.144    26.4571   996.6807 0.0000e+00
     -0.101      0.002     7.2246     89.923     35.460  36.553449     3.6244      8.430   145.0751 7.4613e+02     3.1047     -0.100     -0.145    26.4715   996.6768 0.0000e+00
     -0.101      0.001     7.1236     88.678     35.430  36.526517     3.6422      8.429   143.9805 7.4738e+02     3.0889     -0.099     -0.144    26.4936   996.6708 0.0000e+00
     -0.101      0.001     7.0176     87.365     35.397  36.495580     3.6129      8.428   142.3051 7.4843e+02     3.0489     -0.099     -0.143    26.5125   996.6657 0.0000e+00
     -0.100      0.001     6.9149     86.098     35.331  36.433280     3.5574      8.427   140.4775 7.4854e+02     3.0791     -0.098     -0.143    26.5251   996.6623 0.0000e+00
     -0.100      0.001     6.8193     84.933     35.234  36.344507     3.5343      8.426   139.6928 7.4879e+02     3.1267     -0.098     -0.142    26.5367   996.6592 0.0000e+00
     -0.100      0.001     6.7344     83.909     35.186  36.310851     3.5327      8.423   141.0777 7.4998e+02     3.0998     -0.098     -0.142    26.5442   996.6572 0.0000e+00
     -0.100      0.001     6.6640     83.063     35.203  36.343725     3.5212      8.421   153.1774 7.5155e+02     3.0491     -0.098     -0.142    26.5445   996.6571 0.0000e+00
     -0.099      0.001     6.6035     82.332     35.210  36.361177     3.5154      8.418   174.9130 7.5266e+02     3.0378     -0.097     -0.141    26.5498   996.6556 0.0000e+00
     -0.099      0.001     6.5490     81.661     35.177  36.331470     3.5240      8.413   187.9233 7.5320e+02     3.0617     -0.097     -0.140    26.5682   996.6506 0.0000e+00
     -0.098      0.001     6.5030     81.089     35.148  36.301902     3.5295      8.408   190.8887 7.5364e+02     3.1084     -0.096     -0.140    26.5925   996.6440 0.0000e+00
     -0.098      0.001     6.4655     80.622     35.166  36.321030     3.5300      8.404   192.6994 7.5467e+02     3.1444     -0.096     -0.139    26.6161   996.6377 0.0000e+00
     -0.098      0.001     6.4317     80.206     35.213  36.372326     3.5388      8.401   193.8985 7.5600e+02     3.1357     -0.095     -0.138    26.6321   996.6333 0.0000e+00
     -0.098      0.001     6.4012     79.828     35.253  36.414361     3.5577      8.398   194.4610 7.5684e+02     3.1008     -0.096     -0.139    26.6368   996.6319 0.0000e+00
     -0.098      0.001     6.3785     79.541     35.287  36.448451     3.5677      8.397   195.2836 7.5734e+02     3.0833     -0.096     -0.139    26.6345   996.6325 0.0000e+00
     -0.098      0.001     6.3636     79.346     35.310  36.467146     3.5731      8.397   187.8412 7.5769e+02     3.0881     -0.095     -0.138    26.6345   996.6326 0.0000e+00
     -0.097      0.001     6.3576     79.257     35.300  36.449967     3.6319      8.398   176.5763 7.5801e+02     3.0272     -0.096     -0.139    26.6396   996.6312 0.0000e+00
     -0.097      0.001     6.3629     79.310     35.288  36.431147     3.7242      8.399   181.6872 7.5871e+02     2.9045     -0.095     -0.138    26.6431   996.6303 0.0000e+00
     -0.097      0.001     6.3791     79.501     35.292  36.429993     3.7606      8.399   193.6249 7.5978e+02     2.8501     -0.094     -0.137    26.6408   996.6310 0.0000e+00
     -0.096      0.001     6.4084     79.860     35.301  36.436018     3.7599      8.396   199.0825 7.6099e+02     2.8605     -0.095     -0.136    26.6327   996.6332 0.0000e+00
     -0.096      0.001     6.4527     80.410     35.307  36.440515     3.7508      8.393   202.5041 7.6217e+02     2.8667     -0.094     -0.136    26.6221   996.6360 0.0000e+00
     -0.095      0.001     6.5099     81.120     35.288  36.420897     3.7281      8.390   204.6232 7.6319e+02     2.8595     -0.093     -0.135    26.6119   996.6388 0.0000e+00
     -0.095      0.001     6.5757     81.938     35.259  36.389227     3.7115      8.388   205.3454 7.6406e+02     2.8390     -0.093     -0.135    26.6042   996.6409 0.0000e+00
     -0.095      0.001     6.6444     82.791     35.247  36.374953     3.6969      8.386   205.6438 7.6483e+02     2.8482     -0.093     -0.135    26.6004   996.6419 0.0000e+00
     -0.095      0.001     6.7082     83.583     35.248  36.375246     3.6905      8.384   205.2203 7.6580e+02     2.9054     -0.093     -0.135    26.5992   996.6423 0.0000e+00
     -0.095      0.001     6.7627     84.261     35.265  36.392761     3.6952      8.383   194.9763 7.6713e+02     2.9406     -0.092     -0.134    26.5986   996.6424 0.0000e+00
     -0.095      0.001     6.8090     84.836     35.270  36.396316     3.7017      8.385   174.9653 7.6823e+02     2.9130     -0.093     -0.135    26.5972   996.6428 0.0000e+00
     -0.095      0.001     6.8439     85.266     35.231  36.354752     3.7076      8.387   162.9651 7.6895e+02     2.8669     -0.093     -0.135    26.5943   996.6436 0.0000e+00
     -0.095      0.001     6.8643     85.519     35.212  36.334520     3.7056      8.388   160.4431 7.7016e+02     2.8428     -0.093     -0.134    26.5926   996.6440 0.0000e+00
     -0.094      0.001     6.8733     85.634     35.219  36.342106     3.7042      8.389   159.7879 7.7191e+02     2.8503     -0.092     -0.134    26.5923   996.6441 0.0000e+00
     -0.093      0.001     6.8740     85.646     35.195  36.319526     3.7080      8.390   167.0877 7.7355e+02     2.8588     -0.091     -0.133    26.5907   996.6446 0.0000e+00
     -0.093      0.001     6.8686     85.581     35.190  36.315401     3.7078      8.390   183.9170 7.7493e+02     2.8486     -0.091     -0.133    26.5875   996.6454 0.0000e+00
     -0.093      0.001     6.8582     85.453     35.228  36.355694     3.7022      8.386   197.4720 7.7642e+02     2.8581     -0.091     -0.133    26.5862   996.6458 0.0000e+00
     -0.093      0.001     6.8415     85.246     35.235  36.362412     3.6836      8.380   201.7500 7.7830e+02     2.8743     -0.091     -0.132    26.5882   996.6452 0.0000e+00
     -0.093      0.001     6.8186     84.959     35.207  36.333166     3.6564      8.376   193.3100 7.7980e+02     2.8805     -0.091     -0.132    26.5909   996.6445 0.0000e+00
     -0.092      0.001     6.7924     84.631     35.195  36.319432     3.6426      8.376   174.7527 7.8082e+02     2.8675     -0.090     -0.131    26.5929   996.6439 0.0000e+00
     -0.092      0.001     6.7649     84.285     35.200  36.323290     3.6464      8.379   163.4780 7.8224e+02     2.8483     -0.090     -0.131    26.5939   996.6437 0.0000e+00
     -0.092      0.001     6.7369     83.934     35.194  36.316344     3.6675      8.381   170.3884 7.8358e+02     2.8462     -0.090     -0.131    26.5938   996.6437 0.0000e+00
     -0.091      0.001     6.7104     83.600     35.179  36.298909     3.6904      8.380   189.0443 7.8446e+02     2.8419     -0.089     -0.130    26.5930   996.6439 0.0000e+00
     -0.091      0.001     6.6857     83.287     35.185  36.302900     3.6976      8.378   200.5324 7.8522e+02     2.8611     -0.090     -0.130    26.5919   996.6442 0.0000e+00
     -0.091      0.001     6.6632     83.001     35.186  36.301131     3.7019      8.374   195.8039 7.8577e+02     2.8823     -0.090     -0.131    26.5903   996.6447 0.0000e+00
     -0.090      0.001     6.6438     82.753     35.166  36.277512     3.7336      8.371   190.2941 7.8656e+02     2.9016     -0.089     -0.129    26.5881   996.6453 0.0000e+00
     -0.090      0.001     6.6270     82.537     35.163  36.271202     3.7871      8.370   198.3573 7.8744e+02     2.9628     -0.089     -0.129    26.5855   996.6459 0.0000e+00
     -0.090      0.002     6.6118     82.341     35.183  36.288312     3.8110      8.368   207.0839 7.8757e+02     3.0332     -0.088     -0.128    26.5824   996.6468 0.0000e+00
     -0.090      0.002     6.5973     82.154     35.190  36.293969     3.8060      8.366   208.6494 7.8739e+02     3.0638     -0.088     -0.128    26.5783   996.6479 0.0000e+00
     -0.089      0.001     6.5838     81.982     35.175  36.276129     3.8037      8.364   209.1982 7.8752e+02     3.0381     -0.087     -0.127    26.5738   996.6491 0.0000e+00
     -0.089      0.001     6.5731     81.846     35.164  36.263018     3.8093      8.364   208.8999 7.8767e+02     3.0171     -0.087     -0.126    26.5696   996.6503 0.0000e+00
     -0.088      0.001     6.5657     81.751     35.164  36.262385     3.8219      8.363   200.9991 7.8806e+02     3.0393     -0.087     -0.127    26.5651   996.6516 0.0000e+00
     -0.088      0.001     6.5568     81.639     35.171  36.268467     3.8261      8.363   193.0846 7.8870e+02     3.0769     -0.086     -0.125    26.5609   996.6527 0.0000e+00
     -0.088      0.001     6.5447     81.486     35.177  36.273084     3.8175      8.365   200.5359 7.8925e+02     3.0779     -0.086     -0.125    26.5584   996.6533 0.0000e+00
     -0.088      0.001     6.5342     81.352     35.161  36.254739     3.8214      8.366   210.3019 7.8972e+02     3.0519     -0.086     -0.125    26.5566   996.6538 0.0000e+00
     -0.087      0.001     6.5266     81.253     35.145  36.237059     3.8302      8.365   212.7350 7.9009e+02     3.0580     -0.085     -0.124    26.5552   996.6542 0.0000e+00
     -0.087      0.001     6.5199     81.165     35.160  36.249733     3.8277      8.362   213.9510 7.9063e+02     3.0860     -0.085     -0.124    26.5539   996.6546 0.0000e+00
     -0.087      0.001     6.5134     81.080     35.192  36.281029     3.8263      8.358   215.4546 7.9121e+02     3.1284     -0.086     -0.125    26.5515   996.6552 0.0000e+00
     -0.087      0.002     6.5072     80.999     35.210  36.298095     3.8383      8.357   215.9439 7.9178e+02     3.1446     -0.085     -0.124    26.5488   996.6559 0.0000e+00
     -0.087      0.003     6.5011     80.921     35.180  36.265668     3.8609      8.356   215.7376 7.9244e+02     3.1185     -0.086     -0.124    26.5471   996.6564 0.0000e+00
     -0.087      0.006     6.4972     80.871     35.123  36.206313     3.8745      8.353   217.5197 7.9265e+02     3.0742     -0.085     -0.123    26.5444   996.6571 0.0000e+00
     -0.086      0.009     6.4960     80.846     35.075  36.151670     3.8816      8.350   219.1648 7.9192e+02     3.0682     -0.085     -0.123    26.5403   996.6582 0.0000e+00
     -0.084      0.011     6.4953     80.812     35.049  36.112748     3.8851      8.347   218.8509 7.9023e+02     3.1767     -0.083     -0.119    26.5375   996.6591 0.0000e+00
     -0.079      0.013     6.4930     80.753     35.068  36.116511     3.8821      8.345   218.3702 7.8611e+02     3.3045     -0.078     -0.113    26.5370   996.6592 0.0000e+00
     -0.074      0.015     6.4865     80.648     35.095  36.133663     3.8811      8.343   218.4295 7.7680e+02     3.3357     -0.072     -0.104    26.5381   996.6589 0.0000e+00
     -0.069      0.017     6.4761     80.512     35.095  36.129710     3.8816      8.339   218.7066 7.6171e+02     3.2918     -0.067     -0.097    26.5334   996.6601 0.0000e+00
     -0.067      0.019     6.4663     80.387     35.099  36.132178     3.8443      8.331   218.7961 7.4401e+02     3.2652     -0.066     -0.095    26.5133   996.6656 0.0000e+00
     -0.063      0.020     6.4588     80.288     35.070  36.100029     3.7603      8.321   218.8231 7.2834e+02     3.3091     -0.063     -0.091    26.4864   996.6729 0.0000e+00
     -0.058      0.020     6.4528     80.207     35.032  36.058346     3.7060      8.310   218.0863 7.1942e+02     3.3632     -0.057     -0.082    26.4694   996.6775 0.0000e+00
     -0.050      0.020     6.4465     80.125     35.109  36.135951     3.6994      8.300   216.5131 7.1769e+02     3.3627     -0.049     -0.071    26.4678   996.6779 0.0000e+00
     -0.044      0.022     6.4385     80.028     35.244  36.276691     3.6712      8.294   215.2024 7.1632e+02     3.3354     -0.042     -0.061    26.4675   996.6781 0.0000e+00
     -0.039      0.028     6.4332     79.970     35.325  36.363678     3.6172      8.287   207.2288 7.1354e+02     3.3284     -0.037     -0.053    26.4626   996.6795 0.0000e+00
     -0.037      0.039     6.4387     80.038     35.325  36.362589     3.5925      8.280   199.8637 7.1142e+02     3.3113     -0.036     -0.053    26.4600   996.6800 0.0000e+00
     -0.033      0.052     6.4542     80.219     35.234  36.263528     3.5886      8.275   207.5446 7.0044e+02     3.2588     -0.037     -0.052    26.4528   996.6820 0.0000e+00
     -0.019      0.064     6.4709     80.424     35.155  36.181458     3.5881      8.269   215.0912 6.7602e+02     3.2179     -0.023     -0.033    26.4562   996.6813 0.0000e+00
      0.006      0.073     6.4799     80.557     35.159  36.195407     3.6476      8.264   214.1038 6.1058e+02     3.2424      0.003      0.004    26.4675   996.6783 0.0000e+00
      0.036      0.077     6.4761     80.548     35.186  36.241786     3.7608      8.262   213.1577 5.1307e+02     3.2943      0.036      0.052    26.4655   996.6790 0.0000e+00
      0.063      0.077     6.4644     80.434     35.226  36.297956     3.8300      8.262   212.6868 4.5450e+02     3.3209      0.066      0.096    26.4534   996.6823 0.0000e+00
      0.082      0.073     6.4565     80.349     35.225  36.303338     3.8350      8.262   204.2800 4.3184e+02     3.3348      0.082      0.119    26.4441   996.6850 0.0000e+00
      0.092      0.068     6.4610     80.409     35.103  36.179930     3.8120      8.260   187.5709 4.2845e+02     3.2657      0.091      0.132    26.4646   996.6795 0.0000e+00
      0.101      0.064     6.4775     80.628     34.934  36.011785     3.7860      8.258   176.8862 4.5203e+02     3.1081      0.096      0.141    26.4960   996.6710 0.0000e+00
      0.115      0.062     6.4982     80.909     34.834  35.920541     3.7716      8.260   173.9516 4.6107e+02     3.0351      0.110      0.160    26.5200   996.6646 0.0000e+00
      0.137      0.062     6.5148     81.129     34.810  35.901839     3.7676      8.263   172.2218 4.2928e+02     3.0710      0.134      0.194    26.5289   996.6623 0.0000e+00
      0.159      0.062     6.5213     81.200     34.825  35.912604     3.7817      8.264   170.8561 3.9225e+02     3.0830      0.159      0.230    26.5240   996.6637 0.0000e+00
      0.176      0.061     6.5177     81.139     34.843  35.923753     3.8032      8.264   169.7428 3.8441e+02     3.0487      0.176      0.255    26.5325   996.6614 0.0000e+00
      0.188      0.056     6.5082     81.011     34.833  35.909690     3.8112      8.264   169.7734 3.8835e+02     3.0173      0.184      0.266    26.5575   996.6547 0.0000e+00
      0.198      0.050     6.4950     80.835     34.800  35.869498     3.8187      8.264   170.4522 3.8245e+02     3.0316      0.193      0.280    26.5720   996.6508 0.0000e+00
      0.211      0.044     6.4805     80.639     34.757  35.818610     3.8408      8.263   170.2068 3.7433e+02     3.0906      0.207      0.300    26.5539   996.6557 0.0000e+00
      0.223      0.041     6.4680     80.472     34.747  35.802145     3.8699      8.260   169.7316 3.6623e+02     3.1073      0.220      0.319    26.5408   996.6593 0.0000e+00
      0.233      0.041     6.4594     80.358     34.746  35.797351     3.8851      8.257   169.2664 3.5922e+02     3.1026      0.230      0.333    26.5407   996.6594 0.0000e+00
      0.242      0.040     6.4535     80.280     34.713  35.760642     3.8866      8.255   168.4538 3.5227e+02     3.1317      0.237      0.343    26.5308   996.6621 0.0000e+00
      0.251      0.040     6.4473     80.198     34.695  35.739118     3.9043      8.253   168.5966 3.4295e+02     3.1314      0.245      0.355    26.5181   996.6656 0.0000e+00
      0.261      0.040     6.4373     80.068     34.685  35.727504     3.9347      8.251   169.7889 3.3631e+02     3.0985      0.256      0.371    26.5105   996.6677 0.0000e+00
      0.272      0.040     6.4201     79.849     34.645  35.683685     3.9504      8.251   170.6524 3.3068e+02     3.0625      0.267      0.388    26.5062   996.6690 0.0000e+00
      0.283      0.040     6.3939     79.518     34.618  35.653580     3.9471      8.251   171.0344 3.2552e+02     3.0564      0.278      0.403    26.5021   996.6701 0.0000e+00
      0.294      0.039     6.3598     79.088     34.647  35.680858     3.9381      8.250   171.1385 3.2201e+02     3.0906      0.288      0.418    26.4991   996.6709 0.0000e+00
      0.304      0.037     6.3199     78.583     34.728  35.759614     3.9374      8.249   171.0501 3.1906e+02     3.0823      0.298      0.433    26.4968   996.6715 0.0000e+00
      0.313      0.038     6.2785     78.057     34.815  35.844176     3.9471      8.246   171.0841 3.1677e+02     3.0540      0.309      0.448    26.4938   996.6724 0.0000e+00
      0.321      0.043     6.2424     77.597     34.792  35.814714     3.9595      8.241   171.3781 3.1432e+02     3.0770      0.315      0.457    26.4892   996.6736 0.0000e+00
      0.327      0.050     6.2148     77.256     34.638  35.657257     3.9574      8.238   171.9374 3.1114e+02     3.0977      0.319      0.463    26.4864   996.6745 0.0000e+00
      0.337      0.056     6.1936     77.008     34.504  35.527093     3.9300      8.235   172.5987 3.0639e+02     3.1408      0.326      0.474    26.4794   996.6764 0.0000e+00
      0.355      0.058     6.1761     76.772     34.498  35.510308     3.8970      8.233   173.1792 2.9814e+02     3.2373      0.345      0.501    26.4717   996.6786 0.0000e+00
      0.380      0.055     6.1590     76.475     34.608  35.581234     3.8877      8.233   172.6750 2.9037e+02     3.2813      0.374      0.543    26.4617   996.6814 0.0000e+00
      0.401      0.050     6.1400     76.148     34.755  35.686431     3.8966      8.236   171.4066 2.8597e+02     3.2798      0.397      0.576    26.4547   996.6833 0.0000e+00
      0.413      0.045     6.1255     75.921     34.855  35.766658     3.9172      8.237   171.2656 2.8433e+02     3.2515      0.407      0.592    26.4864   996.6749 0.0000e+00
      0.417      0.042     6.1231     75.896     34.814  35.726125     3.9458      8.232   172.2603 2.8398e+02     3.1695      0.409      0.594    26.4866   996.6747 0.0000e+00
      0.417      0.044     6.1375     76.126     34.644  35.577155     3.9561      8.227   173.2810 2.8262e+02     3.1066      0.409      0.593    26.3995   996.6982 0.0000e+00
      0.421      0.052     6.1698     76.596     34.524  35.488779     3.9552      8.222   173.7122 2.7902e+02     3.0811      0.409      0.593    26.3169   996.7205 0.0000e+00
      0.435      0.064     6.2187     77.212     34.514  35.482729     3.9700      8.221   173.3442 2.6954e+02     3.0911      0.421      0.611    26.2904   996.7278 0.0000e+00
      0.461      0.075     6.2831     77.920     34.578  35.504009     3.9969      8.222   172.5309 2.5751e+02     3.1288      0.453      0.657    26.2911   996.7278 0.0000e+00
      0.490      0.084     6.3540     78.667     34.691  35.555596     4.0196      8.222   172.2242 2.4864e+02     3.1113      0.483      0.700    26.3303   996.7172 0.0000e+00
      0.515      0.089     6.4193     79.387     34.775  35.598608     4.0275      8.221   172.4760 2.4078e+02     3.0436      0.506      0.733    26.4095   996.6960 0.0000e+00
      0.536      0.087     6.4729     80.019     34.771  35.579727     4.0486      8.220   172.7351 2.3402e+02     2.9984      0.527      0.764    26.4311   996.6902 0.0000e+00
      0.556      0.081     6.5098     80.471     34.712  35.517689     4.1020      8.220   173.0338 2.2819e+02     3.0233      0.544      0.789    26.3436   996.7139 0.0000e+00
      0.576      0.075     6.5243     80.654     34.676  35.483189     4.1360      8.222   173.7650 2.2177e+02     3.0829      0.565      0.819    26.2235   996.7463 0.0000e+00
      0.596      0.070     6.5140     80.533     34.670  35.479949     4.1391      8.224   174.6925 2.1664e+02     3.0954      0.585      0.848    26.1626   996.7626 0.0000e+00
      0.614      0.066     6.4814     80.134     34.667  35.478508     4.1397      8.226   174.9564 2.1324e+02     3.0760      0.604      0.876    26.1524   996.7654 0.0000e+00
      0.629      0.064     6.4300     79.504     34.653  35.465770     4.1432      8.226   174.8911 2.1027e+02     3.0775      0.617      0.896    26.1528   996.7653 0.0000e+00
      0.642      0.064     6.3644     78.699     34.637  35.452870     4.1464      8.225   174.9356 2.0682e+02     3.1146      0.629      0.913    26.1569   996.7643 0.0000e+00
      0.657      0.066     6.2918     77.809     34.630  35.449485     4.1430      8.224   175.6671 2.0298e+02     3.1319      0.645      0.935    26.1610   996.7633 0.0000e+00
      0.673      0.071     6.2194     76.921     34.602  35.424843     4.1372      8.222   177.2816 1.9874e+02     3.1215      0.660      0.958    26.1641   996.7626 0.0000e+00
      0.692      0.077     6.1531     76.104     34.585  35.408807     4.1461      8.219   178.3671 1.9392e+02     3.1535      0.678      0.982    26.1664   996.7621 0.0000e+00
      0.713      0.082     6.0963     75.401     34.807  35.636397     4.1722      8.216   178.7251 1.8855e+02     3.2234      0.698      1.012    26.1715   996.7607 0.0000e+00
      0.737      0.084     6.0597     74.950     35.304  36.145590     4.1924      8.214   178.6839 1.8273e+02     3.2784      0.722      1.049    26.1777   996.7592 0.0000e+00
      0.762      0.082     6.0846     75.276     35.692  36.551300     4.2169      8.214   178.2134 1.7736e+02     3.3266      0.748      1.084    26.1838   996.7577 0.0000e+00
      0.784      0.077     6.2506     77.393     35.839  36.733598     4.3478      8.215   178.5430 1.7282e+02     3.3152      0.769      1.115    26.1854   996.7574 0.0000e+00
      0.805      0.070     6.5994     81.823     35.878  36.826463     4.5690      8.216   179.8298 1.6891e+02     3.2064      0.789      1.146    26.1864   996.7572 0.0000e+00
      0.822      0.060     7.0698     87.784     35.843  36.849063     4.6899      8.219   180.7802 1.6578e+02     3.1244      0.807      1.172    26.1822   996.7587 0.0000e+00
      0.834      0.052     7.5651     94.043     35.766  36.816525     4.7079      8.220   181.2579 1.6335e+02     3.1110      0.820      1.188    26.1842   996.7582 0.0000e+00
      0.843      0.047     8.0159     99.704     35.679  36.750486     4.7781      8.220   181.5621 1.6085e+02     3.1428      0.828      1.199    26.2288   996.7464 0.0000e+00
      0.852      0.045     8.3812    104.229     35.622  36.685356     4.8975      8.221   181.7914 1.5805e+02     3.1816      0.835      1.211    26.3126   996.7240 0.0000e+00
      0.862      0.045     8.6442    107.422     35.628  36.663746     4.9546      8.222   181.6208 1.5510e+02     3.2187      0.845      1.225    26.4032   996.6996 0.0000e+00
      0.874      0.047     8.7992    109.253     35.677  36.679573     4.9573      8.222   181.1341 1.5198e+02     3.2647      0.856      1.242    26.4743   996.6805 0.0000e+00
      0.887      0.048     8.8511    109.816     35.713  36.686256     5.0078      8.222   181.0690 1.4872e+02     3.2783      0.870      1.262    26.5124   996.6703 0.0000e+00
      0.901      0.048     8.8333    109.531     35.730  36.681023     5.1153      8.222   181.4359 1.4532e+02     3.2838      0.883      1.281    26.4996   996.6737 0.0000e+00
      0.916      0.046     8.7914    108.969     35.743  36.679743     5.1730      8.224   182.0429 1.4211e+02     3.2659      0.898      1.302    26.4483   996.6876 0.0000e+00
      0.929      0.044     8.7581    108.532     35.743  36.670758     5.1679      8.226   181.8695 1.3968e+02     3.2260      0.912      1.323    26.3959   996.7019 0.0000e+00
      0.939      0.044     8.7447    108.351     35.714  36.635846     5.1577      8.228   181.0604 1.3795e+02     3.2279      0.922      1.338    26.3536   996.7133 0.0000e+00
      0.945      0.046     8.7471    108.355     35.664  36.574981     5.0488      8.230   181.1215 1.3647e+02     3.2564      0.927      1.344    26.3211   996.7220 0.0000e+00
      0.953      0.051     8.7609    108.461     35.620  36.506074     4.8492      8.230   181.7486 1.3484e+02     3.2746      0.931      1.352    26.2995   996.7279 0.0000e+00
      0.965      0.056     8.7791    108.566     35.595  36.437365     4.7380      8.230   182.2753 1.3232e+02     3.2846      0.945      1.370    26.2900   996.7304 0.0000e+00
      0.984      0.059     8.7936    108.598     35.590  36.378883     4.7101      8.230   182.5857 1.2917e+02     3.2790      0.964      1.399    26.2846   996.7320 0.0000e+00
      1.005      0.059     8.8065    108.613     35.633  36.370137     4.6688      8.230   182.5765 1.2675e+02     3.2065      0.987      1.432    26.2779   996.7339 0.0000e+00
      1.024      0.057     8.8221    108.687     35.699  36.395003     4.6194      8.230   182.3362 1.2506e+02     3.0960      1.006      1.459    26.2493   996.7416 0.0000e+00
      1.039      0.053     8.8387    108.812     35.694  36.362110     4.6068      8.230   182.2611 1.2364e+02     3.0580      1.020      1.480    26.1801   996.7602 0.0000e+00
      1.047      0.053     8.8563    108.970     35.644  36.289747     4.6292      8.228   182.7007 1.2296e+02     3.0740      1.029      1.492    26.1001   996.7816 0.0000e+00
      1.053      0.057     8.8752    109.130     35.600  36.218219     4.7954      8.224   183.3495 1.2218e+02     3.1918      1.031      1.494    26.0244   996.8018 0.0000e+00
      1.063      0.067     8.8896    109.204     35.552  36.131947     5.1070      8.221   184.1681 1.1994e+02     3.4333      1.039      1.506    25.9593   996.8191 0.0000e+00
      1.082      0.077     8.8950    109.131     35.542  36.071696     5.2853      8.220   185.1991 1.1668e+02     3.5692      1.058      1.534    25.9249   996.8284 0.0000e+00
      1.108      0.086     8.8875    108.888     35.584  36.060888     5.3293      8.220   185.8358 1.1276e+02     3.5900      1.084      1.572    25.9024   996.8344 0.0000e+00
      1.138      0.090     8.8650    108.488     35.632  36.064655     5.5870      8.218   186.0154 1.0853e+02     3.6514      1.116      1.619    25.8676   996.8437 0.0000e+00
      1.168      0.086     8.8300    107.971     35.653  36.053704     6.0518      8.217   185.9082 1.0505e+02     3.7546      1.147      1.664    25.8173   996.8572 0.0000e+00
      1.192      0.076     8.7861    107.376     35.675  36.055370     6.3019      8.217   185.8307 1.0260e+02     3.8220      1.172      1.699    25.7426   996.8769 0.0000e+00
      1.208      0.063     8.7375    106.748     35.716  36.084769     6.3136      8.217   186.9702 1.0084e+02     3.8102      1.187      1.721    25.6578   996.8993 0.0000e+00
      1.218      0.052     8.6897    106.144     35.730  36.091799     6.2361      8.215   189.1897 9.9401e+01     3.7758      1.195      1.733    25.5946   996.9160 0.0000e+00
      1.226      0.047     8.6492    105.626     35.725  36.076886     6.0933      8.211   190.8972 9.8218e+01     3.7663      1.203      1.744    25.5518   996.9272 0.0000e+00
      1.233      0.048     8.6202    105.227     35.759  36.094851     6.0176      8.205   191.4403 9.7141e+01     3.7610      1.209      1.754    25.5228   996.9348 0.0000e+00
      1.242      0.055     8.6007    104.925     35.806  36.118578     6.0139      8.199   191.3686 9.5681e+01     3.7775      1.216      1.765    25.5069   996.9390 0.0000e+00
      1.257      0.065     8.5820    104.618     35.827  36.109853     6.0225      8.192   191.6654 9.3919e+01     3.8025      1.231      1.785    25.5001   996.9408 0.0000e+00
      1.277      0.074     8.5539    104.186     35.867  36.116243     6.1656      8.186   192.6200 9.1897e+01     3.7680      1.251      1.815    25.4913   996.9432 0.0000e+00
      1.301      0.081     8.5077    103.542     35.913  36.132328     6.4438      8.179   193.9618 8.9565e+01     3.7212      1.275      1.850    25.4674   996.9496 0.0000e+00
      1.326      0.084     8.4405    102.663     35.917  36.113873     6.6108      8.174   195.4143 8.7480e+01     3.7604      1.302      1.888    25.4339   996.9584 0.0000e+00
      1.349      0.084     8.3574    101.613     35.902  36.083486     6.6588      8.169   196.5876 8.5768e+01     3.8488      1.324      1.920    25.3916   996.9695 0.0000e+00
      1.369      0.082     8.2670    100.484     35.912  36.082247     6.9906      8.164   197.2206 8.4156e+01     3.9713      1.343      1.948    25.3402   996.9830 0.0000e+00
      1.388      0.080     8.1797     99.380     35.946  36.098879     7.6135      8.158   197.1306 8.2584e+01     4.1271      1.362      1.975    25.2955   996.9946 0.0000e+00
      1.407      0.080     8.1054     98.412     35.967  36.094149     7.9569      8.153   196.6181 8.0989e+01     4.1924      1.379      2.001    25.2631   997.0031 0.0000e+00
      1.427      0.081     8.0481     97.638     35.993  36.088479     7.9958      8.148   196.7038 7.9301e+01     4.2035      1.397      2.028    25.2440   997.0081 0.0000e+00
      1.448      0.081     8.0013     96.988     36.031  36.093743     8.1263      8.142   197.3928 7.7520e+01     4.1631      1.419      2.058    25.2338   997.0109 0.0000e+00
      1.471      0.080     7.9556     96.349     36.066  36.094288     8.3563      8.137   198.0648 7.5778e+01     4.0326      1.442      2.092    25.2127   997.0165 0.0000e+00
      1.494      0.078     7.9057     95.658     36.102  36.095014     8.4785      8.133   199.1495 7.4174e+01     3.9686      1.466      2.126    25.1728   997.0268 0.0000e+00
      1.514      0.073     7.8462     94.858     36.143  36.102463     8.5035      8.131   200.1834 7.2729e+01     3.9793      1.486      2.155    25.1252   997.0392 0.0000e+00
      1.532      0.067     7.7740     93.917     36.190  36.120838     8.5276      8.128   200.4133 7.1503e+01     3.9656      1.503      2.180    25.0824   997.0503 0.0000e+00
      1.548      0.062     7.6932     92.883     36.220  36.126726     8.5533      8.126   200.7248 7.0477e+01     3.9666      1.519      2.203    25.0348   997.0626 0.0000e+00
      1.562      0.057     7.6093     91.821     36.225  36.110149     8.5720      8.124   201.5412 6.9525e+01     3.9905      1.533      2.223    24.9815   997.0763 0.0000e+00
      1.574      0.056     7.5273     90.786     36.245  36.110787     8.5715      8.123   202.4541 6.8616e+01     3.9921      1.544      2.239    24.9358   997.0881 0.0000e+00
      1.585      0.057     7.4530     89.847     36.288  36.134410     8.5389      8.120   203.4163 6.7637e+01     3.9535      1.554      2.254    24.8969   997.0982 0.0000e+00
      1.599      0.058     7.3869     89.008     36.313  36.141858     8.4811      8.118   204.1416 6.6468e+01     3.8844      1.567      2.273    24.8638   997.1067 0.0000e+00
      1.616      0.061     7.3279     88.259     36.326  36.137339     8.4447      8.115   204.4256 6.5222e+01     3.8452      1.585      2.298    24.8356   997.1139 0.0000e+00
      1.635      0.064     7.2793     87.638     36.348  36.143219     8.4375      8.112   204.6992 6.4042e+01     3.8071      1.603      2.325    24.8085   997.1209 0.0000e+00
      1.651      0.066     7.2420     87.158     36.368  36.149465     8.4369      8.107   205.0407 6.3012e+01     3.7515      1.620      2.350    24.7821   997.1277 0.0000e+00
      1.667      0.068     7.2158     86.823     36.377  36.149364     8.4031      8.102   205.2854 6.1977e+01     3.7628      1.635      2.370    24.7568   997.1342 0.0000e+00
      1.684      0.069     7.1974     86.592     36.374  36.141977     8.3323      8.097   205.7649 6.0738e+01     3.8128      1.650      2.393    24.7341   997.1400 0.0000e+00
      1.702      0.069     7.1824     86.408     36.357  36.123612     8.2909      8.091   206.3650 5.9412e+01     3.8314      1.669      2.421    24.7123   997.1456 0.0000e+00
      1.721      0.070     7.1717     86.280     36.351  36.117728     8.2763      8.084   206.6037 5.8114e+01     3.8238      1.688      2.448    24.6907   997.1512 0.0000e+00
      1.739      0.071     7.1659     86.205     36.370  36.134310     8.1724      8.077   206.5006 5.6800e+01     3.7533      1.705      2.473    24.6781   997.1545 0.0000e+00
      1.757      0.071     7.1606     86.119     36.380  36.133687     7.9889      8.071   206.3222 5.5512e+01     3.6344      1.723      2.499    24.6735   997.1558 0.0000e+00
      1.775      0.069     7.1529     85.989     36.373  36.110174     7.8959      8.068   206.5126 5.4254e+01     3.5662      1.741      2.525    24.6704   997.1565 0.0000e+00
      1.793      0.066     7.1403     85.801     36.384  36.103876     7.8971      8.065   207.4258 5.2979e+01     3.5514      1.759      2.551    24.6741   997.1557 0.0000e+00
      1.812      0.061     7.1187     85.502     36.420  36.120989     7.9603      8.061   208.8458 5.1806e+01     3.4881      1.778      2.578    24.6763   997.1552 0.0000e+00
      1.828      0.057     7.0875     85.079     36.448  36.126645     8.0876      8.058   210.0003 5.0782e+01     3.3583      1.793      2.601    24.6591   997.1596 0.0000e+00
      1.841      0.055     7.0498     84.562     36.460  36.108752     8.1700      8.056   210.4579 4.9962e+01     3.2927      1.807      2.621    24.6310   997.1668 0.0000e+00
      1.851      0.054     7.0049     83.940     36.485  36.095025     8.1857      8.054   210.6796 4.9319e+01     3.3179      1.816      2.635    24.6091   997.1724 0.0000e+00
      1.861      0.055     6.9473     83.161     36.520  36.087551     8.1643      8.051   211.3039 4.8554e+01     3.3347      1.823      2.645    24.5854   997.1785 0.0000e+00
      1.875      0.057     6.8754     82.221     36.553  36.081793     8.1198      8.047   212.2417 4.7547e+01     3.2992      1.837      2.665    24.5564   997.1858 0.0000e+00
      1.893      0.060     6.7925     81.144     36.602  36.088818     8.0981      8.045   212.8985 4.6525e+01     3.2497      1.856      2.692    24.5192   997.1952 0.0000e+00
      1.911      0.064     6.7020     79.964     36.672  36.108963     8.1011      8.043   213.2230 4.5687e+01     3.2613      1.875      2.718    24.4604   997.2101 0.0000e+00
      1.928      0.066     6.6072     78.739     36.747  36.134878     8.1043      8.040   213.5833 4.4872e+01     3.3080      1.891      2.743    24.3971   997.2261 0.0000e+00
      1.944      0.066     6.5026     77.418     36.799  36.148202     8.1018      8.036   213.9863 4.3965e+01     3.3222      1.906      2.765    24.3508   997.2378 0.0000e+00
      1.960      0.066     6.3796     75.893     36.825  36.143072     8.0972      8.031   214.0515 4.3077e+01     3.3019      1.922      2.788    24.2993   997.2507 0.0000e+00
      1.977      0.066     6.2419     74.206     36.844  36.136277     8.1004      8.026   213.9415 4.2192e+01     3.2592      1.939      2.812    24.2250   997.2692 0.0000e+00
      1.993      0.067     6.1063     72.548     36.863  36.129474     8.1763      8.022   214.1180 4.1321e+01     3.2002      1.955      2.835    24.1554   997.2868 0.0000e+00
      2.010      0.068     5.9865     71.064     36.892  36.124250     8.3128      8.019   214.4652 4.0441e+01     3.1120      1.971      2.859    24.1069   997.2988 0.0000e+00
      2.028      0.070     5.8844     69.762     36.956  36.136536     8.3803      8.017   214.8705 3.9474e+01     3.0448      1.988      2.883    24.0664   997.3089 0.0000e+00
      2.047      0.072     5.7926     68.567     37.034  36.151009     8.3853      8.014   215.3182 3.8549e+01     3.0434      2.008      2.913    24.0309   997.3178 0.0000e+00
      2.065      0.072     5.6981     67.351     37.115  36.172206     8.3813      8.009   215.4044 3.7729e+01     3.0614      2.026      2.938    24.0035   997.3247 0.0000e+00
      2.084      0.072     5.5947     66.056     37.190  36.202322     8.2544      8.005   215.1385 3.6833e+01     3.0663      2.041      2.961    23.9622   997.3349 0.0000e+00
      2.104      0.070     5.4867     64.720     37.224  36.197727     8.0130      8.003   215.2013 3.5843e+01     3.0705      2.062      2.990    23.8914   997.3524 0.0000e+00
      2.124      0.065     5.3793     63.386     37.249  36.180065     7.8805      8.000   215.9055 3.4998e+01     3.0792      2.084      3.021    23.8002   997.3749 0.0000e+00
      2.141      0.061     5.2796     62.141     37.294  36.179130     7.8755      7.997   217.0272 3.4388e+01     3.0730      2.101      3.047    23.7153   997.3957 0.0000e+00
      2.154      0.059     5.1985     61.121     37.346  36.186345     7.8834      7.996   218.0092 3.3924e+01     3.1261      2.113      3.065    23.6623   997.4087 0.0000e+00
      2.165      0.059     5.1484     60.468     37.406  36.203772     7.8808      7.994   218.5712 3.3436e+01     3.2633      2.123      3.079    23.6204   997.4190 0.0000e+00
      2.177      0.060     5.1338     60.234     37.444  36.199371     7.8696      7.990   218.9187 3.2826e+01     3.3225      2.135      3.096    23.5608   997.4335 0.0000e+00
      2.192      0.063     5.1477     60.332     37.486  36.196550     7.8432      7.987   219.2002 3.2183e+01     3.2840      2.149      3.116    23.4985   997.4487 0.0000e+00
      2.210      0.067     5.1785     60.625     37.570  36.233070     7.5793      7.983   219.4792 3.1482e+01     3.2246      2.166      3.142    23.4416   997.4625 0.0000e+00
      2.231      0.069     5.2100     60.926     37.644  36.260045     7.0892      7.980   219.7968 3.0747e+01     3.1287      2.188      3.173    23.3860   997.4761 0.0000e+00
      2.251      0.068     5.2244     61.033     37.694  36.268746     6.8153      7.978   220.4589 3.0097e+01     3.0754      2.208      3.203    23.3332   997.4888 0.0000e+00
      2.270      0.065     5.2109     60.829     37.732  36.274750     6.7916      7.975   221.2894 2.9558e+01     3.1045      2.226      3.229    23.2765   997.5025 0.0000e+00
      2.285      0.061     5.1681     60.295     37.750  36.269117     6.7759      7.972   221.6653 2.9162e+01     3.1197      2.242      3.251    23.2151   997.5173 0.0000e+00
      2.298      0.057     5.1027     59.502     37.765  36.264082     6.7290      7.970   221.6482 2.8816e+01     3.0952      2.254      3.269    23.1535   997.5320 0.0000e+00
      2.310      0.055     5.0250     58.568     37.799  36.277309     6.6937      7.969   221.5123 2.8431e+01     3.0704      2.265      3.285    23.0990   997.5451 0.0000e+00
      2.323      0.055     4.9443     57.602     37.844  36.302076     6.6876      7.966   221.5718 2.8030e+01     3.0820      2.278      3.304    23.0596   997.5545 0.0000e+00
      2.338      0.057     4.8668     56.679     37.866  36.309628     6.7681      7.962   222.2810 2.7568e+01     3.1367      2.292      3.323    23.0314   997.5613 0.0000e+00
      2.353      0.061     4.7988     55.861     37.880  36.305120     6.9295      7.958   223.3769 2.7097e+01     3.1427      2.307      3.347    23.0067   997.5671 0.0000e+00
      2.368      0.064     4.7463     55.205     37.920  36.311025     7.0265      7.955   224.0669 2.6684e+01     3.0889      2.322      3.369    22.9815   997.5732 0.0000e+00
      2.384      0.067     4.7110     54.729     37.977  36.317503     7.0390      7.952   224.2559 2.6204e+01     3.0756      2.337      3.389    22.9528   997.5802 0.0000e+00
      2.403      0.070     4.6929     54.432     38.046  36.319909     7.0289      7.948   224.2868 2.5682e+01     3.0802      2.356      3.418    22.9402   997.5832 0.0000e+00
      2.422      0.072     4.6877     54.264     38.150  36.340023     6.9650      7.943   224.6126 2.5193e+01     3.0132      2.375      3.445    22.9259   997.5867 0.0000e+00
      2.440      0.074     4.6840     54.104     38.273  36.370170     6.8564      7.939   225.4415 2.4668e+01     2.8882      2.392      3.469    22.8778   997.5981 0.0000e+00
      2.459      0.075     4.6742     53.872     38.363  36.366931     6.7984      7.936   226.3079 2.4122e+01     2.8470      2.410      3.496    22.8159   997.6128 0.0000e+00
      2.479      0.075     4.6607     53.604     38.448  36.364212     6.7760      7.934   226.9997 2.3630e+01     2.8757      2.431      3.526    22.7346   997.6319 0.0000e+00
      2.499      0.074     4.6504     53.380     38.572  36.400643     6.5945      7.931   227.6971 2.3175e+01     2.8417      2.451      3.554    22.6268   997.6572 0.0000e+00
      2.519      0.073     4.6499     53.269     38.683  36.426470     6.2685      7.927   228.2881 2.2722e+01     2.7971      2.471      3.583    22.5079   997.6851 0.0000e+00
      2.537      0.071     4.6607     53.289     38.762  36.422482     6.0942      7.923   228.2082 2.2312e+01     2.7954      2.489      3.610    22.3908   997.7123 0.0000e+00
      2.554      0.069     4.6806     53.412     38.839  36.415797     6.0817      7.921   227.6771 2.1937e+01     2.8211      2.505      3.633    22.2819   997.7374 0.0000e+00
      2.571      0.068     4.7065     53.608     38.911  36.409003     6.0139      7.919   227.6319 2.1571e+01     2.8129      2.521      3.657    22.1782   997.7613 0.0000e+00
      2.587      0.067     4.7345     53.832     38.981  36.403708     5.8722      7.917   228.0915 2.1235e+01     2.7288      2.537      3.680    22.0783   997.7842 0.0000e+00
      2.605      0.067     4.7589     54.012     39.072  36.415145     5.7905      7.914   228.7601 2.0890e+01     2.6563      2.554      3.704    21.9775   997.8072 0.0000e+00
      2.623      0.068     4.7734     54.072     39.161  36.420245     5.7894      7.911   229.0911 2.0549e+01     2.6567      2.572      3.731    21.8730   997.8309 0.0000e+00
      2.640      0.068     4.7740     53.972     39.228  36.401786     5.8233      7.908   228.9106 2.0245e+01     2.7339      2.589      3.755    21.7777   997.8525 0.0000e+00
      2.656      0.067     4.7603     53.710     39.293  36.382272     5.8801      7.903   228.8999 1.9905e+01     2.8359      2.603      3.776    21.6921   997.8717 0.0000e+00
      2.673      0.062     4.7317     53.291     39.364  36.374600     5.9119      7.899   229.2202 1.9505e+01     2.8749      2.620      3.800    21.5976   997.8930 0.0000e+00
      2.693      0.055     4.6897     52.749     39.418  36.372393     5.9046      7.896   229.6855 1.9124e+01     2.8444      2.641      3.830    21.4982   997.9152 0.0000e+00
      2.710      0.047     4.6380     52.148     39.415  36.355514     5.9048      7.893   230.0516 1.8845e+01     2.7941      2.660      3.858    21.3937   997.9383 0.0000e+00
      2.721      0.042     4.5827     51.548     39.334  36.297454     5.9408      7.890   230.2909 1.8735e+01     2.7265      2.672      3.875    21.2896   997.9614 0.0000e+00
      2.726      0.040     4.5308     50.968     39.270  36.241668     5.9754      7.887   230.5140 1.8735e+01     2.6499      2.674      3.879    21.1900   997.9832 0.0000e+00
      2.727      0.043     4.4883     50.440     39.326  36.252269     5.9765      7.885   230.9426 1.8659e+01     2.6214      2.672      3.876    21.1123   998.0002 0.0000e+00
      2.734      0.050     4.4591     50.050     39.361  36.235146     5.9545      7.882   231.6015 1.8393e+01     2.6439      2.676      3.882    21.0937   998.0043 0.0000e+00
      2.750      0.063     4.4454     49.855     39.247  36.098040     5.8997      7.877   232.1136 1.7995e+01     2.6597      2.694      3.908    21.1420   997.9938 0.0000e+00
      2.772      0.078     4.4506     49.833     39.131  35.927388     5.8255      7.873   232.8321 1.7588e+01     2.6490      2.719      3.943    21.1712   997.9875 0.0000e+00
      2.794      0.090     4.4695     49.882     39.159  35.821974     5.7854      7.871   234.3529 1.7186e+01     2.6454      2.740      3.973    21.0894   998.0054 0.0000e+00
      2.819      0.095     4.4900     49.909     39.284  35.775370     5.7621      7.868   235.9608 1.6724e+01     2.6485      2.763      4.007    21.0032   998.0243 0.0000e+00
      2.848      0.095     4.5071     49.924     39.404  35.744498     5.5695      7.864   236.6995 1.6253e+01     2.6213      2.793      4.051    20.9989   998.0253 0.0000e+00
      2.876      0.091     4.5203     49.952     39.461  35.702388     5.2160      7.862   236.9179 1.5881e+01     2.5783      2.823      4.095    20.9434   998.0374 0.0000e+00
      2.900      0.085     4.5284     49.985     39.450  35.646928     5.0251      7.860   237.0526 1.5644e+01     2.5545      2.846      4.129    20.7493   998.0792 0.0000e+00
      2.919      0.079     4.5344     50.019     39.407  35.581638     5.0307      7.857   237.6394 1.5483e+01     2.5302      2.863      4.153    20.5160   998.1290 0.0000e+00
      2.935      0.073     4.5450     50.073     39.353  35.484175     5.1963      7.854   238.7640 1.5304e+01     2.4489      2.878      4.174    20.3311   998.1681 0.0000e+00
      2.951      0.071     4.5622     50.167     39.295  35.357018     5.4846      7.850   239.5517 1.5079e+01     2.3251      2.894      4.197    20.2061   998.1943 0.0000e+00
      2.968      0.071     4.5860     50.322     39.269  35.250013     5.6382      7.847   239.9357 1.4824e+01     2.2458      2.910      4.221    20.1622   998.2035 0.0000e+00
      2.985      0.074     4.6148     50.520     39.322  35.205782     5.6405      7.845   240.1382 1.4545e+01     2.2434      2.927      4.246    20.1613   998.2038 0.0000e+00
      3.005      0.076     4.6428     50.708     39.423  35.202907     5.4768      7.843   240.2789 1.4225e+01     2.3289      2.946      4.271    20.0931   998.2179 0.0000e+00
      3.027      0.077     4.6655     50.854     39.525  35.215129     5.1767      7.841   240.6042 1.3875e+01     2.4274      2.968      4.305    19.9823   998.2410 0.0000e+00
      3.048      0.078     4.6792     50.931     39.601  35.226519     5.0211      7.839   241.0603 1.3566e+01     2.4515      2.991      4.338    19.8841   998.2613 0.0000e+00
      3.068      0.078     4.6832     50.921     39.633  35.213607     5.0085      7.837   241.4923 1.3300e+01     2.4573      3.010      4.365    19.7630   998.2861 0.0000e+00
      3.086      0.077     4.6797     50.833     39.645  35.185893     4.9811      7.834   241.9555 1.3021e+01     2.3657      3.026      4.389    19.6365   998.3119 0.0000e+00
      3.105      0.075     4.6702     50.683     39.642  35.145261     4.9329      7.830   242.5306 1.2708e+01     2.1627      3.044      4.415    19.5319   998.3332 0.0000e+00
      3.126      0.071     4.6513     50.434     39.633  35.103087     4.9107      7.826   243.0254 1.2398e+01     2.0684      3.065      4.446    19.4642   998.3468 0.0000e+00
      3.146      0.067     4.6193     50.052     39.611  35.056740     4.9113      7.824   242.9469 1.2137e+01     2.0774      3.086      4.476    19.4201   998.3557 0.0000e+00
      3.163      0.065     4.5778     49.572     39.536  34.965661     4.9060      7.822   242.4425 1.1930e+01     2.0745      3.104      4.502    19.3724   998.3655 0.0000e+00
      3.176      0.065     4.5343     49.048     39.426  34.826920     4.9851      7.821   242.4328 1.1767e+01     2.0670      3.116      4.519    19.3229   998.3754 0.0000e+00
      3.189      0.066     4.4919     48.497     39.308  34.648538     5.1569      7.820   243.0880 1.1596e+01     2.0517      3.125      4.533    19.2764   998.3846 0.0000e+00
      3.204      0.067     4.4516     47.927     39.217  34.458913     5.2492      7.818   243.9984 1.1369e+01     2.0528      3.140      4.554    19.2430   998.3914 0.0000e+00
      3.224      0.071     4.4158     47.381     39.198  34.311107     5.2513      7.817   244.7500 1.1117e+01     2.0805      3.161      4.584    19.2227   998.3954 0.0000e+00
      3.245      0.076     4.3839     46.879     39.215  34.194047     5.3042      7.816   245.1209 1.0892e+01     1.9935      3.183      4.616    19.1790   998.4041 0.0000e+00
      3.265      0.081     4.3559     46.435     39.197  34.058839     5.4124      7.813   245.2125 1.0698e+01     1.8207      3.202      4.644    19.0847   998.4228 0.0000e+00
      3.285      0.084     4.3328     46.063     39.113  33.882009     5.4752      7.810   245.2559 1.0508e+01     1.7616      3.220      4.670    18.9403   998.4510 0.0000e+00
      3.306      0.086     4.3108     45.727     39.008  33.705971     5.4832      7.807   245.4730 1.0300e+01     1.7706      3.240      4.700    18.7603   998.4861 0.0000e+00
      3.328      0.086     4.2865     45.392     38.938  33.580351     5.4569      7.804   245.9449 1.0075e+01     1.7647      3.263      4.732    18.5871   998.5194 0.0000e+00
      3.353      0.085     4.2591     45.039     38.913  33.505416     5.3994      7.803   246.4016 9.8641e+00     1.7560      3.289      4.770    18.4351   998.5485 0.0000e+00
      3.377      0.081     4.2312     44.687     38.960  33.497980     5.3604      7.800   246.6936 9.7036e+00     1.7305      3.313      4.806    18.2990   998.5743 0.0000e+00
      3.397      0.075     4.2074     44.384     39.002  33.490383     5.3577      7.798   246.9798 9.5788e+00     1.7185      3.333      4.834    18.1909   998.5945 0.0000e+00
      3.416      0.068     4.1907     44.158     38.963  33.413499     5.3583      7.796   247.2805 9.4681e+00     1.7421      3.350      4.859    18.1099   998.6097 0.0000e+00
      3.432      0.061     4.1819     44.008     38.923  33.329895     5.3428      7.794   247.6620 9.3855e+00     1.7876      3.367      4.883    18.0458   998.6217 0.0000e+00
      3.445      0.056     4.1793     43.922     38.878  33.241032     5.3171      7.792   247.8935 9.3192e+00     1.8088      3.380      4.901    17.9849   998.6331 0.0000e+00
      3.457      0.053     4.1794     43.867     38.844  33.164024     5.2981      7.791   248.1865 9.2559e+00     1.8017      3.390      4.916    17.9280   998.6437 0.0000e+00
      3.468      0.052     4.1799     43.815     38.897  33.160291     5.2698      7.788   248.7948 9.1884e+00     1.8000      3.401      4.933    17.8810   998.6523 0.0000e+00
      3.481      0.053     4.1799     43.769     38.985  33.195827     5.2169      7.786   249.2257 9.1070e+00     1.7889      3.414      4.950    17.8105   998.6652 0.0000e+00
      3.495      0.056     4.1787     43.728     39.033  33.212865     5.1874      7.785   249.6107 9.0230e+00     1.7974      3.428      4.971    17.7422   998.6778 0.0000e+00
      3.510      0.059     4.1752     43.672     39.010  33.175871     5.1908      7.782   250.0947 8.9227e+00     1.8052      3.442      4.992    17.6899   998.6873 0.0000e+00
      3.526      0.061     4.1683     43.575     38.906  33.065836     5.1892      7.780   250.5174 8.8091e+00     1.7850      3.457      5.014    17.6171   998.7005 0.0000e+00
      3.542      0.063     4.1579     43.425     38.750  32.897811     5.1161      7.778   251.2804 8.7032e+00     1.7826      3.474      5.038    17.5612   998.7107 0.0000e+00
      3.559      0.063     4.1471     43.237     38.630  32.730815     4.9744      7.777   252.4359 8.5854e+00     1.8088      3.490      5.062    17.5374   998.7151 0.0000e+00
      3.575      0.063     4.1373     43.010     38.643  32.633173     4.8977      7.777   253.3039 8.4654e+00     1.8395      3.506      5.085    17.5215   998.7180 0.0000e+00
      3.591      0.061     4.1224     42.711     38.758  32.605539     4.8903      7.776   253.6875 8.3671e+00     1.8257      3.521      5.106    17.4941   998.7230 0.0000e+00
      3.607      0.058     4.0944     42.312     38.850  32.586923     4.7903      7.774   253.9760 8.2541e+00     1.8061      3.537      5.129    17.4569   998.7296 0.0000e+00
      3.623      0.057     4.0466     41.748     38.863  32.534891     4.6070      7.773   254.2112 8.1422e+00     1.8322      3.555      5.155    17.3878   998.7420 0.0000e+00
      3.637      0.059     3.9744     40.931     38.881  32.484036     4.5126      7.772   254.2952 8.0748e+00     1.8460      3.569      5.175    17.2289   998.7702 0.0000e+00
      3.648      0.063     3.8828     39.879     38.999  32.479656     4.5073      7.771   254.3888 8.0018e+00     1.8429      3.576      5.187    17.0390   998.8036 0.0000e+00
      3.660      0.067     3.7815     38.701     39.161  32.481799     4.5695      7.770   254.5685 7.8784e+00     1.8272      3.586      5.202    16.9155   998.8251 0.0000e+00
      3.679      0.070     3.6737     37.461     39.358  32.509785     4.6916      7.768   254.6613 7.7204e+00     1.7863      3.605      5.229    16.8556   998.8355 0.0000e+00
      3.703      0.072     3.5519     36.102     39.726  32.690937     4.7615      7.767   254.8227 7.5663e+00     1.7750      3.632      5.268    16.7918   998.8465 0.0000e+00
      3.726      0.073     3.4024     34.488     40.333  33.085397     4.7637      7.766   255.3147 7.4489e+00     1.7895      3.656      5.302    16.6540   998.8702 0.0000e+00
      3.745      0.070     3.2145     32.509     40.911  33.471288     4.6587      7.764   255.6197 7.3650e+00     1.7972      3.674      5.329    16.4673   998.9018 0.0000e+00
      3.760      0.064     2.9895     30.170     41.105  33.548810     4.4540      7.761   255.5853 7.2665e+00     1.8027      3.688      5.350    16.2896   998.9316 0.0000e+00
      3.774      0.059     2.7350     27.547     41.000  33.387982     4.3344      7.758   255.8457 7.1480e+00     1.8229      3.700      5.367    16.1337   998.9574 0.0000e+00
      3.788      0.055     2.4500     24.640     40.889  33.240174     4.3234      7.756   256.2732 7.0544e+00     1.8447      3.715      5.388    16.0051   998.9787 0.0000e+00
      3.802      0.055     2.1313     21.414     40.833  33.157808     4.3375      7.754   256.5373 6.9954e+00     1.8701      3.729      5.409    15.9010   998.9959 0.0000e+00
      3.814      0.056     1.7873     17.941     40.795  33.090148     4.3574      7.749   256.8893 6.9334e+00     1.9335      3.740      5.425    15.8064   999.0111 0.0000e+00
      3.828      0.058     1.4378     14.420     40.794  33.056688     4.3639      7.744   257.1731 6.8345e+00     1.9882      3.752      5.443    15.7046   999.0274 0.0000e+00
      3.843      0.060     1.1158     11.189     40.811  33.070522     4.3567      7.741   257.1300 6.7230e+00     2.0406      3.768      5.464    15.6271   999.0397 0.0000e+00
      3.859      0.062     0.8573      8.601     40.869  33.130497     4.3479      7.739   257.0562 6.6185e+00     2.0741      3.785      5.490    15.6015   999.0438 0.0000e+00
      3.876      0.063     0.6750      6.768     41.007  33.210695     4.2843      7.737   257.2270 6.5221e+00     2.0335      3.801      5.514    15.5582   999.0506 0.0000e+00
      3.893      0.063     0.5658      5.659     41.202  33.278589     4.1593      7.736   257.6462 6.4304e+00     2.0088      3.818      5.538    15.4889   999.0616 0.0000e+00
      3.909      0.063     0.5278      5.262     41.480  33.380110     4.0852      7.735   258.1676 6.3314e+00     2.0383      3.834      5.560    15.5008   999.0598 0.0000e+00
      3.925      0.062     0.5502      5.465     41.857  33.549538     4.0647      7.732   259.0568 6.2394e+00     2.0619      3.849      5.583    15.5564   999.0511 0.0000e+00
      3.940      0.061     0.6106      6.043     42.342  33.803822     4.0147      7.729   260.2229 6.1558e+00     2.0647      3.864      5.604    15.5201   999.0570 0.0000e+00
      3.955      0.061     0.6852      6.762     42.952  34.169733     3.9405      7.728   260.9102 6.0714e+00     2.0388      3.878      5.624    15.3920   999.0772 0.0000e+00
      3.971      0.063     0.7494      7.377     43.632  34.609888     3.8961      7.726   261.1714 5.9870e+00     2.0103      3.894      5.648    15.2372   999.1012 0.0000e+00
      3.986      0.067     0.7805      7.667     44.235  35.000213     3.8851      7.724   261.2308 5.9105e+00     2.0486      3.909      5.670    15.0738   999.1263 0.0000e+00
      4.001      0.072     0.7678      7.528     44.520  35.144370     3.8331      7.721   261.1979 5.8342e+00     2.2394      3.923      5.690    14.9082   999.1514 0.0000e+00
      4.019      0.076     0.7117      6.964     44.545  35.083396     3.7275      7.717   261.8069 5.7210e+00     2.5154      3.940      5.714    14.7650   999.1731 0.0000e+00
      4.041      0.078     0.6214      6.069     44.651  35.087996     3.6650      7.715   262.9149 5.5841e+00     2.6320      3.962      5.747    14.6529   999.1899 0.0000e+00
      4.065      0.079     0.5137      5.008     44.809  35.136433     3.6498      7.710   263.5815 5.4711e+00     2.6012      3.988      5.783    14.5581   999.2041 0.0000e+00
      4.087      0.078     0.4032      3.925     44.849  35.097726     3.6130      7.703   263.7576 5.3678e+00     2.6015      4.008      5.814    14.4669   999.2175 0.0000e+00
      4.107      0.076     0.2994      2.910     44.888  35.064199     3.5590      7.698   263.7540 5.2546e+00     2.6361      4.028      5.843    14.3762   999.2306 0.0000e+00
      4.125      0.072     0.2100      2.038     44.943  35.048335     3.5251      7.694   263.7961 5.1606e+00     2.6266      4.046      5.869    14.2868   999.2435 0.0000e+00
      4.142      0.069     0.1396      1.353     44.832  34.905859     3.5075      7.690   263.9226 5.0862e+00     2.6174      4.062      5.892    14.2003   999.2559 0.0000e+00
      4.157      0.068     0.0900      0.872     44.606  34.674314     3.3894      7.685   264.2507 5.0066e+00     2.8527      4.077      5.912    14.1226   999.2669 0.0000e+00
      4.172      0.068     0.0617      0.597     44.497  34.533553     3.1720      7.680   264.8374 4.9222e+00     3.3082      4.091      5.933    14.0521   999.2768 0.0000e+00
      4.189      0.067     0.0511      0.493     44.477  34.473224     3.0551      7.676   265.4245 4.8363e+00     3.5697      4.107      5.957    13.9864   999.2860 0.0000e+00
      4.209      0.066     0.0515      0.497     44.399  34.389114     3.0424      7.672   265.9293 4.7262e+00     3.5885      4.128      5.987    13.9259   999.2945 0.0000e+00
      4.229      0.064     0.0589      0.567     44.277  34.278165     3.0448      7.668   266.2942 4.5976e+00     3.5686      4.149      6.017    13.8657   999.3028 0.0000e+00
      4.245      0.063     0.0703      0.677     44.140  34.147215     3.1098      7.664   266.2220 4.5071e+00     3.5921      4.165      6.040    13.7979   999.3120 0.0000e+00
      4.258      0.061     0.0835      0.804     43.915  33.948181     3.2215      7.660   265.9178 4.4567e+00     3.7077      4.176      6.057    13.7383   999.3202 0.0000e+00
      4.271      0.061     0.0961      0.924     43.484  33.585219     3.2853      7.657   266.0572 4.3957e+00     3.7869      4.188      6.074    13.7211   999.3226 0.0000e+00
      4.285      0.061     0.1077      1.034     43.035  33.185763     3.3093      7.654   266.4442 4.3136e+00     3.7632      4.202      6.095    13.7135   999.3236 0.0000e+00
      4.302      0.062     0.1218      1.167     42.879  32.989658     3.5288      7.651   266.8124 4.2239e+00     3.8142      4.219      6.119    13.6748   999.3289 0.0000e+00
      4.320      0.065     0.1411      1.350     42.984  32.991033     3.9444      7.649   267.2390 4.1406e+00     3.9457      4.237      6.146    13.6471   999.3328 0.0000e+00
      4.337      0.067     0.1646      1.572     43.354  33.202294     4.1729      7.647   267.3006 4.0645e+00     4.0091      4.253      6.168    13.6278   999.3352 0.0000e+00
      4.354      0.067     0.1915      1.827     43.926  33.576542     4.2025      7.644   267.0403 3.9821e+00     4.0231      4.269      6.191    13.5640   999.3436 0.0000e+00
      4.372      0.068     0.2260      2.153     44.090  33.644615     4.2936      7.642   267.1035 3.9040e+00     4.0821      4.287      6.217    13.4658   999.3568 0.0000e+00
      4.389      0.071     0.2759      2.624     43.581  33.200225     4.4509      7.639   267.2908 3.8256e+00     4.1976      4.304      6.243    13.3688   999.3696 0.0000e+00
      4.405      0.075     0.3470      3.294     43.100  32.772832     4.5357      7.637   267.4120 3.7355e+00     4.2731      4.319      6.265    13.2860   999.3806 0.0000e+00
      4.423      0.077     0.4396      4.166     43.043  32.665606     4.5297      7.635   267.7936 3.6372e+00     4.2746      4.336      6.289    13.2138   999.3903 0.0000e+00
      4.446      0.079     0.5513      5.217     43.123  32.665236     4.2995      7.633   267.9467 3.5134e+00     4.4123      4.359      6.323    13.1504   999.3987 0.0000e+00
      4.469      0.079     0.6758      6.386     43.164  32.641372     3.8597      7.630   267.6290 3.3763e+00     4.7257      4.384      6.359    13.0895   999.4063 0.0000e+00
      4.490      0.079     0.7993      7.545     43.205  32.630861     3.6072      7.628   267.4801 3.2594e+00     4.9177      4.403      6.387    13.0187   999.4152 0.0000e+00
      4.509      0.077     0.9080      8.566     43.282  32.665019     3.5618      7.625   267.6093 3.1569e+00     4.9630      4.422      6.414    12.9414   999.4251 0.0000e+00
      4.528      0.074     0.9953      9.386     43.315  32.673577     3.3284      7.623   267.9005 3.0532e+00     5.1092      4.441      6.440    12.8698   999.4342 0.0000e+00
      4.547      0.071     1.0596      9.989     43.165  32.543928     2.8833      7.622   268.2480 2.9573e+00     5.3753      4.459      6.467    12.8031   999.4426 0.0000e+00
      4.565      0.071     1.1011     10.375     42.872  32.303200     2.6365      7.621   268.7131 2.8723e+00     5.5258      4.477      6.494    12.7505   999.4492 0.0000e+00
      4.581      0.071     1.1239     10.580     42.661  32.111004     2.6164      7.619   269.3942 2.7855e+00     5.5530      4.492      6.515    12.7295   999.4519 0.0000e+00
      4.598      0.071     1.1370     10.690     42.657  32.060438     2.6044      7.617   269.7720 2.7012e+00     5.5721      4.508      6.538    12.7140   999.4539 0.0000e+00
      4.618      0.070     1.1519     10.816     42.742  32.072521     2.5099      7.614   269.6668 2.6201e+00     5.5939      4.529      6.568    12.6931   999.4565 0.0000e+00
      4.637      0.068     1.1781     11.048     42.796  32.066661     2.3407      7.612   269.3272 2.5345e+00     5.6853      4.548      6.596    12.6772   999.4585 0.0000e+00
      4.656      0.065     1.2212     11.441     42.742  31.989523     2.2488      7.611   269.1939 2.4628e+00     5.7919      4.566      6.622    12.6411   999.4629 0.0000e+00
      4.672      0.062     1.2862     12.040     42.494  31.774421     2.2487      7.609   269.8619 2.4158e+00     5.8342      4.583      6.646    12.5773   999.4707 0.0000e+00
      4.686      0.058     1.3752     12.863     42.159  31.496553     2.2953      7.607   270.9503 2.3744e+00     5.9672      4.596      6.666    12.5119   999.4788 0.0000e+00
      4.698      0.057     1.4820     13.853     41.924  31.295095     2.3797      7.606   271.5990 2.3262e+00     6.1878      4.609      6.683    12.4571   999.4854 0.0000e+00
      4.711      0.058     1.5995     14.942     41.888  31.242340     2.4275      7.605   271.7695 2.2705e+00     6.2729      4.620      6.701    12.4156   999.4905 0.0000e+00
      4.726      0.059     1.7209     16.065     42.001  31.302873     2.4400      7.603   271.6342 2.2126e+00     6.2753      4.633      6.720    12.3832   999.4942 0.0000e+00
      4.741      0.062     1.8384     17.155     42.141  31.392378     2.5050      7.602   271.5127 2.1516e+00     6.2169      4.649      6.742    12.3513   999.4979 0.0000e+00
      4.758      0.064     1.9561     18.256     42.281  31.499575     2.6150      7.601   271.6760 2.0885e+00     6.0581      4.665      6.766    12.3188   999.5018 0.0000e+00
      4.776      0.066     2.0754     19.376     42.461  31.647105     2.6688      7.600   272.0602 2.0425e+00     5.9603      4.684      6.793    12.2907   999.5053 0.0000e+00
      4.795      0.066     2.1877     20.429     42.796  31.906995     2.6622      7.598   272.5440 2.0132e+00     5.9855      4.703      6.820    12.2583   999.5092 0.0000e+00
      4.812      0.065     2.2942     21.418     43.413  32.357331     2.5783      7.596   272.8801 1.9729e+00     6.2646      4.719      6.845    12.2343   999.5120 0.0000e+00
      4.827      0.064     2.3980     22.367     44.277  32.967106     2.4166      7.595   273.0264 1.9224e+00     6.7129      4.734      6.866    12.2426   999.5112 0.0000e+00
      4.842      0.064     2.4929     23.227     45.657  33.948857     2.3201      7.595   273.1081 1.8692e+00     6.9485      4.749      6.888    12.2643   999.5088 0.0000e+00
      4.857      0.065     2.5739     23.957     47.589  35.342302     2.3046      7.594   272.9212 1.8114e+00     6.9837      4.763      6.908    12.2849   999.5065 0.0000e+00
      4.873      0.068     2.6378     24.531     49.179  36.486615     2.2635      7.591   272.5739 1.7678e+00     7.0401      4.778      6.930    12.2764   999.5078 0.0000e+00
      4.890      0.070     2.6772     24.881     49.814  36.930976     2.1878      7.589   272.6083 1.7282e+00     7.1711      4.794      6.954    12.2288   999.5137 0.0000e+00
      4.910      0.071     2.6837     24.930     49.808  36.906564     2.1430      7.585   272.9933 1.6780e+00     7.2566      4.815      6.984    12.1739   999.5206 0.0000e+00
      4.930      0.071     2.6511     24.620     49.719  36.826185     2.1299      7.580   273.4430 1.6300e+00     7.2553      4.836      7.013    12.1276   999.5270 0.0000e+00
      4.950      0.070     2.5761     23.918     49.678  36.784293     2.1236      7.575   273.3144 1.5921e+00     7.2203      4.855      7.041    12.0904   999.5320 0.0000e+00
      4.967      0.067     2.4599     22.834     49.773  36.844368     2.1281      7.569   272.6427 1.5641e+00     7.1292      4.872      7.067    12.0626   999.5354 0.0000e+00
      4.982      0.064     2.3085     21.421     50.064  37.044713     2.1329      7.564   272.3763 1.5361e+00     7.0063      4.885      7.085    12.0446   999.5374 0.0000e+00
      4.997      0.061     2.1346     19.798     50.181  37.111926     2.1297      7.558   272.5886 1.4957e+00     6.9467      4.899      7.105    12.0301   999.5392 0.0000e+00
      5.013      0.058     1.9551     18.126     50.087  37.022263     2.1153      7.552   273.0592 1.4563e+00     6.9650      4.917      7.131    12.0195   999.5404 0.0000e+00
      5.029      0.055     1.7842     16.534     49.963  36.912725     2.0276      7.546   273.5919 1.4348e+00     6.9985      4.933      7.154    12.0121   999.5413 0.0000e+00
      5.043      0.052     1.6332     15.129     49.838  36.803114     1.8753      7.541   273.8668 1.4153e+00     7.0244      4.946      7.174    11.9966   999.5433 0.0000e+00
      5.056      0.047     1.5129     14.010     49.737  36.712550     1.7910      7.535   273.8883 1.3923e+00     7.0488      4.958      7.193    11.9751   999.5459 0.0000e+00
      5.067      0.042     1.4269     13.209     49.661  36.642887     1.7710      7.530   273.7651 1.3728e+00     7.0310      4.969      7.207    11.9550   999.5482 0.0000e+00
      5.076      0.038     1.3725     12.702     49.527  36.532094     1.7560      7.525   273.5815 1.3561e+00     6.9079      4.978      7.220    11.9363   999.5503 0.0000e+00
      5.085      0.037     1.3460     12.453     49.175  36.261588     1.7560      7.521   273.4755 1.3483e+00     6.7727      4.986      7.232    11.9191   999.5522 0.0000e+00
      5.092      0.037     1.3412     12.405     48.629  35.847698     1.7629      7.517   273.9460 1.3395e+00     6.7387      4.994      7.244    11.9030   999.5540 0.0000e+00
      5.100      0.042     1.3502     12.485     47.954  35.336150     1.7613      7.512   274.7957 1.3115e+00     6.7599      5.001      7.254    11.8889   999.5556 0.0000e+00
      5.110      0.050     1.3694     12.657     47.210  34.773380     1.7366      7.507   275.0602 1.2738e+00     6.8321      5.010      7.266    11.8777   999.5570 0.0000e+00
      5.122      0.060     1.3967     12.905     46.520  34.247809     1.6989      7.503   274.8207 1.2472e+00     6.9239      5.022      7.283    11.8676   999.5580 0.0000e+00
      5.139      0.069     1.4294     13.201     45.945  33.805091     1.6860      7.500   274.6532 1.2128e+00     6.9521      5.037      7.305    11.8568   999.5591 0.0000e+00
      5.160      0.076     1.4679     13.549     45.534  33.482366     1.7027      7.500   274.8417 1.1563e+00     6.9766      5.059      7.338    11.8423   999.5606 0.0000e+00
      5.185      0.081     1.5152     13.978     45.179  33.201706     1.7878      7.499   275.7234 1.1017e+00     7.3172      5.085      7.376    11.8253   999.5623 0.0000e+00
      5.207      0.085     1.5749     14.522     44.863  32.950214     1.9271      7.498   276.9674 1.0608e+00     7.9575      5.108      7.408    11.8079   999.5641 0.0000e+00
      5.227      0.086     1.6477     15.187     44.755  32.853212     1.9989      7.499   277.6659 1.0242e+00     8.2951      5.127      7.435    11.7866   999.5663 0.0000e+00
      5.247      0.085     1.7333     15.969     44.778  32.853862     2.0053      7.499   277.8021 9.8190e-01     8.2864      5.143      7.460    11.7632   999.5689 0.0000e+00
      5.268      0.083     1.8296     16.849     44.768  32.831135     1.9959      7.498   277.7540 9.4298e-01     8.3112      5.164      7.491    11.7412   999.5715 0.0000e+00
      5.293      0.079     1.9312     17.779     44.787  32.832258     1.9285      7.496   277.4284 9.0803e-01     8.7254      5.191      7.530    11.7202   999.5737 0.0000e+00
      5.315      0.074     2.0352     18.733     44.848  32.867428     1.8159      7.495   277.1339 8.7028e-01     9.4934      5.214      7.563    11.7002   999.5760 0.0000e+00
      5.335      0.068     2.1368     19.665     44.868  32.875587     1.7606      7.495   277.4632 8.3903e-01     9.9287      5.232      7.588    11.6814   999.5781 0.0000e+00
      5.351      0.062     2.2287     20.508     44.948  32.930887     1.7631      7.494   277.9692 8.1361e-01     9.9569      5.248      7.612    11.6646   999.5800 0.0000e+00
      5.363      0.060     2.3096     21.251     45.258  33.155275     1.7157      7.493   278.0026 7.9838e-01    10.1285      5.261      7.630    11.6502   999.5817 0.0000e+00
      5.373      0.061     2.3795     21.890     45.732  33.494326     1.6211      7.492   277.7810 7.8845e-01    10.4642      5.269      7.640    11.6392   999.5830 0.0000e+00
      5.384      0.064     2.4359     22.402     46.160  33.793626     1.5728      7.491   277.6126 7.6500e-01    10.6406      5.277      7.653    11.6316   999.5838 0.0000e+00
      5.402      0.068     2.4812     22.810     46.351  33.918125     1.5653      7.490   277.2581 7.3259e-01    10.7204      5.295      7.680    11.6282   999.5843 0.0000e+00
      5.425      0.073     2.5174     23.134     46.286  33.857229     1.4865      7.489   276.7641 7.0140e-01    11.1016      5.320      7.716    11.6284   999.5846 0.0000e+00
      5.448      0.077     2.5412     23.346     46.163  33.755445     1.3402      7.488   276.7149 6.7454e-01    11.7431      5.345      7.752    11.6198   999.5858 0.0000e+00
      5.468      0.078     2.5533     23.451     46.021  33.639449     1.2615      7.486   276.9216 6.4751e-01    12.1187      5.363      7.778    11.6021   999.5879 0.0000e+00
      5.486      0.077     2.5520     23.431     45.806  33.470166     1.2545      7.483   277.1128 6.1928e-01    12.2024      5.379      7.801    11.5850   999.5900 0.0000e+00
      5.505      0.074     2.5339     23.258     45.669  33.358739     1.3000      7.482   277.3920 5.9583e-01    12.2306      5.397      7.829    11.5704   999.5916 0.0000e+00
      5.524      0.072     2.5073     23.009     45.698  33.371092     1.3953      7.480   277.1135 5.8099e-01    12.2305      5.418      7.858    11.5579   999.5930 0.0000e+00
      5.542      0.070     2.4778     22.736     45.695  33.365659     1.4533      7.477   276.2409 5.7284e-01    12.2005      5.434      7.882    11.5454   999.5944 0.0000e+00
      5.560      0.070     2.4457     22.441     45.597  33.293043     1.4629      7.474   275.7899 5.6424e-01    12.1632      5.452      7.908    11.5317   999.5959 0.0000e+00
      5.578      0.069     2.4172     22.176     45.554  33.254666     1.4933      7.473   275.9621 5.5557e-01    12.1076      5.471      7.935    11.5181   999.5973 0.0000e+00
      5.593      0.066     2.3974     21.987     45.610  33.282433     1.5519      7.471   276.4301 5.4271e-01    12.0191      5.484      7.954    11.5073   999.5985 0.0000e+00
      5.610      0.065     2.3861     21.877     45.755  33.374890     1.5736      7.469   276.7163 5.2124e-01    11.9780      5.501      7.979    11.5044   999.5989 0.0000e+00
      5.629      0.066     2.3841     21.852     45.920  33.484035     1.5568      7.467   276.4118 5.0721e-01    11.9389      5.523      8.010    11.5073   999.5987 0.0000e+00
      5.644      0.069     2.3912     21.912     46.074  33.586653     1.5397      7.465   275.8463 5.0315e-01    11.8088      5.537      8.030    11.5009   999.5995 0.0000e+00
      5.658      0.073     2.4001     21.989     46.540  33.917512     1.5147      7.463   275.5560 4.8398e-01    11.6493      5.545      8.044    11.4831   999.6015 0.0000e+00
      5.676      0.077     2.4056     22.034     47.265  34.437987     1.4887      7.463   275.6553 4.5578e-01    11.5503      5.563      8.069    11.4670   999.6033 0.0000e+00
      5.699      0.079     2.4107     22.078     47.686  34.738824     1.4671      7.462   275.8428 4.3333e-01    11.4972      5.589      8.107    11.4562   999.6047 0.0000e+00
      5.724      0.082     2.4133     22.099     47.900  34.889254     1.4446      7.460   275.8435 4.0451e-01    11.4656      5.614      8.143    11.4464   999.6059 0.0000e+00
      5.746      0.084     2.4094     22.060     48.305  35.177840     1.3991      7.458   276.0940 3.7923e-01    11.2991      5.635      8.173    11.4358   999.6072 0.0000e+00
      5.766      0.085     2.3951     21.926     48.666  35.435389     1.3237      7.454   276.4623 3.6470e-01    10.9925      5.654      8.201    11.4272   999.6086 0.0000e+00
      5.786      0.086     2.3636     21.636     48.798  35.527893     1.2785      7.450   276.3389 3.5104e-01    10.8390      5.673      8.228    11.4216   999.6095 0.0000e+00
      5.806      0.086     2.3099     21.142     48.899  35.598109     1.2692      7.447   276.3231 3.4066e-01    10.7874      5.693      8.257    11.4164   999.6101 0.0000e+00
      5.829      0.087     2.2302     20.411     49.064  35.713124     1.2544      7.444   276.4431 3.2411e-01    10.6964      5.715      8.288    11.4097   999.6111 0.0000e+00
      5.854      0.087     2.1230     19.427     49.421  35.966437     1.2290      7.440   276.3274 2.9922e-01    10.6226      5.741      8.326    11.4038   999.6120 0.0000e+00
      5.879      0.086     1.9869     18.179     49.732  36.185457     1.2140      7.437   276.8178 2.8334e-01    10.5832      5.767      8.364    11.4000   999.6125 0.0000e+00
      5.900      0.084     1.8277     16.719     49.505  36.012763     1.2128      7.435   277.8114 2.7710e-01    10.5814      5.786      8.392    11.3967   999.6130 0.0000e+00
      5.919      0.080     1.6607     15.188     48.763  35.465208     1.2398      7.433   278.2741 2.6870e-01    10.6991      5.804      8.418    11.3918   999.6136 0.0000e+00
      5.939      0.077     1.4993     13.710     47.993  34.896648     1.2969      7.430   278.2821 2.4912e-01    10.9245      5.824      8.448    11.3850   999.6145 0.0000e+00
      5.958      0.075     1.3540     12.379     47.593  34.596843     1.3310      7.427   278.1676 2.3667e-01    11.0450      5.843      8.475    11.3777   999.6156 0.0000e+00
      5.976      0.073     1.2300     11.242     47.571  34.569461     1.3402      7.423   278.3518 2.3951e-01    11.0429      5.859      8.498    11.3698   999.6165 0.0000e+00
      5.995      0.071     1.1294     10.319     47.755  34.692511     1.3397      7.419   278.9600 2.3716e-01    11.0293      5.878      8.526    11.3623   999.6170 0.0000e+00
      6.014      0.069     1.0650      9.729     47.935  34.815234     1.3331      7.417   279.3267 2.2188e-01    11.0115      5.898      8.556    11.3543   999.6176 0.0000e+00
      6.032      0.067     1.0484      9.577     47.981  34.847372     1.3383      7.415   279.3447 1.9757e-01    11.0236      5.916      8.580    11.3440   999.6187 0.0000e+00
      6.047      0.064     1.0761      9.831     47.948  34.827212     1.3428      7.413   279.4352 1.9097e-01    11.0786      5.930      8.600    11.3319   999.6200 0.0000e+00
      6.062      0.060     1.1396     10.412     47.938  34.825369     1.3348      7.410   279.6468 2.0607e-01    11.1192      5.944      8.620    11.3197   999.6215 0.0000e+00
      6.078      0.056     1.2297     11.237     47.932  34.825096     1.3454      7.406   279.4941 2.0941e-01    11.3174      5.960      8.644    11.3093   999.6228 0.0000e+00
      6.094      0.055     1.3326     12.178     47.754  34.696971     1.3758      7.403   279.0508 1.9529e-01    11.7059      5.978      8.670    11.3087   999.6229 0.0000e+00
      6.107      0.055     1.4322     13.087     47.465  34.482124     1.3902      7.402   278.9337 1.8567e-01    11.9173      5.991      8.689    11.3160   999.6221 0.0000e+00
      6.116      0.056     1.5153     13.842     47.348  34.385324     1.3890      7.401   279.1962 1.7918e-01    11.9719      5.997      8.699    11.3202   999.6218 0.0000e+00
      6.128      0.060     1.5734     14.368     47.320  34.351660     1.3444      7.401   279.5574 1.6451e-01    12.1690      6.007      8.713    11.3258   999.6212 0.0000e+00
      6.145      0.068     1.6036     14.640     46.955  34.075077     1.2579      7.400   279.7740 1.5678e-01    12.4660      6.027      8.741    11.3299   999.6208 0.0000e+00
      6.164      0.078     1.6085     14.680     46.287  33.579824     1.2100      7.399   279.6638 1.5784e-01    12.6127      6.045      8.767    11.3238   999.6213 0.0000e+00
      6.183      0.086     1.5948     14.550     45.851  33.250492     1.2078      7.398   279.2573 1.5589e-01    12.6321      6.061      8.791    11.3093   999.6230 0.0000e+00
      6.207      0.091     1.5692     14.312     45.717  33.139490     1.2236      7.397   278.9901 1.4809e-01    12.8647      6.085      8.826    11.2934   999.6248 0.0000e+00
      6.236      0.092     1.5396     14.037     45.802  33.189650     1.2447      7.395   279.0146 1.3569e-01    13.2942      6.116      8.871    11.2811   999.6261 0.0000e+00
      6.265      0.090     1.5152     13.812     46.121  33.412705     1.2543      7.395   279.1227 1.3040e-01    13.5326      6.146      8.914    11.2709   999.6270 0.0000e+00
      6.288      0.086     1.5041     13.709     46.409  33.615163     1.2617      7.395   279.2640 1.3143e-01    13.5833      6.168      8.946    11.2577   999.6284 0.0000e+00
      6.306      0.080     1.5121     13.781     46.315  33.543199     1.2555      7.395   279.0890 1.2777e-01    13.8743      6.183      8.967    11.2409   999.6302 0.0000e+00
      6.323      0.074     1.5395     14.029     45.729  33.113765     1.2312      7.395   278.4691 1.2396e-01    14.3965      6.200      8.992    11.2276   999.6316 0.0000e+00
      6.342      0.069     1.5824     14.417     45.133  32.675010     1.2206      7.393   278.0499 1.2383e-01    14.6541      6.220      9.021    11.2193   999.6328 0.0000e+00
      6.358      0.068     1.6329     14.874     44.976  32.553779     1.2222      7.391   278.0637 1.2598e-01    14.6621      6.235      9.044    11.2134   999.6336 0.0000e+00
      6.373      0.069     1.6799     15.299     45.049  32.599912     1.2337      7.388   278.2060 1.2793e-01    14.7225      6.249      9.064    11.2096   999.6340 0.0000e+00
      6.390      0.071     1.7182     15.646     45.055  32.598174     1.2548      7.388   278.3077 1.2594e-01    14.8271      6.266      9.088    11.2047   999.6343 0.0000e+00
      6.408      0.073     1.7483     15.919     44.970  32.532750     1.2611      7.392   278.3468 1.2379e-01    14.8788      6.284      9.114    11.1963   999.6350 0.0000e+00
      6.428      0.076     1.7748     16.160     44.849  32.443500     1.2577      7.396   278.4204 1.2363e-01    14.8559      6.303      9.141    11.1869   999.6361 0.0000e+00
      6.449      0.077     1.8052     16.435     44.804  32.407521     1.2311      7.400   278.5949 1.2368e-01    14.7468      6.324      9.172    11.1793   999.6371 0.0000e+00
      6.471      0.076     1.8418     16.765     44.910  32.478501     1.1822      7.397   278.7368 1.2369e-01    14.5757      6.346      9.204    11.1722   999.6379 0.0000e+00
      6.491      0.073     1.8835     17.142     45.004  32.540160     1.1609      7.383   278.6726 1.2363e-01    14.4588      6.366      9.234    11.1674   999.6385 0.0000e+00
      6.509      0.069     1.9284     17.547     44.982  32.518413     1.1558      7.372   278.5936 1.2360e-01    14.4145      6.384      9.260    11.1675   999.6384 0.0000e+00
      6.525      0.067     1.9735     17.955     44.922  32.469404     1.1462      7.372   278.9002 1.2360e-01    14.3678      6.399      9.281    11.1650   999.6387 0.0000e+00
      6.539      0.065     2.0177     18.355     44.909  32.455285     1.1745      7.377   279.4542 1.2360e-01    13.9927      6.413      9.301    11.1573   999.6397 0.0000e+00
      6.554      0.065     2.0541     18.685     44.942  32.474611     1.2378      7.380   279.6997 1.2362e-01    13.2875      6.427      9.322    11.1493   999.6406 0.0000e+00
      6.571      0.066     2.0738     18.862     44.913  32.449229     1.2693      7.381   279.5461 1.2367e-01    12.8866      6.443      9.345    11.1425   999.6414 0.0000e+00
      6.590      0.068     2.0762     18.882     44.854  32.402236     1.2614      7.381   279.2319 1.2373e-01    12.8493      6.462      9.374    11.1368   999.6420 0.0000e+00
      6.609      0.071     2.0661     18.788     44.875  32.414110     1.2114      7.381   279.0836 1.2376e-01    12.6394      6.481      9.401    11.1317   999.6426 0.0000e+00
      6.626      0.073     2.0501     18.641     44.951  32.465861     1.1244      7.380   279.3883 1.2372e-01    12.2174      6.498      9.424    11.1266   999.6433 0.0000e+00
      6.643      0.074     2.0298     18.455     45.030  32.520266     1.0767      7.379   279.9042 1.2371e-01    12.0072      6.514      9.448    11.1214   999.6439 0.0000e+00
      6.663      0.075     2.0040     18.219     45.095  32.564215     1.0850      7.379   280.1585 1.2370e-01    11.9985      6.534      9.477    11.1169   999.6443 0.0000e+00
      6.683      0.077     1.9772     17.974     45.171  32.616463     1.1383      7.379   280.1405 1.2371e-01    11.9157      6.556      9.509    11.1130   999.6449 0.0000e+00
      6.703      0.080     1.9521     17.745     45.301  32.707755     1.2191      7.377   280.0296 1.2373e-01    11.7929      6.574      9.536    11.1100   999.6453 0.0000e+00
      6.722      0.082     1.9252     17.498     45.405  32.779537     1.2637      7.375   279.9364 1.2371e-01    11.7584      6.591      9.560    11.1073   999.6457 0.0000e+00
      6.742      0.082     1.8944     17.217     45.419  32.786276     1.2619      7.373   279.9600 1.2368e-01    11.7283      6.610      9.587    11.1036   999.6462 0.0000e+00
      6.765      0.080     1.8602     16.905     45.427  32.789229     1.1971      7.372   280.0575 1.2363e-01    11.2979      6.633      9.621    11.1004   999.6466 0.0000e+00
      6.790      0.075     1.8223     16.560     45.465  32.815244     1.0876      7.371   280.1689 1.2360e-01    10.5523      6.660      9.660    11.0975   999.6471 0.0000e+00
      6.811      0.070     1.7817     16.191     45.510  32.846961     1.0297      7.370   280.2740 1.2358e-01    10.1862      6.682      9.692    11.0939   999.6477 0.0000e+00
      6.827      0.066     1.7390     15.803     45.610  32.918867     1.0258      7.368   280.3819 1.2359e-01    10.1813      6.696      9.712    11.0896   999.6481 0.0000e+00
      6.838      0.065     1.6922     15.377     45.795  33.050021     1.0235      7.366   280.4414 1.2365e-01    10.1323      6.705      9.725    11.0869   999.6484 0.0000e+00
      6.849      0.068     1.6430     14.929     46.046  33.226918     1.0015      7.365   280.3907 1.2368e-01     9.8558      6.714      9.739    11.0865   999.6486 0.0000e+00
      6.864      0.074     1.5971     14.510     46.305  33.407645     0.9766      7.364   280.3722 1.2368e-01     9.4269      6.729      9.760    11.0858   999.6487 0.0000e+00
      6.885      0.083     1.5556     14.130     46.471  33.521618     0.9745      7.362   280.4749 1.2366e-01     9.2077      6.751      9.791    11.0849   999.6489 0.0000e+00
      6.910      0.091     1.5156     13.764     46.573  33.589512     0.9760      7.359   280.5148 1.2361e-01     9.1708      6.775      9.827    11.0831   999.6493 0.0000e+00
      6.938      0.095     1.4746     13.391     46.674  33.657350     0.9513      7.357   280.5102 1.2359e-01     8.9486      6.803      9.867    11.0786   999.6500 0.0000e+00
      6.966      0.095     1.4306     12.990     46.749  33.707171     0.9097      7.356   280.5050 1.2362e-01     8.5527      6.832      9.910    11.0710   999.6510 0.0000e+00
      6.991      0.091     1.3769     12.501     46.809  33.747626     0.8891      7.354   280.2790 1.2365e-01     8.3493      6.858      9.946    11.0636   999.6519 0.0000e+00
      7.013      0.086     1.3109     11.901     46.925  33.829158     0.8925      7.350   280.0151 1.2368e-01     8.3575      6.878      9.977    11.0578   999.6527 0.0000e+00
      7.033      0.081     1.2363     11.224     47.159  33.994838     0.9424      7.348   280.0671 1.2372e-01     8.5207      6.897     10.005    11.0525   999.6532 0.0000e+00
      7.051      0.077     1.1553     10.487     47.663  34.354583     1.0334      7.346   280.3064 1.2371e-01     8.8146      6.915     10.030    11.0489   999.6538 0.0000e+00
      7.068      0.075     1.0693      9.706     48.393  34.878465     1.0823      7.344   280.4985 1.2364e-01     8.9944      6.931     10.053    11.0462   999.6542 0.0000e+00
      7.087      0.075     0.9837      8.928     48.914  35.251543     1.0819      7.343   280.6699 1.2359e-01     9.0236      6.949     10.079    11.0427   999.6547 0.0000e+00
      7.108      0.076     0.9022      8.189     49.089  35.374604     1.0202      7.341   280.7432 1.2363e-01     9.0046      6.971     10.110    11.0395   999.6551 0.0000e+00
      7.128      0.077     0.8274      7.509     49.149  35.414325     0.9093      7.339   280.6107 1.2365e-01     8.9927      6.991     10.139    11.0368   999.6556 0.0000e+00
      7.148      0.077     0.7598      6.894     49.242  35.477915     0.8510      7.336   280.4447 1.2363e-01     9.0107      7.010     10.167    11.0342   999.6564 0.0000e+00
      7.167      0.075     0.6894      6.255     49.377  35.572220     0.8431      7.334   280.3713 1.2367e-01     8.9934      7.029     10.194    11.0317   999.6569 0.0000e+00
      7.187      0.072     0.6089      5.524     49.510  35.665955     0.8315      7.331   280.4108 1.2371e-01     8.9153      7.047     10.220    11.0284   999.6573 0.0000e+00
      7.206      0.070     0.5154      4.675     49.679  35.786119     0.8065      7.327   280.5786 1.2368e-01     8.8519      7.067     10.251    11.0247   999.6578 0.0000e+00
      7.224      0.070     0.4093      3.713     49.990  36.009553     0.7831      7.324   280.6796 1.2362e-01     8.8174      7.085     10.276    11.0216   999.6582 0.0000e+00
      7.240      0.070     0.3018      2.738     50.533  36.399808     0.7742      7.322   280.6848 1.2360e-01     8.7602      7.100     10.296    11.0187   999.6587 0.0000e+00
      7.255      0.071     0.2038      1.848     51.211  36.886640     0.7770      7.319   280.7275 1.2360e-01     8.6849      7.113     10.318    11.0161   999.6590 0.0000e+00
      7.273      0.071     0.1168      1.059     51.824  37.325579     0.7817      7.315   280.6799 1.2359e-01     8.5954      7.131     10.342    11.0145   999.6593 0.0000e+00
      7.293      0.071     0.0421      0.382     52.270  37.644487     0.7787      7.312   280.5400 1.2355e-01     8.5301      7.152     10.372    11.0139   999.6596 0.0000e+00
      7.313      0.071    -0.0117     -0.106     52.520  37.822550     0.7762      7.308   280.4988 1.2356e-01     8.5182      7.173     10.403    11.0140   999.6599 0.0000e+00
      7.333      0.070    -0.0408     -0.371     52.707  37.955048     0.7777      7.306   280.6108 1.2364e-01     8.5168      7.192     10.431    11.0125   999.6604 0.0000e+00
      7.351      0.067    -0.0492     -0.447     53.093  38.230833     0.8226      7.303   280.6903 1.2367e-01     8.5782      7.209     10.456    11.0097   999.6609 0.0000e+00
      7.366      0.063    -0.0435     -0.395     53.633  38.617841     0.9120      7.299   280.7717 1.2368e-01     8.7029      7.224     10.479    11.0070   999.6614 0.0000e+00
      7.380      0.059    -0.0310     -0.281     54.100  38.952449     0.9562      7.295   280.9931 1.2375e-01     8.7797      7.238     10.498    11.0048   999.6618 0.0000e+00
      7.395      0.056    -0.0169     -0.153     54.575  39.292901     0.9582      7.293   281.2156 1.2377e-01     8.8182      7.252     10.518    11.0030   999.6621 0.0000e+00
      7.409      0.056    -0.0020     -0.018     55.301  39.813993     1.0486      7.292   281.3107 1.2372e-01     9.0386      7.267     10.540    11.0013   999.6625 0.0000e+00
      7.422      0.059     0.0145      0.131     56.333  40.555062     1.2263      7.289   281.2821 1.2369e-01     9.4448      7.280     10.559    10.9995   999.6630 0.0000e+00
      7.434      0.065     0.0288      0.261     57.417  41.333057     1.3294      7.285   281.2142 1.2369e-01     9.6657      7.291     10.574    10.9980   999.6633 0.0000e+00
      7.448      0.071     0.0400      0.362     58.235  41.919478     1.3409      7.280   281.0930 1.2367e-01     9.6768      7.302     10.590    10.9963   999.6636 0.0000e+00
      7.468      0.077     0.0501      0.453     58.873  42.375728     1.3494      7.274   281.0204 1.2364e-01     9.7765      7.320     10.617    10.9946   999.6641 0.0000e+00
      7.493      0.083     0.0586      0.531     59.713  42.976480     1.3712      7.268   281.1104 1.2365e-01     9.9868      7.348     10.657    10.9932   999.6648 0.0000e+00
      7.519      0.088     0.0676      0.612     61.108  43.976570     1.3869      7.262   281.2358 1.2361e-01    10.1218      7.375     10.696    10.9913   999.6655 0.0000e+00
      7.541      0.091     0.0781      0.707     62.984  45.324071     1.4007      7.254   281.4177 1.2360e-01    10.1635      7.396     10.727    10.9890   999.6662 0.0000e+00
      7.561      0.091     0.0871      0.789     64.805  46.632389     1.5294      7.246   281.5893 1.2366e-01    10.2938      7.414     10.752    10.9861   999.6668 0.0000e+00
      7.584      0.089     0.0923      0.836     66.420  47.793064     1.7730      7.240   281.4173 1.2366e-01    10.5500      7.437     10.786    10.9831   999.6674 0.0000e+00
      7.609      0.084     0.0956      0.866     67.841  48.815275     1.9099      7.234   281.1450 1.2364e-01    10.7388      7.463     10.825    10.9803   999.6682 0.0000e+00
      7.634      0.078     0.0991      0.898     69.009  49.655658     1.9355      7.228   281.2219 1.2367e-01    10.8065      7.488     10.860    10.9778   999.6693 0.0000e+00
      7.655      0.071     0.1005      0.910     70.302  50.586377     2.0402      7.221   281.3147 1.2368e-01    10.8768      7.508     10.889    10.9760   999.6703 0.0000e+00
      7.672      0.063     0.1005      0.910     71.914  51.747646     2.2131      7.216   280.9770 1.2369e-01    10.9666      7.524     10.913    10.9750   999.6710 0.0000e+00
      7.684      0.057     0.1021      0.925     73.512  52.897886     2.3002      7.211   280.2355 1.2369e-01    11.0063      7.536     10.931    10.9746   999.6717 0.0000e+00
      7.694      0.052     0.1045      0.946     74.883  53.885286     2.3052      7.205   279.4059 1.2370e-01    11.0288      7.545     10.942    10.9746   999.6720 0.0000e+00
      7.705      0.052     0.1060      0.961     76.143  54.792335     2.3163      7.199   278.7758 1.2369e-01    11.0760      7.555     10.957    10.9753   999.6724 0.0000e+00
      7.718      0.054     0.1090      0.988     77.451  55.732987     2.4950      7.191   278.2943 1.2366e-01    11.2488      7.569     10.977    10.9759   999.6731 0.0000e+00
      7.733      0.057     0.1143      1.036     79.034  56.872170     2.8353      7.183   277.8008 1.2370e-01    11.5458      7.582     10.997    10.9766   999.6737 0.0000e+00
      7.749      0.061     0.1169      1.060     81.420  58.590720     3.0151      7.174   277.3689 1.2371e-01    11.6846      7.598     11.020    10.9772   999.6740 0.0000e+00
      7.766      0.064     0.1174      1.064     84.864  61.070928     2.9963      7.164   277.0303 1.2358e-01    11.6808      7.616     11.046    10.9771   999.6746 0.0000e+00
      7.783      0.066     0.1170      1.061     88.021  63.346893     2.7027      7.154   276.6323 1.2352e-01    11.7298      7.632     11.069    10.9769   999.6751 0.0000e+00
      7.799      0.067     0.1145      1.038     90.407  65.072848     2.1621      7.144   276.4283 1.2361e-01    11.7850      7.648     11.092    10.9771   999.6758 0.0000e+00
      7.816      0.068     0.1121      1.016     93.160  67.065779     1.8611      7.134   276.4566 1.2366e-01    11.7590      7.664     11.116    10.9777   999.6764 0.0000e+00
      7.834      0.070     0.1112      1.008     96.460  69.453446     1.8205      7.123   276.2856 1.2362e-01    11.7095      7.682     11.143    10.9784   999.6779 0.0000e+00
      7.851      0.073     0.1100      0.998    100.877  72.644433     1.8188      7.110   276.1674 1.2362e-01    11.6131      7.699     11.167    10.9806   999.6791 0.0000e+00
      7.869      0.075     0.1079      0.979    106.073  76.398352     1.8489      7.097   276.3188 1.2362e-01    11.4122      7.716     11.191    10.9857   999.6790 0.0000e+00
      7.889      0.076     0.1053      0.956    110.328  79.483553     1.8720      7.083   276.3083 1.2360e-01    11.3126      7.736     11.220    10.9918   999.6797 0.0000e+00
      7.910      0.076     0.1038      0.942    113.019  81.453014     1.8811      7.067   276.1275 1.2360e-01    11.3270      7.758     11.252    10.9990   999.6800 0.0000e+00
      7.931      0.075     0.1040      0.945    114.286  82.399712     1.9425      7.052   276.1117 1.2357e-01    11.2912      7.779     11.282    11.0043   999.6812 0.0000e+00
      7.950      0.072     0.1034      0.940    114.694  82.723549     2.0594      7.038   276.2892 1.2357e-01    11.2730      7.796     11.307    11.0075   999.6832 0.0000e+00
      7.968      0.066     0.1029      0.935    114.804  82.823761     2.1234      7.025   276.3815 1.2360e-01    11.3035      7.813     11.333    11.0171   999.6838 0.0000e+00
      7.987      0.060     0.1033      0.938    114.643  82.720708     2.1271      7.014   275.9362 1.2363e-01    11.2989      7.832     11.360    11.0324   999.6834 0.0000e+00
      8.002      0.059     0.1033      0.938    114.495  82.622706     2.1826      7.001   274.7766 1.2367e-01    11.1526      7.848     11.383    11.0480   999.6822 0.0000e+00
      8.013      0.062     0.1048      0.952    114.710  82.783990     2.3006      6.987   272.9436 1.2365e-01    10.9107      7.859     11.398    11.0614   999.6809 0.0000e+00
      8.021      0.066     0.1068      0.971    114.857  82.889428     2.3737      6.972   271.1537 1.2357e-01    10.7992      7.864     11.406    11.0702   999.6802 0.0000e+00
      8.036      0.070     0.1059      0.962    114.678  82.752388     2.3822      6.958   269.6546 1.2358e-01    10.8203      7.876     11.422    11.0754   999.6796 0.0000e+00
      8.060      0.075     0.1035      0.941    114.821  82.844782     2.4203      6.946   266.6918 1.2365e-01    10.8387      7.903     11.462    11.0789   999.6792 0.0000e+00
      8.088      0.082     0.1030      0.936    116.091  83.752020     2.5053      6.933   262.6045 1.2365e-01    10.8243      7.934     11.508    11.0823   999.6792 0.0000e+00
      8.110      0.089     0.1030      0.936    117.929  85.068943     2.5514      6.921   259.5558 1.2363e-01    10.7773      7.957     11.539    11.0829   999.6793 0.0000e+00
      8.127      0.092     0.1021      0.927    119.025  85.851687     2.5434      6.911   257.1049 1.2365e-01    10.6644      7.968     11.556    11.0776   999.6798 0.0000e+00
      8.147      0.089     0.1002      0.910    119.275  86.026228     2.5307      6.901   254.4808 1.2365e-01     9.9181      7.984     11.581    11.0723   999.6802 0.0000e+00
      8.175      0.084     0.0983      0.893    119.025  85.843081     2.4934      6.894   252.0043 1.2361e-01     8.3402      8.018     11.629    11.0696   999.6812 0.0000e+00
      8.204      0.079     0.0984      0.894    118.441  85.418884     2.4211      6.889   249.9626 1.2361e-01     7.1207      8.050     11.675    11.0654   999.6828 0.0000e+00
      8.224      0.072     0.0998      0.906    117.915  85.033181     2.3765      6.884   248.2073 1.2369e-01     6.7742      8.067     11.700    11.0612   999.6836 0.0000e+00
      8.238      0.063     0.1001      0.908    117.523  84.742770     2.3700      6.880   246.0103 1.2374e-01     6.6749      8.078     11.716    11.0593   999.6838 0.0000e+00
      8.251      0.054     0.0986      0.894    117.661  84.834359     2.4123      6.877   243.9625 1.2371e-01     6.1499      8.092     11.736    11.0582   999.6840 0.0000e+00
      8.262      0.049     0.0978      0.888    118.598  85.504249     2.4988      6.874   242.4620 1.2368e-01     5.2439      8.104     11.754    11.0572   999.6838 0.0000e+00
      8.271      0.049     0.0992      0.901    119.248  85.970496     2.5398      6.870   240.4297 1.2365e-01     4.7654      8.112     11.765    11.0548   999.6840 0.0000e+00
      8.280      0.053     0.0999      0.907    119.134  85.890478     2.5339      6.867   238.4049 1.2365e-01     4.7219      8.118     11.775    11.0507   999.6843 0.0000e+00
      8.294      0.059     0.0985      0.895    118.667  85.554850     2.4794      6.864   237.1671 1.2366e-01     4.9811      8.131     11.793    11.0474   999.6846 0.0000e+00
      8.311      0.064     0.0970      0.881    117.947  85.030272     2.3754      6.860   235.8743 1.2365e-01     5.5070      8.150     11.821    11.0445   999.6856 0.0000e+00
      8.331      0.069     0.0960      0.872    117.414  84.638077     2.3174      6.857   234.2163 1.2367e-01     5.8036      8.169     11.848    11.0436   999.6859 0.0000e+00
      8.351      0.071     0.0960      0.872    117.056  84.375989     2.3154      6.854   232.6943 1.2370e-01     5.8155      8.189     11.876    11.0454   999.6857 0.0000e+00
      8.371      0.071     0.0980      0.890    116.307  83.833765     2.4030      6.850   231.4092 1.2365e-01     5.5523      8.211     11.910    11.0466   999.6857 0.0000e+00
      8.390      0.068     0.1004      0.911    114.877  82.790275     2.5710      6.846   229.6913 1.2360e-01     5.1114      8.228     11.935    11.0438   999.6856 0.0000e+00
      8.405      0.065     0.1020      0.925    113.122  81.493194     2.6650      6.843   227.5837 1.2360e-01     4.9089      8.242     11.954    11.0390   999.6860 0.0000e+00
      8.420      0.062     0.1020      0.925    112.237  80.810876     2.6888      6.840   226.2317 1.2363e-01     4.8731      8.257     11.975    11.0375   999.6863 0.0000e+00
      8.435      0.059     0.1002      0.909    111.978  80.584039     2.7898      6.838   224.9589 1.2368e-01     4.4167      8.271     11.997    11.0390   999.6858 0.0000e+00
      8.451      0.059     0.0991      0.898    111.155  79.959111     2.9588      6.838   222.8637 1.2370e-01     3.5864      8.287     12.020    11.0358   999.6858 0.0000e+00
      8.466      0.063     0.0984      0.892    110.010  79.107171     3.0414      6.838   221.2035 1.2371e-01     3.1251      8.303     12.042    11.0195   999.6865 0.0000e+00
      8.479      0.068     0.0953      0.864    109.192  78.489020     3.0346      6.839   219.8569 1.2375e-01     3.0331      8.315     12.059    10.9963   999.6887 0.0000e+00
      8.494      0.071     0.0922      0.834    109.023  78.337011     2.9546      6.839   218.0256 1.2372e-01     2.7687      8.327     12.076    10.9776   999.6908 0.0000e+00
      8.515      0.071     0.0913      0.826    109.433  78.604967     2.8102      6.839   216.3550 1.2363e-01     2.3202      8.347     12.107    10.9643   999.6918 0.0000e+00
      8.541      0.067     0.0890      0.805    109.822  78.866505     2.7370      6.839   214.8009 1.2363e-01     2.0677      8.375     12.149    10.9521   999.6927 0.0000e+00
      8.563      0.061     0.0864      0.781    109.869  78.891326     2.7366      6.840   213.2591 1.2370e-01     2.0428      8.401     12.185    10.9386   999.6940 0.0000e+00
      8.577      0.052     0.0863      0.781    109.630  78.714254     2.7181      6.841   211.7379 1.2374e-01     2.2820      8.415     12.204    10.9235   999.6954 0.0000e+00
      8.584      0.042     0.0869      0.787    109.349  78.506548     2.6879      6.841   209.9161 1.2375e-01     2.7645      8.418     12.210    10.9102   999.6970 0.0000e+00
      8.590      0.035     0.0904      0.819    109.321  78.478995     2.6751      6.841   208.6111 1.2375e-01     3.0256      8.423     12.217    10.9025   999.6979 0.0000e+00
      8.596      0.034     0.0951      0.861    109.276  78.444715     2.6764      6.842   207.6611 1.2371e-01     3.0470      8.430     12.227    10.8995   999.6983 0.0000e+00
      8.603      0.038     0.0971      0.878    109.038  78.282891     2.6863      6.842   206.0009 1.2366e-01     3.0890      8.437     12.237    10.8972   999.6985 0.0000e+00
      8.612      0.045     0.0967      0.875    108.965  78.239774     2.7328      6.842   204.7990 1.2364e-01     3.0094      8.445     12.248    10.8949   999.6985 0.0000e+00
      8.623      0.051     0.0955      0.864    109.060  78.305051     2.8148      6.843   204.4005 1.2363e-01     2.7727      8.453     12.261    10.8910   999.6991 0.0000e+00
      8.639      0.053     0.0959      0.868    109.077  78.308866     2.8620      6.844   203.2476 1.2361e-01     2.6514      8.470     12.285    10.8871   999.6996 0.0000e+00
      8.660      0.051     0.0980      0.887    109.055  78.285888     2.8620      6.845   201.4419 1.2361e-01     2.6239      8.494     12.319    10.8940   999.6988 0.0000e+00
      8.677      0.047     0.0973      0.880    109.058  78.281647     2.7967      6.845   200.0341 1.2361e-01     2.5059      8.513     12.347    10.9028   999.6980 0.0000e+00
      8.687      0.045     0.0943      0.853    109.035  78.257583     2.6801      6.845   199.0461 1.2361e-01     2.3396      8.522     12.361    10.8978   999.6986 0.0000e+00
      8.691      0.044     0.0944      0.853    109.038  78.249348     2.6226      6.845   197.5834 1.2364e-01     2.2514      8.523     12.361    10.8923   999.6992 0.0000e+00
      8.695      0.047     0.0959      0.868    109.139  78.309277     2.6218      6.845   195.6851 1.2366e-01     2.2591      8.525     12.362    10.8907   999.6993 0.0000e+00
      8.706      0.054     0.0952      0.861    109.293  78.409709     2.6698      6.844   194.3346 1.2362e-01     2.2356      8.536     12.380    10.8872   999.6998 0.0000e+00
      8.724      0.067     0.0924      0.835    109.528  78.573158     2.7788      6.844   192.7832 1.2358e-01     2.1312      8.555     12.409    10.8841   999.7001 0.0000e+00
      8.744      0.081     0.0901      0.815    109.888  78.822561     2.8465      6.844   190.6947 1.2361e-01     2.0458      8.574     12.435    10.8796   999.7006 0.0000e+00
      8.766      0.091     0.0890      0.804    110.259  79.071723     2.8564      6.844   189.5595 1.2367e-01     2.0226      8.594     12.464    10.8729   999.7014 0.0000e+00
      8.793      0.094     0.0890      0.804    110.512  79.232229     2.8721      6.843   189.1242 1.2368e-01     1.9166      8.621     12.504    10.8676   999.7022 0.0000e+00
      8.823      0.091     0.0901      0.814    110.630  79.300209     2.8881      6.843   188.0122 1.2365e-01     1.6815      8.653     12.550    10.8667   999.7025 0.0000e+00
      8.851      0.084     0.0897      0.810    110.670  79.321158     2.8860      6.842   186.4391 1.2366e-01     1.5391      8.683     12.594    10.8641   999.7030 0.0000e+00
      8.872      0.075     0.0882      0.797    110.717  79.358290     2.8729      6.842   185.2473 1.2371e-01     1.5061      8.704     12.623    10.8550   999.7042 0.0000e+00
      8.886      0.065     0.0877      0.792    110.895  79.494741     2.8765      6.842   184.1849 1.2373e-01     1.3809      8.716     12.641    10.8447   999.7054 0.0000e+00
      8.896      0.058     0.0882      0.797    111.083  79.635169     2.9039      6.843   182.8859 1.2371e-01     1.1720      8.724     12.653    10.8362   999.7063 0.0000e+00
      8.908      0.057     0.0892      0.807    111.204  79.720393     2.9184      6.843   181.7593 1.2371e-01     1.0778      8.734     12.669    10.8321   999.7068 0.0000e+00
      8.921      0.062     0.0898      0.812    111.449  79.889066     2.9205      6.842   181.2319 1.2369e-01     1.0943      8.748     12.688    10.8350   999.7065 0.0000e+00
      8.935      0.067     0.0890      0.804    111.733  80.084289     2.9811      6.842   180.8971 1.2367e-01     1.1093      8.760     12.705    10.8398   999.7062 0.0000e+00
      8.954      0.072     0.0886      0.800    112.050  80.299688     3.0883      6.842   180.0338 1.2367e-01     1.1280      8.778     12.731    10.8441   999.7059 0.0000e+00
      8.978      0.073     0.0896      0.809    112.555  80.648664     3.1506      6.842   179.3982 1.2367e-01     1.1232      8.807     12.772    10.8426   999.7061 0.0000e+00
      9.001      0.070     0.0908      0.820    113.054  80.995821     3.1625      6.842   179.3211 1.2370e-01     1.0843      8.830     12.807    10.8379   999.7069 0.0000e+00
      9.019      0.063     0.0911      0.823    113.421  81.252806     3.0929      6.841   178.4991 1.2372e-01     1.0174      8.847     12.831    10.8357   999.7073 0.0000e+00
      9.034      0.054     0.0900      0.813    113.901  81.592933     2.9509      6.840   177.3760 1.2369e-01     0.9370      8.860     12.850    10.8300   999.7080 0.0000e+00
      9.046      0.046     0.0893      0.807    115.082  82.436388     2.8674      6.840   176.9264 1.2369e-01     0.8995      8.872     12.867    10.8230   999.7090 0.0000e+00
      9.055      0.042     0.0900      0.813    117.367  84.071095     2.8547      6.839   176.2468 1.2374e-01     0.8920      8.882     12.881    10.8188   999.7096 0.0000e+00
      9.061      0.045     0.0909      0.821    120.096  86.024928     2.8493      6.838   175.0952 1.2375e-01     0.8792      8.887     12.888    10.8158   999.7100 0.0000e+00
      9.066      0.050     0.0899      0.813    122.745  87.926307     2.8281      6.837   174.2732 1.2370e-01     0.9737      8.889     12.892    10.8146   999.7103 0.0000e+00
      9.078      0.057     0.0873      0.789    125.638  90.006723     2.7986      6.836   173.7076 1.2365e-01     1.1830      8.899     12.908    10.8144   999.7107 0.0000e+00
      9.098      0.065     0.0848      0.766    128.971  92.405209     2.7867      6.834   172.7301 1.2367e-01     1.3122      8.922     12.939    10.8128   999.7119 0.0000e+00
      9.120      0.073     0.0836      0.755    132.176  94.713257     2.7886      6.832   171.5756 1.2368e-01     1.3558      8.946     12.974    10.8114   999.7133 0.0000e+00
      9.140      0.078     0.0838      0.757    134.248  96.207247     2.7958      6.830   170.9336 1.2367e-01     1.4483      8.965     13.002    10.8131   999.7140 0.0000e+00
      9.160      0.079     0.0838      0.757    135.764  97.291717     2.8047      6.827   170.3021 1.2370e-01     1.5779      8.982     13.027    10.8171   999.7147 0.0000e+00
      9.181      0.074     0.0844      0.762    138.224  99.039725     2.8084      6.823   169.1876 1.2371e-01     1.6121      9.002     13.057    10.8212   999.7156 0.0000e+00
      9.201      0.068     0.0865      0.782    141.754 101.552059     2.8149      6.821   167.7839 1.2367e-01     1.5670      9.025     13.089    10.8261   999.7166 0.0000e+00
      9.220      0.062     0.0875      0.791    147.113 105.381722     2.8318      6.817   166.2358 1.2365e-01     1.4588      9.044     13.117    10.8310   999.7170 0.0000e+00
      9.235      0.058     0.0870      0.786    153.552 109.996049     2.8473      6.813   165.0965 1.2366e-01     1.2538      9.057     13.136    10.8306   999.7172 0.0000e+00
      9.245      0.057     0.0864      0.781    157.294 112.691105     2.8467      6.809   164.3330 1.2363e-01     1.1198      9.067     13.151    10.8234   999.7191 0.0000e+00
      9.253      0.058     0.0874      0.789    158.136 113.314281     2.8499      6.807   163.4575 1.2358e-01     1.1174      9.073     13.159    10.8161   999.7210 0.0000e+00
      9.266      0.059     0.0885      0.799    158.222 113.389403     2.8944      6.804   162.6850 1.2362e-01     1.1920      9.083     13.174    10.8125   999.7230 0.0000e+00
      9.286      0.060     0.0861      0.778    158.066 113.280831     2.9604      6.799   161.9613 1.2370e-01     1.3011      9.106     13.208    10.8127   999.7266 0.0000e+00
      9.308      0.061     0.0828      0.748    157.798 113.084731     2.9886      6.793   161.3331 1.2370e-01     1.3546      9.130     13.242    10.8187   999.7273 0.0000e+00
      9.326      0.061     0.0818      0.739    157.414 112.802408     2.9838      6.785   161.0253 1.2368e-01     1.3469      9.148     13.268    10.8268   999.7263 0.0000e+00
      9.338      0.060     0.0814      0.735    156.975 112.479585     2.9804      6.777   160.3907 1.2368e-01     1.2740      9.158     13.283    10.8312   999.7261 0.0000e+00
      9.348      0.060     0.0819      0.740    156.827 112.367199     2.9824      6.769   159.6836 1.2369e-01     1.1610      9.166     13.295    10.8315   999.7259 0.0000e+00
      9.361      0.060     0.0846      0.765    156.968 112.462962     2.9834      6.760   159.3587 1.2372e-01     1.0958      9.179     13.314    10.8300   999.7261 0.0000e+00
      9.378      0.063     0.0853      0.771    156.929 112.426894     2.9743      6.752   159.0440 1.2372e-01     1.0752      9.196     13.338    10.8274   999.7263 0.0000e+00
      9.396      0.065     0.0844      0.763    156.694 112.249658     2.9244      6.746   158.6314 1.2368e-01     1.1413      9.215     13.365    10.8240   999.7265 0.0000e+00
      9.415      0.066     0.0852      0.769    156.413 112.040263     2.8397      6.742   157.2090 1.2369e-01     1.2718      9.232     13.390    10.8223   999.7267 0.0000e+00
      9.434      0.064     0.0859      0.776    156.094 111.806483     2.7912      6.738   155.0099 1.2371e-01     1.3420      9.251     13.419    10.8218   999.7270 0.0000e+00
      9.451      0.061     0.0862      0.778    155.972 111.716652     2.7877      6.733   153.6383 1.2370e-01     1.3676      9.270     13.445    10.8183   999.7273 0.0000e+00
      9.465      0.056     0.0858      0.775    156.070 111.782384     2.7982      6.729   152.6713 1.2370e-01     1.2870      9.283     13.462    10.8153   999.7276 0.0000e+00
      9.477      0.050     0.0835      0.754    156.343 111.964130     2.8141      6.727   151.4056 1.2371e-01     1.1219      9.292     13.477    10.8131   999.7278 0.0000e+00
      9.489      0.044     0.0821      0.742    156.868 112.321305     2.8238      6.727   149.6911 1.2367e-01     1.0747      9.306     13.497    10.8103   999.7280 0.0000e+00
      9.502      0.037     0.0827      0.747    157.529 112.787873     2.8117      6.727   147.6012 1.2364e-01     1.1095      9.319     13.516    10.8106   999.7280 0.0000e+00
      9.512      0.031     0.0822      0.742    158.282 113.336529     2.8065      6.727   145.9257 1.2369e-01     1.1166      9.330     13.532    10.8105   999.7281 0.0000e+00
      9.519      0.025     0.0807      0.729    159.606 114.303839     2.8391      6.728   144.4041 1.2371e-01     1.0948      9.336     13.540    10.8053   999.7287 0.0000e+00
      9.522      0.020     0.0807      0.729    161.686 115.817763     2.8669      6.728   142.8834 1.2364e-01     1.0759      9.337     13.543    10.7968   999.7299 0.0000e+00
      9.524      0.016     0.0810      0.732    163.364 117.048878     2.8655      6.727   141.7360 1.2359e-01     1.0853      9.340     13.546    10.7940   999.7304 0.0000e+00
      9.527      0.016     0.0808      0.730    168.523 120.777631     2.8657      6.727   140.7700 1.2362e-01     1.1095      9.342     13.549    10.7986   999.7302 0.0000e+00
      9.530      0.017     0.0815      0.736    185.565 133.043586     2.9476      6.727   140.1508 1.2368e-01     1.2035      9.346     13.555    10.8051   999.7297 0.0000e+00
      9.535      0.020     0.0824      0.745    210.100 150.750659     3.0927      6.727   140.0141 1.2374e-01     1.3377      9.350     13.561    10.8120   999.7304 0.0000e+00
      9.541      0.022     0.0826      0.747    226.277 162.533808     3.1639      6.727   139.6326 1.2370e-01     1.3878      9.355     13.568    10.8223   999.7298 0.0000e+00
      9.547      0.022     0.0826      0.747    230.310 165.525963     3.1662      6.727   139.2381 1.2358e-01     1.3838      9.363     13.579    10.8307   999.7288 0.0000e+00
      9.555 -9.990e-29 -9.990e-29 -9.990e-29 -9.990e-29 -9.990e-29 -9.990e-29 -9.990e-29 -9.990e-29 1.2359e-01 -9.990e-29      9.370     13.590    10.8392   999.7347 0.0000e+00
      9.561 -9.990e-29 -9.990e-29 -9.990e-29 -9.990e-29 -9.990e-29 -9.990e-29 -9.990e-29 -9.990e-29 1.2365e-01 -9.990e-29      9.377     13.600    10.8616   999.7450 0.0000e+00
      9.565 -9.990e-29 -9.990e-29 -9.990e-29 -9.990e-29 -9.990e-29 -9.990e-29 -9.990e-29 -9.990e-29 1.2364e-01 -9.990e-29      9.381     13.606    10.9166   999.7457 0.0000e+00
      9.566 -9.990e-29 -9.990e-29 -9.990e-29 -9.990e-29 -9.990e-29 -9.990e-29 -9.990e-29 -9.990e-29 1.2363e-01 -9.990e-29      9.382     13.608    10.9561   999.7413 0.0000e+00
