* Sea-Bird SBE19plus  Data File:
* FileName = C:\R\Reservoirs\Data\DataNotYetUploadedToEDI\Raw_CTD\RawDownloads\080524_fcr50_S7809_0005.hex
* Software version 2.8.0.119
* Temperature SN = 7809
* Conductivity SN = 7809
* System UpLoad Time = Aug 05 2024 17:28:30
* <ApplicationData>
* <Seaterm232>
* <SoftwareVersion>2.8.0.119</SoftwareVersion>
* <BuildDate>07-Nov-2018</BuildDate>
* </Seaterm232>
* </ApplicationData>
* <InstrumentState>
* <HardwareData DeviceType='SBE19plus' SerialNumber='01907809'>
*
*    <Manufacturer>Sea-Bird Electronics, Inc.</Manufacturer>
*
*    <FirmwareVersion>3.1.8</FirmwareVersion>
*
*    <FirmwareDate>Mar  9 2016 16:22:29</FirmwareDate>
*
*    <CommandSetVersion>1.4</CommandSetVersion>
*
*    <PCBAssembly PCBSerialNum='120721' AssemblyNum='41054J'/>
*
*    <PCBAssembly PCBSerialNum='120715' AssemblyNum='41967A'/>
*
*    <PCBAssembly PCBSerialNum='116699' AssemblyNum='41606'/>
*
*    <PCBAssembly PCBSerialNum='120719' AssemblyNum='41059D'/>
*
*    <MfgDate>28-Apr-2017</MfgDate>
*
*    <InternalSensors>
*
*       <Sensor id='Main Temperature'>
*
*          <type>temperature0</type>
*
*          <SerialNumber>01907809</SerialNumber>
*
*       </Sensor>
*
*       <Sensor id='Main Conductivity'>
*
*          <type>conductivity-0</type>
*
*          <SerialNumber>01907809</SerialNumber>
*
*       </Sensor>
*
*       <Sensor id='Main Pressure'>
*
*          <type>strain-0</type>
*
*          <SerialNumber>10586018</SerialNumber>
*
*       </Sensor>
*
*    </InternalSensors>
*
*    <ExternalSensors>
*
*       <Sensor id='volt 0'>
*
*          <type>pH</type>
*
*          <SerialNumber>27-0363</SerialNumber>
*
*       </Sensor>
*
*       <Sensor id='volt 1'>
*
*          <type>ORP</type>
*
*          <SerialNumber>27-0363</SerialNumber>
*
*       </Sensor>
*
*       <Sensor id='volt 2'>
*
*          <type>OXY</type>
*
*          <SerialNumber>43-0434</SerialNumber>
*
*       </Sensor>
*
*       <Sensor id='volt 3'>
*
*          <type>PAR</type>
*
*          <SerialNumber>1122</SerialNumber>
*
*       </Sensor>
*
*       <Sensor id='volt 4'>
*
*          <type>ECO AFL/FL</type>
*
*          <SerialNumber>FLNTURT-2496</SerialNumber>
*
*       </Sensor>
*
*       <Sensor id='volt 5'>
*
*          <type>ECO-NTU</type>
*
*          <SerialNumber>FLNTURT-2496</SerialNumber>
*
*       </Sensor>
*
*       <Sensor id='serial'>
*
*          <type>not assigned</type>
*
*          <SerialNumber>not assigned</SerialNumber>
*
*       </Sensor>
*
*    </ExternalSensors>
*
* </HardwareData>
* <StatusData DeviceType='SBE19plus' SerialNumber='01907809'>
*
*    <DateTime>2024-08-05T17:26:21</DateTime>
*
*    <LoggingState>not logging</LoggingState>
*
*    <EventSummary numEvents='0'/>
*
*    <Power>
*
*       <vMain>12.4</vMain>
*
*       <vLith>8.3</vLith>
*
*       <iMain>63.1</iMain>
*
*       <iPump>159.1</iPump>
*
*       <iExt01>20.9</iExt01>
*
*       <iExt2345>38.5</iExt2345>
*
*    </Power>
*
*    <MemorySummary>
*
*       <Bytes>79810</Bytes>
*
*       <Samples>3470</Samples>
*
*       <SamplesFree>2857318</SamplesFree>
*
*       <SampleLength>23</SampleLength>
*
*       <Profiles>5</Profiles>
*
*    </MemorySummary>
*
* </StatusData>
* <ConfigurationData DeviceType='SBE19plus' SerialNumber='01907809'>
*
*    <ProfileMode>
*
*       <ScansToAverage>1</ScansToAverage>
*
*       <MinimumCondFreq>0</MinimumCondFreq>
*
*       <PumpDelay>45</PumpDelay>
*
*       <AutoRun>no</AutoRun>
*
*       <IgnoreSwitch>no</IgnoreSwitch>
*
*    </ProfileMode>
*
*    <Battery>
*
*       <Type>alkaline</Type>
*
*       <CutOff>7.5</CutOff>
*
*    </Battery>
*
*    <DataChannels>
*
*       <ExtVolt0>yes</ExtVolt0>
*
*       <ExtVolt1>yes</ExtVolt1>
*
*       <ExtVolt2>yes</ExtVolt2>
*
*       <ExtVolt3>yes</ExtVolt3>
*
*       <ExtVolt4>yes</ExtVolt4>
*
*       <ExtVolt5>yes</ExtVolt5>
*
*       <SBE38>no</SBE38>
*
*       <WETLABS>no</WETLABS>
*
*       <OPTODE>no</OPTODE>
*
*       <SBE63>no</SBE63>
*
*       <SeaFET>no</SeaFET>
*
*       <GTD>no</GTD>
*
*    </DataChannels>
*
*    <EchoCharacters>yes</EchoCharacters>
*
*    <OutputExecutedTag>yes</OutputExecutedTag>
*
*    <OutputFormat>raw HEX</OutputFormat>
*
* </ConfigurationData>
* <CalibrationCoefficients DeviceType='SBE19plus' SerialNumber='01907809'>
*
*    <Calibration format='TEMP1' id='Main Temperature'>
*
*       <SerialNum>01907809</SerialNum>
*
*       <CalDate>31-Jan-23</CalDate>
*
*       <TA0>1.218232e-03</TA0>
*
*       <TA1>2.815090e-04</TA1>
*
*       <TA2>-1.578887e-06</TA2>
*
*       <TA3>1.972343e-07</TA3>
*
*       <TOFFSET>0.000000e+00</TOFFSET>
*
*    </Calibration>
*
*    <Calibration format='WBCOND0' id='Main Conductivity'>
*
*       <SerialNum>01907809</SerialNum>
*
*       <CalDate>31-Jan-23</CalDate>
*
*       <G>-1.005652e+00</G>
*
*       <H>1.267963e-01</H>
*
*       <I>-1.561708e-04</I>
*
*       <J>2.645944e-05</J>
*
*       <CPCOR>-9.570000e-08</CPCOR>
*
*       <CTCOR>3.250000e-06</CTCOR>
*
*       <CSLOPE>1.000000e+00</CSLOPE>
*
*    </Calibration>
*
*    <Calibration format='STRAIN0' id='Main Pressure'>
*
*       <SerialNum>10586018</SerialNum>
*
*       <CalDate>20-Jan-23</CalDate>
*
*       <PA0>4.416439e-02</PA0>
*
*       <PA1>4.850502e-04</PA1>
*
*       <PA2>-3.090426e-12</PA2>
*
*       <PTCA0>5.254757e+05</PTCA0>
*
*       <PTCA1>1.050255e+01</PTCA1>
*
*       <PTCA2>-2.922435e-01</PTCA2>
*
*       <PTCB0>2.516687e+01</PTCB0>
*
*       <PTCB1>3.750000e-04</PTCB1>
*
*       <PTCB2>0.000000e+00</PTCB2>
*
*       <PTEMPA0>-5.470820e+01</PTEMPA0>
*
*       <PTEMPA1>5.485421e+01</PTEMPA1>
*
*       <PTEMPA2>-3.446578e-01</PTEMPA2>
*
*       <POFFSET>8.500000e-01</POFFSET>
*
*       <PRANGE>1.600000e+02</PRANGE>
*
*    </Calibration>
*
*    <Calibration format='VOLT0' id='Volt 0'>
*
*       <OFFSET>-4.920000e-02</OFFSET>
*
*       <SLOPE>1.248122e+00</SLOPE>
*
*    </Calibration>
*
*    <Calibration format='VOLT0' id='Volt 1'>
*
*       <OFFSET>-4.784000e-02</OFFSET>
*
*       <SLOPE>1.248871e+00</SLOPE>
*
*    </Calibration>
*
*    <Calibration format='VOLT0' id='Volt 2'>
*
*       <OFFSET>-4.864632e-02</OFFSET>
*
*       <SLOPE>1.248714e+00</SLOPE>
*
*    </Calibration>
*
*    <Calibration format='VOLT0' id='Volt 3'>
*
*       <OFFSET>-4.743790e-02</OFFSET>
*
*       <SLOPE>1.248571e+00</SLOPE>
*
*    </Calibration>
*
*    <Calibration format='VOLT0' id='Volt 4'>
*
*       <OFFSET>-4.671263e-02</OFFSET>
*
*       <SLOPE>1.248951e+00</SLOPE>
*
*    </Calibration>
*
*    <Calibration format='VOLT0' id='Volt 5'>
*
*       <OFFSET>-4.871053e-02</OFFSET>
*
*       <SLOPE>1.249136e+00</SLOPE>
*
*    </Calibration>
*
*    <Calibration format='FREQ0' id='external frequency channel'>
*
*       <EXTFREQSF>1.000014e+00</EXTFREQSF>
*
*    </Calibration>
*
* </CalibrationCoefficients>
* <EventCounters DeviceType='SBE19plus' SerialNumber='01907809'>
*
*    <EventSummary numEvents='0'/>
*
* </EventCounters></InstrumentState>
* <Headers>
*
* cast   5 05 Aug 2024 13:00:00 samples 2915 to 3470, avg = 1, stop = mag switch
*
# nquan = 15
# nvalues = 406                         
# units = specified
# name 0 = depFM: Depth [fresh water, m]
# name 1 = dz/dtM: Descent Rate [m/s]
# name 2 = sbeox0Mg/L: Oxygen, SBE 43 [mg/l]
# name 3 = sbeox0PS: Oxygen, SBE 43 [% saturation]
# name 4 = specc: Specific Conductance [uS/cm]
# name 5 = c0uS/cm: Conductivity [uS/cm]
# name 6 = flECO-AFL: Fluorescence, WET Labs ECO-AFL/FL [mg/m^3]
# name 7 = ph: pH
# name 8 = orp: Oxidation Reduction Potential [mV]
# name 9 = par/sat/log: PAR/Logarithmic, Satlantic
# name 10 = turbWETntu0: Turbidity, WET Labs ECO [NTU]
# name 11 = prdM: Pressure, Strain Gauge [db]
# name 12 = prdE: Pressure, Strain Gauge [psi]
# name 13 = tv290C: Temperature [ITS-90, deg C]
# name 14 = flag:  0.000e+00
# span 0 =     -0.363,      5.975       
# span 1 =     -0.059,      0.204       
# span 2 =     0.1120,     7.8825       
# span 3 =      1.246,     95.087       
# span 4 =     41.911,     76.002       
# span 5 =  43.136773,  62.716111       
# span 6 =     0.3949,    19.3850       
# span 7 =      7.839,      8.015       
# span 8 =    51.7669,   134.7241       
# span 9 = 1.2348e-01, 2.2000e+03       
# span 10 =     6.9528,   509.1711      
# span 11 =     -0.366,      5.860      
# span 12 =     -0.530,      8.500      
# span 13 =    12.3286,    28.5210      
# span 14 = 0.0000e+00, 0.0000e+00      
# interval = seconds: 0.25
# start_time = Aug 05 2024 13:00:00 [Instrument's time stamp, header]
# bad_flag = -9.990e-29
# <Sensors count="9" >
#   <sensor Channel="1" >
#     <!-- Count, Temperature -->
#     <TemperatureSensor SensorID="58" >
#       <SerialNumber>7809</SerialNumber>
#       <CalibrationDate>31-Jan-23</CalibrationDate>
#       <A0>1.21823180e-003</A0>
#       <A1>2.81508993e-004</A1>
#       <A2>-1.57888696e-006</A2>
#       <A3>1.97234302e-007</A3>
#       <Slope>1.00000000</Slope>
#       <Offset>0.0000</Offset>
#     </TemperatureSensor>
#   </sensor>
#   <sensor Channel="2" >
#     <!-- Frequency 0, Conductivity -->
#     <ConductivitySensor SensorID="3" >
#       <SerialNumber>7809</SerialNumber>
#       <CalibrationDate>31-Jan-23</CalibrationDate>
#       <UseG_J>1</UseG_J>
#       <!-- Cell const and series R are applicable only for wide range sensors. -->
#       <SeriesR>0.0000</SeriesR>
#       <CellConst>2000.0000</CellConst>
#       <ConductivityType>0</ConductivityType>
#       <Coefficients equation="0" >
#         <A>0.00000000e+000</A>
#         <B>0.00000000e+000</B>
#         <C>0.00000000e+000</C>
#         <D>0.00000000e+000</D>
#         <M>0.0</M>
#         <CPcor>-9.57000000e-008</CPcor>
#       </Coefficients>
#       <Coefficients equation="1" >
#         <G>-1.00565232e+000</G>
#         <H>1.26796307e-001</H>
#         <I>-1.56170788e-004</I>
#         <J>2.64594368e-005</J>
#         <CPcor>-9.57000000e-008</CPcor>
#         <CTcor>3.2500e-006</CTcor>
#         <!-- WBOTC not applicable unless ConductivityType = 1. -->
#         <WBOTC>0.00000000e+000</WBOTC>
#       </Coefficients>
#       <Slope>1.00000000</Slope>
#       <Offset>0.00000</Offset>
#     </ConductivitySensor>
#   </sensor>
#   <sensor Channel="3" >
#     <!-- Count, Pressure, Strain Gauge -->
#     <PressureSensor SensorID="46" >
#       <SerialNumber>7809</SerialNumber>
#       <CalibrationDate>20-Jan-23</CalibrationDate>
#       <PA0>4.41643944e-002</PA0>
#       <PA1>4.85050239e-004</PA1>
#       <PA2>-3.09042623e-012</PA2>
#       <PTEMPA0>-5.47081996e+001</PTEMPA0>
#       <PTEMPA1>5.48542136e+001</PTEMPA1>
#       <PTEMPA2>-3.44657813e-001</PTEMPA2>
#       <PTCA0>5.25475731e+005</PTCA0>
#       <PTCA1>1.05025484e+001</PTCA1>
#       <PTCA2>-2.92243463e-001</PTCA2>
#       <PTCB0>2.51668750e+001</PTCB0>
#       <PTCB1>3.75000000e-004</PTCB1>
#       <PTCB2>0.00000000e+000</PTCB2>
#       <Offset>0.000000</Offset>
#     </PressureSensor>
#   </sensor>
#   <sensor Channel="4" >
#     <!-- A/D voltage 0, Oxygen, SBE 43 -->
#     <OxygenSensor SensorID="38" >
#       <SerialNumber>0434</SerialNumber>
#       <CalibrationDate>18-Feb-23</CalibrationDate>
#       <Use2007Equation>1</Use2007Equation>
#       <CalibrationCoefficients equation="0" >
#         <!-- Coefficients for Owens-Millard equation. -->
#         <Boc>0.0000</Boc>
#         <Soc>0.0000e+000</Soc>
#         <offset>0.0000</offset>
#         <Pcor>0.00e+000</Pcor>
#         <Tcor>0.0000</Tcor>
#         <Tau>0.0</Tau>
#       </CalibrationCoefficients>
#       <CalibrationCoefficients equation="1" >
#         <!-- Coefficients for Sea-Bird equation - SBE calibration in 2007 and later. -->
#         <Soc>5.1878e-001</Soc>
#         <offset>-0.5046</offset>
#         <A>-4.2788e-003</A>
#         <B> 1.5372e-004</B>
#         <C>-2.1853e-006</C>
#         <D0> 2.5826e+000</D0>
#         <D1> 1.92634e-004</D1>
#         <D2>-4.64803e-002</D2>
#         <E> 3.6000e-002</E>
#         <Tau20> 0.9900</Tau20>
#         <H1>-3.3000e-002</H1>
#         <H2> 5.0000e+003</H2>
#         <H3> 1.4500e+003</H3>
#       </CalibrationCoefficients>
#     </OxygenSensor>
#   </sensor>
#   <sensor Channel="5" >
#     <!-- A/D voltage 1, PAR/Logarithmic, Satlantic -->
#     <PARLog_SatlanticSensor SensorID="76" >
#       <SerialNumber>1122</SerialNumber>
#       <CalibrationDate>08-Sep-2021</CalibrationDate>
#       <a0>9.6751e-001</a0>
#       <a1>8.0992e-001</a1>
#       <Im>1.3589e+000</Im>
#       <Multiplier>1.0000e+000</Multiplier>
#     </PARLog_SatlanticSensor>
#   </sensor>
#   <sensor Channel="6" >
#     <!-- A/D voltage 2, pH -->
#     <pH_Sensor SensorID="43" >
#       <SerialNumber>0363</SerialNumber>
#       <CalibrationDate>28-Feb-23</CalibrationDate>
#       <Slope>4.7364</Slope>
#       <Offset>2.5433</Offset>
#     </pH_Sensor>
#   </sensor>
#   <sensor Channel="7" >
#     <!-- A/D voltage 3, Oxidation Reduction Potential -->
#     <OxidationReductionPotentialSensor SensorID="41" >
#       <SerialNumber>0363</SerialNumber>
#       <CalibrationDate>28-Feb-23</CalibrationDate>
#       <B>2.499480</B>
#       <M>-0.496195</M>
#       <Offset>0.0</Offset>
#     </OxidationReductionPotentialSensor>
#   </sensor>
#   <sensor Channel="8" >
#     <!-- A/D voltage 4, Fluorometer, WET Labs ECO-AFL/FL -->
#     <FluoroWetlabECO_AFL_FL_Sensor SensorID="20" >
#       <SerialNumber>FLNTURT-2496</SerialNumber>
#       <CalibrationDate>02-Sep-2021</CalibrationDate>
#       <ScaleFactor>4.80000000e+001</ScaleFactor>
#       <!-- Dark output -->
#       <Vblank>0.0550</Vblank>
#     </FluoroWetlabECO_AFL_FL_Sensor>
#   </sensor>
#   <sensor Channel="9" >
#     <!-- A/D voltage 5, Turbidity Meter, WET Labs, ECO-NTU -->
#     <TurbidityMeter SensorID="67" >
#       <SerialNumber>FLNTURT--2496</SerialNumber>
#       <CalibrationDate>02-Sep-2021</CalibrationDate>
#       <ScaleFactor>197.000000</ScaleFactor>
#       <!-- Dark output -->
#       <DarkVoltage>0.070000</DarkVoltage>
#     </TurbidityMeter>
#   </sensor>
# </Sensors>
# datcnv_date = Aug 05 2024 17:39:11, 7.26.7.129 [datcnv_vars = 14]
# datcnv_in = C:\R\Reservoirs\Data\DataNotYetUploadedToEDI\Raw_CTD\RawDownloads\080524_fcr40_S7809005.hex C:\R\Reservoirs\Data\DataNotYetUploadedToEDI\Raw_CTD\RawDownloads\SBE19plusV2_7809_start20230701.xmlcon
# datcnv_skipover = 0
# datcnv_ox_hysteresis_correction = yes
# datcnv_ox_tau_correction = yes
# filter_date = Aug 05 2024 17:40:43, 7.26.7.129
# filter_in = C:\R\Reservoirs\Data\DataNotYetUploadedToEDI\Raw_CTD\RawDownloads\080524_fcr40_S7809005.cnv
# filter_low_pass_tc_A = 0.030
# filter_low_pass_tc_B = 0.150
# filter_low_pass_A_vars = sbeox0Mg/L prdM prdE tv290C
# filter_low_pass_B_vars = depFM dz/dtM sbeox0PS specc c0uS/cm flECO-AFL ph orp par/sat/log turbWETntu0
# alignctd_date = Aug 05 2024 17:41:31, 7.26.7.129
# alignctd_in = C:\R\Reservoirs\Data\DataNotYetUploadedToEDI\Raw_CTD\RawDownloads\080524_fcr40_S7809005.cnv
# alignctd_adv = dz/dtM 1.000, sbeox0PS 1.000, specc 1.000, c0uS/cm 1.000, flECO-AFL 1.000, ph 1.000, orp 1.000, turbWETntu0 1.000                                                                                                   
# file_type = ascii
*END*
     -0.363      0.103     6.9065     89.998     42.394  45.330366     3.4724      7.976    51.7669 2.1421e+03     8.0171     -0.366     -0.530    27.8972 0.0000e+00
     -0.330      0.144     6.9100     90.583     42.315  45.281141     3.4684      7.960    53.5434 2.2000e+03     7.9390     -0.329     -0.477    28.1181 0.0000e+00
     -0.281      0.179     6.9261     91.196     42.229  45.179866     3.5474      7.941    54.9473 2.1212e+03     7.9214     -0.276     -0.401    28.2867 0.0000e+00
     -0.222      0.200     6.9514     91.834     42.205  45.121481     3.7029      7.920    55.6626 1.7743e+03     7.9746     -0.223     -0.322    28.3704 0.0000e+00
     -0.154      0.204     6.9852     92.414     42.207  45.082978     3.7835      7.899    55.9967 1.3007e+03     8.0359     -0.151     -0.219    28.4750 0.0000e+00
     -0.087      0.190     7.0239     92.882     42.149  44.968170     3.7726      7.881    56.2337 1.0616e+03     8.0485     -0.078     -0.114    28.5210 0.0000e+00
     -0.037      0.165     7.0737     93.270     42.061  44.812384     3.7545      7.870    56.6357 1.2281e+03     7.9904     -0.029     -0.042    28.4937 0.0000e+00
     -0.005      0.134     7.1326     93.574     42.030  44.722719     3.8480      7.865    56.9854 1.3876e+03     7.9828     -0.002     -0.004    28.4481 0.0000e+00
      0.019      0.099     7.1853     93.759     42.056  44.709152     4.0371      7.863    57.1934 1.1900e+03     8.0581      0.019      0.027    28.4064 0.0000e+00
      0.038      0.065     7.2269     93.846     42.090  44.711747     4.1347      7.862    57.5145 9.0495e+02     8.0820      0.039      0.057    28.3437 0.0000e+00
      0.051      0.035     7.2678     93.853     42.106  44.690572     4.1538      7.859    58.0290 1.0091e+03     8.0320      0.052      0.075    28.2620 0.0000e+00
      0.059      0.011     7.3035     93.788     42.115  44.643495     4.3018      7.854    58.6817 1.2485e+03     7.8979      0.059      0.085    28.1880 0.0000e+00
      0.060     -0.006     7.3215     93.723     42.130  44.586793     4.5763      7.850    59.1253 1.1982e+03     7.7589      0.065      0.094    28.1447 0.0000e+00
      0.049     -0.014     7.3327     93.746     42.117  44.512682     4.7347      7.846    59.2632 1.1824e+03     7.7513      0.053      0.077    28.1086 0.0000e+00
      0.030     -0.011     7.3389     93.834     42.087  44.445566     4.7516      7.844    59.6606 1.3250e+03     7.8068      0.025      0.035    28.0705 0.0000e+00
      0.020      0.000     7.3402     93.937     42.071  44.409994     4.6895      7.842    60.3162 1.4703e+03     7.8146      0.015      0.021    28.0060 0.0000e+00
      0.022      0.015     7.3443     94.033     42.071  44.399939     4.5658      7.841    60.5658 1.5061e+03     7.7427      0.020      0.027    27.9009 0.0000e+00
      0.034      0.032     7.3581     94.072     42.125  44.450933     4.4964      7.842    60.5276 1.3118e+03     7.6544      0.031      0.044    27.8228 0.0000e+00
      0.053      0.044     7.3720     94.039     42.204  44.518733     4.4915      7.843    60.8006 1.3074e+03     7.6357      0.052      0.075    27.7886 0.0000e+00
      0.073      0.049     7.3811     94.075     42.239  44.521449     4.5149      7.843    61.1992 1.6314e+03     7.6882      0.074      0.107    27.7687 0.0000e+00
      0.087      0.048     7.3936     94.484     42.243  44.483727     4.5469      7.844    61.4750 1.7249e+03     7.7414      0.088      0.127    27.7593 0.0000e+00
      0.095      0.043     7.3961     95.087     42.241  44.443427     4.5537      7.846    61.7257 1.5374e+03     7.7325      0.094      0.136    27.7578 0.0000e+00
      0.102      0.038     7.3945     95.067     42.249  44.414975     4.5629      7.848    61.9933 1.3669e+03     7.6832      0.101      0.147    27.7456 0.0000e+00
      0.109      0.036     7.3894     94.113     42.260  44.393564     4.6576      7.850    62.4741 1.2784e+03     7.6921      0.107      0.155    27.6976 0.0000e+00
      0.117      0.036     7.4265     92.575     42.270  44.374923     4.8250      7.851    62.8935 1.2523e+03     7.7723      0.114      0.165    27.6431 0.0000e+00
      0.127      0.034     7.5199     90.768     42.295  44.379968     4.9137      7.852    63.0199 1.2650e+03     7.7646      0.124      0.181    27.5998 0.0000e+00
      0.139      0.029     7.5306     88.864     42.323  44.391052     4.9063      7.853    63.1420 1.3481e+03     7.6665      0.135      0.196    27.5560 0.0000e+00
      0.151      0.023     7.4421     86.991     42.333  44.381959     4.9023      7.854    63.4238 1.3812e+03     7.6450      0.150      0.218    27.5147 0.0000e+00
      0.159      0.018     7.3204     85.447     42.305  44.333477     5.0823      7.856    63.8456 1.2497e+03     7.7107      0.160      0.231    27.4796 0.0000e+00
      0.157      0.016     7.1740     84.592     42.236  44.249149     5.4348      7.857    64.0254 1.1585e+03     7.7771      0.156      0.226    27.4559 0.0000e+00
      0.152      0.014     7.0258     84.422     42.183  44.187520     5.6355      7.858    63.8779 1.2391e+03     7.7649      0.147      0.214    27.4388 0.0000e+00
      0.152      0.011     6.8722     84.562     42.165  44.159595     5.6607      7.860    63.9549 1.3030e+03     7.6995      0.143      0.208    27.4149 0.0000e+00
      0.162      0.007     6.7379     84.661     42.181  44.165393     5.7647      7.863    64.4396 1.2510e+03     7.7390      0.157      0.228    27.3870 0.0000e+00
      0.173      0.003     6.6733     84.571     42.213  44.194125     5.9775      7.867    64.9205 1.2006e+03     7.8998      0.176      0.255    27.3722 0.0000e+00
      0.175     -0.002     6.6734     84.231     42.204  44.189614     6.1112      7.870    65.2092 1.2049e+03     8.0389      0.175      0.254    27.3717 0.0000e+00
      0.168     -0.009     6.6973     83.676     42.181  44.174337     6.1239      7.874    65.6074 1.2224e+03     8.0546      0.164      0.238    27.3621 0.0000e+00
      0.160     -0.016     6.7086     82.974     42.195  44.199849     6.0231      7.877    66.2076 1.2317e+03     7.9523      0.157      0.228    27.3417 0.0000e+00
      0.152     -0.019     6.7050     82.054     42.228  44.244195     5.8489      7.881    66.7006 1.2718e+03     7.8267      0.150      0.217    27.3364 0.0000e+00
      0.146     -0.018     6.6770     80.954     42.241  44.266213     5.7664      7.884    66.9226 1.3393e+03     7.7658      0.142      0.206    27.3441 0.0000e+00
      0.143     -0.013     6.6253     79.908     42.246  44.275649     5.7581      7.887    66.9131 1.3396e+03     7.7963      0.139      0.202    27.3551 0.0000e+00
      0.141     -0.009     6.5745     79.083     42.260  44.294815     5.6482      7.891    66.8440 1.3019e+03     7.8200      0.138      0.200    27.3692 0.0000e+00
      0.140     -0.005     6.5004     78.591     42.269  44.307528     5.4370      7.895    66.9475 1.3372e+03     7.7457      0.138      0.199    27.3820 0.0000e+00
      0.140     -0.003     6.4016     78.553     42.261  44.302421     5.3098      7.898    67.1324 1.3782e+03     7.6830      0.137      0.199    27.3907 0.0000e+00
      0.139     -0.002     6.3151     78.950     42.252  44.296542     5.3009      7.901    67.3587 1.3421e+03     7.7114      0.136      0.198    27.3962 0.0000e+00
      0.139     -0.000     6.2475     79.653     42.252  44.299923     5.4122      7.904    67.7040 1.3076e+03     7.8152      0.136      0.197    27.4009 0.0000e+00
      0.139     -0.000     6.2019     80.524     42.233  44.279843     5.5989      7.906    67.7803 1.3100e+03     7.9135      0.136      0.197    27.4054 0.0000e+00
      0.139     -0.004     6.2000     81.359     42.203  44.244181     5.6853      7.908    67.5072 1.2920e+03     7.9092      0.135      0.196    27.4098 0.0000e+00
      0.140     -0.014     6.2358     81.962     42.218  44.249574     5.6830      7.908    67.4133 1.2632e+03     7.9001      0.136      0.197    27.4143 0.0000e+00
      0.141     -0.029     6.2936     82.325     42.253  44.281550     5.6206      7.908    67.7637 1.2861e+03     7.9057      0.139      0.201    27.4162 0.0000e+00
      0.138     -0.044     6.3682     82.560     42.278  44.313420     5.5053      7.907    68.3874 1.3635e+03     7.8406      0.140      0.202    27.4191 0.0000e+00
      0.123     -0.055     6.4425     82.675     42.273  44.317552     5.4376      7.907    68.9319 1.4283e+03     7.7626      0.125      0.182    27.4151 0.0000e+00
      0.097     -0.059     6.4916     82.529     42.220  44.268048     5.4171      7.907    69.2709 1.4730e+03     7.7133      0.097      0.140    27.3954 0.0000e+00
      0.070     -0.054     6.5157     81.936     42.175  44.222682     5.3995      7.907    69.5607 1.4605e+03     7.6881      0.066      0.095    27.3882 0.0000e+00
      0.050     -0.041     6.5330     80.886     42.170  44.213367     5.3581      7.907    69.7689 1.4412e+03     7.7311      0.044      0.064    27.4007 0.0000e+00
      0.043     -0.023     6.5447     79.585     42.179  44.218887     5.2988      7.908    69.8094 1.7061e+03     7.7901      0.038      0.055    27.4127 0.0000e+00
      0.046     -0.003     6.5397     78.271     42.184  44.225944     5.2655      7.911    69.8774 1.8990e+03     7.7521      0.044      0.064    27.4207 0.0000e+00
      0.054      0.011     6.4930     77.127     42.185  44.235221     5.2718      7.913    69.9889 1.5979e+03     7.7151      0.054      0.078    27.4239 0.0000e+00
      0.063      0.017     6.4033     76.327     42.208  44.267585     5.4501      7.915    70.1254 1.3301e+03     7.7881      0.061      0.089    27.4147 0.0000e+00
      0.070      0.014     6.2945     75.994     42.231  44.299896     5.7820      7.918    70.3235 1.3414e+03     7.9162      0.070      0.101    27.4062 0.0000e+00
      0.075      0.007     6.1858     76.049     42.234  44.308541     5.9719      7.921    70.4906 1.4013e+03     8.0342      0.075      0.108    27.4115 0.0000e+00
      0.075     -0.002     6.0892     76.214     42.233  44.308636     5.9979      7.923    70.6838 1.4362e+03     8.0536      0.074      0.108    27.4226 0.0000e+00
      0.071     -0.008     6.0199     76.267     42.229  44.301050     6.0632      7.926    70.9387 1.4629e+03     7.9797      0.070      0.102    27.4334 0.0000e+00
      0.066     -0.011     5.9940     76.199     42.218  44.280285     6.1873      7.930    71.2501 1.4909e+03     7.9267      0.066      0.095    27.4437 0.0000e+00
      0.060     -0.011     6.0079     76.172     42.193  44.247978     6.2583      7.933    71.4372 1.4869e+03     7.9253      0.057      0.083    27.4512 0.0000e+00
      0.055     -0.009     6.0280     76.391     42.175  44.227791     6.2722      7.937    71.3942 1.4758e+03     7.9632      0.053      0.077    27.4532 0.0000e+00
      0.054     -0.006     6.0319     76.909     42.171  44.226627     6.2226      7.940    71.4183 1.4820e+03     7.9397      0.054      0.078    27.4485 0.0000e+00
      0.055     -0.003     6.0236     77.615     42.174  44.233908     6.1164      7.943    71.5558 1.4743e+03     7.8123      0.053      0.077    27.4353 0.0000e+00
      0.056     -0.001     6.0140     78.314     42.188  44.252358     6.0613      7.945    71.6806 1.4571e+03     7.7217      0.055      0.080    27.4267 0.0000e+00
      0.056     -0.001     6.0308     78.828     42.192  44.259284     6.0565      7.947    71.8943 1.4721e+03     7.7315      0.056      0.081    27.4269 0.0000e+00
      0.056     -0.002     6.0751     79.058     42.186  44.254184     6.1417      7.948    72.1604 1.4998e+03     7.8628      0.055      0.081    27.4297 0.0000e+00
      0.055     -0.005     6.1357     78.874     42.191  44.254174     6.3086      7.951    72.3173 1.4973e+03     7.9763      0.056      0.080    27.4349 0.0000e+00
      0.054     -0.007     6.1973     78.207     42.202  44.259159     6.3928      7.954    72.5012 1.4926e+03     7.9429      0.053      0.077    27.4402 0.0000e+00
      0.052     -0.008     6.2370     77.193     42.198  44.250964     6.3944      7.957    72.8352 1.5248e+03     7.9037      0.051      0.074    27.4442 0.0000e+00
      0.048     -0.008     6.2602     76.074     42.168  44.218559     6.3859      7.959    73.1728 1.5510e+03     7.9114      0.047      0.069    27.4464 0.0000e+00
      0.044     -0.007     6.2503     75.072     42.137  44.184733     6.3984      7.960    73.3998 1.5397e+03     7.9334      0.042      0.061    27.4405 0.0000e+00
      0.042     -0.007     6.1930     74.311     42.119  44.159342     6.4298      7.962    73.4281 1.5275e+03     7.9312      0.040      0.058    27.4283 0.0000e+00
      0.043     -0.007     6.1064     73.757     42.134  44.165451     6.4487      7.964    73.4296 1.5227e+03     7.8851      0.042      0.061    27.4240 0.0000e+00
      0.043     -0.006     6.0113     73.332     42.171  44.195110     6.4597      7.966    73.5887 1.5200e+03     7.8544      0.044      0.063    27.4256 0.0000e+00
      0.042     -0.005     5.9276     73.019     42.178  44.200559     6.4719      7.967    73.8036 1.4962e+03     7.9019      0.043      0.062    27.4259 0.0000e+00
      0.038     -0.002     5.8703     72.805     42.144  44.167857     6.4969      7.968    74.1350 1.4947e+03     8.0150      0.038      0.055    27.4179 0.0000e+00
      0.034      0.000     5.8318     72.618     42.093  44.117086     6.5114      7.969    74.4985 1.6263e+03     8.0264      0.033      0.046    27.4018 0.0000e+00
      0.034      0.003     5.7987     72.382     42.071  44.094497     6.5059      7.970    74.5849 1.8083e+03     7.9369      0.032      0.047    27.3901 0.0000e+00
      0.038      0.005     5.7738     72.090     42.065  44.085158     6.5051      7.971    74.4904 1.7923e+03     7.8553      0.037      0.054    27.3888 0.0000e+00
      0.043      0.005     5.7589     71.781     42.053  44.067633     6.5018      7.972    74.5615 1.6527e+03     7.7911      0.044      0.063    27.3942 0.0000e+00
      0.046      0.005     5.7464     71.462     42.062  44.073025     6.5087      7.974    74.8419 1.6155e+03     7.8096      0.047      0.068    27.4001 0.0000e+00
      0.046      0.005     5.7274     71.118     42.078  44.086873     6.5052      7.975    75.1274 1.5621e+03     7.8051      0.046      0.067    27.4009 0.0000e+00
      0.045      0.005     5.7034     70.784     42.099  44.108109     6.2839      7.975    75.4324 1.4648e+03     7.7713      0.044      0.064    27.3948 0.0000e+00
      0.044      0.008     5.6788     70.518     42.126  44.139369     5.8810      7.974    75.8624 1.4515e+03     7.8450      0.043      0.062    27.3879 0.0000e+00
      0.043      0.016     5.6563     70.381     42.130  44.147461     5.6623      7.973    76.3692 1.4883e+03     7.9453      0.042      0.060    27.3834 0.0000e+00
      0.046      0.026     5.6270     70.373     42.122  44.142476     5.6365      7.971    76.8278 1.4979e+03     7.9934      0.043      0.063    27.3799 0.0000e+00
      0.055      0.035     5.5997     70.394     42.123  44.142580     5.5528      7.970    77.1908 1.4716e+03     7.9820      0.052      0.076    27.3788 0.0000e+00
      0.070      0.044     5.5764     70.374     42.131  44.148720     5.3992      7.970    77.4897 1.4259e+03     7.9784      0.068      0.099    27.3825 0.0000e+00
      0.085      0.052     5.5634     70.316     42.137  44.153234     5.3192      7.970    77.6886 1.3869e+03     7.9843      0.084      0.123    27.3885 0.0000e+00
      0.099      0.058     5.5674     70.205     42.121  44.133677     5.3006      7.970    77.8742 1.3749e+03     7.9851      0.097      0.141    27.3937 0.0000e+00
      0.113      0.062     5.5708     69.982     42.093  44.102676     5.2912      7.969    78.1855 1.3615e+03     8.0221      0.109      0.157    27.3922 0.0000e+00
      0.129      0.065     5.5693     69.653     42.089  44.095773     5.3640      7.969    78.6122 1.3266e+03     8.0901      0.126      0.183    27.3875 0.0000e+00
      0.147      0.067     5.5636     69.258     42.114  44.113681     5.5068      7.969    78.9897 1.2841e+03     8.1918      0.144      0.210    27.3879 0.0000e+00
      0.165      0.072     5.5596     68.845     42.135  44.128766     5.5868      7.967    79.4803 1.3417e+03     8.2264      0.161      0.234    27.3830 0.0000e+00
      0.184      0.079     5.5406     68.511     42.098  44.087734     5.5987      7.965    80.1565 1.4241e+03     8.2019      0.180      0.263    27.3791 0.0000e+00
      0.201      0.084     5.5133     68.388     42.013  43.998402     5.7248      7.964    80.7129 1.3205e+03     8.1681      0.197      0.286    27.3809 0.0000e+00
      0.220      0.085     5.4827     68.463     41.950  43.937297     5.9789      7.964    81.3030 1.1589e+03     8.0918      0.212      0.308    27.3683 0.0000e+00
      0.248      0.084     5.4483     68.467     41.922  43.920202     6.1254      7.964    82.3019 1.0611e+03     8.0307      0.241      0.350    27.3563 0.0000e+00
      0.278      0.083     5.4175     68.242     41.911  43.918669     6.1551      7.962    83.4975 1.0060e+03     7.9752      0.277      0.403    27.3574 0.0000e+00
      0.300      0.083     5.4051     67.990     41.911  43.918783     6.4129      7.958    84.3162 1.0188e+03     7.8990      0.297      0.431    27.3534 0.0000e+00
      0.312      0.082     5.4234     68.002     41.919  43.921575     6.9034      7.958    84.8016 1.0220e+03     7.8614      0.306      0.443    27.3569 0.0000e+00
      0.326      0.081     5.4275     68.287     41.953  43.952417     7.1841      7.960    85.3219 9.2581e+02     7.8621      0.315      0.457    27.3775 0.0000e+00
      0.350      0.085     5.4004     68.728     42.036  44.037787     7.2264      7.961    86.0478 8.2776e+02     7.8386      0.340      0.493    27.3941 0.0000e+00
      0.376      0.097     5.3687     69.426     42.126  44.128610     7.2816      7.962    86.8666 7.9673e+02     7.7828      0.374      0.542    27.3909 0.0000e+00
      0.396      0.113     5.3719     70.545     42.171  44.161900     7.3688      7.963    87.4777 7.7037e+02     7.7675      0.387      0.561    27.3794 0.0000e+00
      0.419      0.128     5.4031     72.026     42.165  44.122895     7.4235      7.964    87.8440 7.5386e+02     7.8246      0.404      0.586    27.3755 0.0000e+00
      0.457      0.134     5.4322     73.553     42.124  44.037795     7.4431      7.967    88.1988 7.3461e+02     7.8595      0.445      0.646    27.3737 0.0000e+00
      0.503      0.134     5.4808     74.728     42.079  43.958074     7.4481      7.970    88.5841 6.8885e+02     7.8131      0.494      0.715    27.3748 0.0000e+00
      0.548      0.129     5.5722     75.446     42.060  43.920633     7.4343      7.973    88.8891 6.4935e+02     7.7414      0.541      0.783    27.3645 0.0000e+00
      0.585      0.118     5.7032     75.961     42.050  43.902447     7.4175      7.976    89.1332 6.3238e+02     7.7443      0.580      0.841    27.3187 0.0000e+00
      0.608      0.102     5.8449     76.481     42.020  43.865117     7.4278      7.978    89.3838 6.2832e+02     7.8139      0.599      0.869    27.2585 0.0000e+00
      0.623      0.085     5.9468     76.920     42.007  43.850107     7.5259      7.981    89.6826 6.1956e+02     7.8318      0.608      0.881    27.2189 0.0000e+00
      0.640      0.070     5.9936     77.114     42.002  43.847912     7.6878      7.984    89.9927 5.9815e+02     7.7896      0.626      0.909    27.2025 0.0000e+00
      0.660      0.062     6.0278     77.065     41.988  43.838584     7.7713      7.987    90.2937 5.7505e+02     7.7486      0.651      0.943    27.1945 0.0000e+00
      0.674      0.060     6.0747     76.880     42.009  43.864281     7.7694      7.989    90.5682 5.6116e+02     7.7118      0.663      0.961    27.1878 0.0000e+00
      0.685      0.061     6.1167     76.625     42.046  43.904723     7.7729      7.990    90.9037 5.5125e+02     7.7205      0.670      0.972    27.1839 0.0000e+00
      0.699      0.063     6.1304     76.330     42.088  43.946719     7.8379      7.991    91.2523 5.4030e+02     7.7852      0.684      0.993    27.1895 0.0000e+00
      0.714      0.068     6.1210     76.027     42.138  43.991204     7.9482      7.991    91.5996 5.2969e+02     7.8106      0.701      1.016    27.1985 0.0000e+00
      0.731      0.073     6.1049     75.705     42.154  43.998253     7.9997      7.992    92.0046 5.1594e+02     7.7545      0.716      1.038    27.2022 0.0000e+00
      0.753      0.076     6.0839     75.335     42.135  43.968461     7.9942      7.994    92.2784 4.9840e+02     7.6874      0.737      1.069    27.2053 0.0000e+00
      0.778      0.076     6.0590     74.869     42.126  43.948341     8.0158      7.995    92.4152 4.8316e+02     7.7165      0.764      1.108    27.2024 0.0000e+00
      0.800      0.072     6.0366     74.238     42.132  43.945394     8.0604      7.995    92.5396 4.7179e+02     7.7987      0.786      1.140    27.1937 0.0000e+00
      0.818      0.067     6.0134     73.427     42.125  43.932810     8.0849      7.996    92.7500 4.6339e+02     7.7933      0.804      1.167    27.1821 0.0000e+00
      0.833      0.062     5.9859     72.479     42.120  43.923138     8.0781      7.997    92.9801 4.5697e+02     7.7197      0.818      1.186    27.1685 0.0000e+00
      0.844      0.059     5.9537     71.452     42.155  43.955384     8.0623      7.998    93.2567 4.4915e+02     7.7290      0.827      1.200    27.1551 0.0000e+00
      0.856      0.062     5.9047     70.453     42.208  44.005315     8.0607      7.998    93.6854 4.3961e+02     7.8029      0.840      1.218    27.1443 0.0000e+00
      0.871      0.071     5.8392     69.685     42.232  44.019051     8.0660      7.998    93.9483 4.2989e+02     7.8276      0.854      1.237    27.1377 0.0000e+00
      0.886      0.081     5.7631     69.300     42.227  43.994494     8.0763      7.999    94.0260 4.1779e+02     7.8226      0.867      1.256    27.1330 0.0000e+00
      0.908      0.088     5.6797     69.188     42.212  43.962270     8.1269      8.001    94.2801 3.9972e+02     7.8451      0.886      1.284    27.1285 0.0000e+00
      0.939      0.092     5.5942     69.079     42.206  43.946770     8.2123      8.002    94.6118 3.7936e+02     7.9288      0.920      1.335    27.1252 0.0000e+00
      0.971      0.092     5.5274     68.832     42.197  43.934025     8.2681      8.002    94.8535 3.6480e+02     8.0145      0.957      1.388    27.1137 0.0000e+00
      0.996      0.089     5.5040     68.468     42.202  43.935111     8.2941      8.003    95.1380 3.5565e+02     8.0272      0.979      1.420    27.0849 0.0000e+00
      1.014      0.083     5.5076     68.050     42.229  43.959899     8.4011      8.005    95.4704 3.4778e+02     7.9462      0.994      1.442    27.0611 0.0000e+00
      1.031      0.077     5.5038     67.700     42.253  43.979835     8.5804      8.006    95.7740 3.4032e+02     7.8198      1.010      1.465    27.0538 0.0000e+00
      1.048      0.075     5.4816     67.613     42.266  43.985716     8.6641      8.007    96.0570 3.3354e+02     7.7635      1.029      1.492    27.0515 0.0000e+00
      1.065      0.076     5.4523     67.888     42.258  43.967522     8.6723      8.009    96.3104 3.2636e+02     7.7779      1.044      1.514    27.0476 0.0000e+00
      1.084      0.077     5.4166     68.438     42.250  43.950262     8.6959      8.010    96.5143 3.1661e+02     7.7897      1.061      1.538    27.0430 0.0000e+00
      1.108      0.075     5.3819     69.039     42.275  43.967431     8.7996      8.010    96.7157 3.0618e+02     7.8034      1.087      1.576    27.0379 0.0000e+00
      1.131      0.072     5.3727     69.463     42.297  43.984681     8.9775      8.010    96.9386 2.9820e+02     7.8412      1.112      1.613    27.0285 0.0000e+00
      1.150      0.071     5.3986     69.622     42.286  43.968386     9.0651      8.011    97.2298 2.9213e+02     7.8708      1.130      1.639    27.0169 0.0000e+00
      1.164      0.072     5.4506     69.632     42.286  43.960830     9.0843      8.012    97.5703 2.8661e+02     7.8882      1.143      1.657    27.0046 0.0000e+00
      1.176      0.077     5.5069     69.698     42.295  43.956788     9.3266      8.013    97.7858 2.8069e+02     7.9483      1.153      1.672    26.9939 0.0000e+00
      1.191      0.084     5.5445     69.938     42.275  43.919485     9.7729      8.014    98.0290 2.7235e+02     8.0173      1.165      1.690    26.9873 0.0000e+00
      1.214      0.093     5.5532     70.273     42.263  43.890622    10.0115      8.014    98.5315 2.6103e+02     8.0045      1.187      1.721    26.9835 0.0000e+00
      1.244      0.098     5.5478     70.478     42.248  43.861677    10.0392      8.014    98.9575 2.4873e+02     7.9301      1.219      1.768    26.9768 0.0000e+00
      1.278      0.099     5.5503     70.384     42.218  43.823396    10.2490      8.014    99.1353 2.3768e+02     7.9389      1.255      1.820    26.9600 0.0000e+00
      1.308      0.095     5.5745     70.003     42.206  43.808593    10.6500      8.013    99.5632 2.2932e+02     8.1100      1.285      1.863    26.9379 0.0000e+00
      1.332      0.086     5.6110     69.412     42.208  43.809639    10.8756      8.013   100.3462 2.2350e+02     8.2569      1.307      1.897    26.9170 0.0000e+00
      1.349      0.076     5.6352     68.678     42.233  43.836048    10.8967      8.013   100.9441 2.1935e+02     8.2466      1.324      1.921    26.9005 0.0000e+00
      1.362      0.069     5.6268     67.976     42.272  43.874007    10.9221      8.013   101.1993 2.1599e+02     8.2237      1.336      1.938    26.8924 0.0000e+00
      1.376      0.066     5.5928     67.534     42.289  43.887752    10.9745      8.014   101.3671 2.1236e+02     8.2191      1.349      1.956    26.8908 0.0000e+00
      1.391      0.064     5.5462     67.457     42.282  43.875278    11.0059      8.015   101.5971 2.0761e+02     8.1913      1.362      1.975    26.8918 0.0000e+00
      1.410      0.063     5.4821     67.683     42.262  43.850127    11.0265      8.015   101.9146 2.0210e+02     8.2297      1.381      2.004    26.8926 0.0000e+00
      1.430      0.063     5.4179     68.071     42.252  43.837538    11.2322      8.015   102.2805 1.9752e+02     8.2387      1.405      2.038    26.8903 0.0000e+00
      1.448      0.063     5.3803     68.548     42.267  43.850016    11.6197      8.015   102.7517 1.9424e+02     8.1979      1.421      2.061    26.8848 0.0000e+00
      1.461      0.066     5.3771     69.163     42.295  43.874032    11.8332      8.015   103.3958 1.9141e+02     8.2152      1.433      2.078    26.8780 0.0000e+00
      1.471      0.073     5.4008     69.968     42.304  43.874013    11.8577      8.014   103.9599 1.8828e+02     8.2432      1.443      2.092    26.8723 0.0000e+00
      1.485      0.081     5.4349     70.851     42.298  43.849770    11.9000      8.013   104.4100 1.8324e+02     8.2283      1.452      2.106    26.8690 0.0000e+00
      1.507      0.089     5.4704     71.521     42.308  43.834782    12.2695      8.013   105.1384 1.7567e+02     8.2054      1.474      2.138    26.8663 0.0000e+00
      1.538      0.094     5.5177     71.745     42.314  43.819698    12.9376      8.013   106.0550 1.6737e+02     8.2737      1.508      2.187    26.8614 0.0000e+00
      1.571      0.094     5.5849     71.501     42.299  43.794312    13.2947      8.013   106.8889 1.6027e+02     8.3367      1.543      2.238    26.8534 0.0000e+00
      1.600      0.088     5.6682     70.894     42.288  43.781712    13.3329      8.012   107.6491 1.5502e+02     8.3532      1.572      2.280    26.8338 0.0000e+00
      1.622      0.079     5.7335     70.047     42.299  43.794301    13.4327      8.012   108.3636 1.5165e+02     8.3367      1.594      2.311    26.7959 0.0000e+00
      1.636      0.073     5.7537     69.114     42.325  43.819576    13.5937      8.012   108.9034 1.4971e+02     8.2057      1.606      2.328    26.7644 0.0000e+00
      1.645      0.073     5.7318     68.400     42.348  43.833415    13.6737      8.012   109.0997 1.4779e+02     8.1012      1.612      2.338    26.7573 0.0000e+00
      1.657      0.076     5.6786     68.166     42.368  43.834666    13.7181      8.011   109.2734 1.4451e+02     8.0973      1.622      2.352    26.7600 0.0000e+00
      1.677      0.082     5.6094     68.339     42.392  43.834670    14.2133      8.011   109.6271 1.3918e+02     8.0558      1.640      2.378    26.7608 0.0000e+00
      1.707      0.087     5.5239     68.633     42.413  43.833427    15.1337      8.012   109.9355 1.3317e+02     7.9754      1.675      2.428    26.7624 0.0000e+00
      1.737      0.088     5.4571     68.860     42.420  43.819601    15.6327      8.012   110.2480 1.2877e+02     7.9447      1.709      2.477    26.7537 0.0000e+00
      1.761      0.083     5.4446     68.924     42.410  43.794412    15.6520      8.011   110.7392 1.2571e+02     7.9236      1.728      2.507    26.7252 0.0000e+00
      1.780      0.072     5.4728     68.739     42.407  43.782739    15.5833      8.011   111.3145 1.2273e+02     7.8578      1.746      2.533    26.6952 0.0000e+00
      1.797      0.059     5.5035     68.339     42.432  43.805399    15.4848      8.010   111.7828 1.2011e+02     7.7983      1.764      2.557    26.6683 0.0000e+00
      1.809      0.050     5.5250     67.862     42.572  43.941451    15.4432      8.009   112.0997 1.1832e+02     7.7853      1.775      2.575    26.6410 0.0000e+00
      1.818      0.049     5.5377     67.784     42.904  44.221712    15.4547      8.009   112.3070 1.1707e+02     7.7339      1.784      2.587    26.6226 0.0000e+00
      1.824      0.056     5.5203     69.256     43.354  44.464511    15.5912      8.009   112.4828 1.1581e+02     7.6890      1.788      2.594    26.6131 0.0000e+00
      1.832      0.066     5.4865     72.709     43.795  44.528190    15.8528      8.010   112.6766 1.1356e+02     7.7212      1.792      2.600    26.6124 0.0000e+00
      1.848      0.078     5.4397     75.203     44.149  44.483245    16.0046      8.012   113.1009 1.0925e+02     7.7479      1.808      2.621    26.6112 0.0000e+00
      1.877      0.089     5.3995     72.400     44.393  44.428264    16.0283      8.013   113.8276 1.0385e+02     7.7719      1.840      2.669    26.6007 0.0000e+00
      1.909      0.096     5.4916     63.660     44.590  44.434263    16.0313      8.014   114.5791 9.9262e+01     7.7385      1.875      2.719    26.3725 0.0000e+00
      1.938      0.096     5.9223     51.730     44.745  44.492018    16.0740      8.015   115.2190 9.5528e+01     7.6172      1.902      2.758    25.8278 0.0000e+00
      1.963      0.090     6.3720     39.241     44.750  44.491667    16.1701      8.014   115.7137 9.2210e+01     7.5010      1.926      2.793    25.3141 0.0000e+00
      1.985      0.079     6.1796     27.880     44.657  44.430031    16.2358      8.012   116.1718 8.9460e+01     7.4604      1.947      2.824    24.9948 0.0000e+00
      2.002      0.069     5.3610     18.892     44.619  44.381598    16.2362      8.012   116.6282 8.7227e+01     7.5021      1.964      2.850    24.7860 0.0000e+00
      2.017      0.060     4.3086     13.001     44.645  44.350380    16.0080      8.011   117.1023 8.5365e+01     7.4593      1.979      2.869    24.6682 0.0000e+00
      2.030      0.056     3.2290     10.361     44.664  44.306393    15.5829      8.010   117.6021 8.3688e+01     7.2842      1.991      2.887    24.6863 0.0000e+00
      2.041      0.057     2.2397     10.354     44.644  44.230518    15.3493      8.010   117.8536 8.2067e+01     7.1958      2.003      2.904    24.7676 0.0000e+00
      2.052      0.061     1.4768     11.696     44.625  44.131136    15.3213      8.011   117.9060 8.0525e+01     7.2442      2.013      2.920    24.7506 0.0000e+00
      2.065      0.066     0.9821     13.266     44.675  44.056787    15.2117      8.012   117.9767 7.8529e+01     7.2879      2.022      2.932    24.6610 0.0000e+00
      2.084      0.068     0.7789     14.386     44.787  44.029614    14.9817      8.012   118.0207 7.5743e+01     7.2798      2.041      2.960    24.5866 0.0000e+00
      2.109      0.068     0.8279     14.677     44.862  43.992800    14.8295      8.012   118.0942 7.3041e+01     7.2489      2.070      3.003    24.5421 0.0000e+00
      2.132      0.064     0.9727     14.164     44.881  43.928890    14.7937      8.012   118.3482 7.1028e+01     7.2222      2.093      3.035    24.4655 0.0000e+00
      2.149      0.060     1.1242     13.223     44.916  43.891511    14.6817      8.011   118.8556 6.9671e+01     7.1961      2.110      3.060    24.3095 0.0000e+00
      2.160      0.058     1.2350     12.223     44.948  43.858130    14.4661      8.010   119.3247 6.8776e+01     7.1381      2.119      3.074    24.1331 0.0000e+00
      2.167      0.060     1.2620     11.350     44.945  43.779082    14.3262      8.009   119.4597 6.7933e+01     7.0332      2.125      3.082    24.0117 0.0000e+00
      2.176      0.066     1.2049     10.620     44.978  43.697347    14.3216      8.009   119.5407 6.6689e+01     6.9529      2.132      3.092    23.9343 0.0000e+00
      2.192      0.074     1.1168      9.996     45.053  43.631400    14.6523      8.010   119.7026 6.4362e+01     6.9528      2.143      3.108    23.8491 0.0000e+00
      2.218      0.083     1.0279      9.504     45.110  43.552783    15.2620      8.011   119.7823 6.1332e+01     6.9980      2.174      3.153    23.7815 0.0000e+00
      2.249      0.088     0.9554      9.123     45.178  43.508284    15.5929      8.011   119.8161 5.8897e+01     7.0558      2.209      3.203    23.7190 0.0000e+00
      2.274      0.088     0.8993      8.784     45.294  43.537528    15.6726      8.011   119.9394 5.7116e+01     7.0708      2.231      3.236    23.5829 0.0000e+00
      2.295      0.083     0.8456      8.458     45.408  43.588885    16.2589      8.011   120.1552 5.5482e+01     7.0422      2.251      3.266    23.4117 0.0000e+00
      2.315      0.074     0.8076      8.158     45.469  43.621357    17.3304      8.010   120.5327 5.4015e+01     7.0178      2.271      3.293    23.2573 0.0000e+00
      2.333      0.066     0.7799      7.945     45.453  43.612739    17.9165      8.010   120.9761 5.2786e+01     7.0487      2.289      3.319    23.1357 0.0000e+00
      2.348      0.062     0.7523      7.860     45.374  43.548172    17.9765      8.009   121.2137 5.1806e+01     7.1423      2.304      3.342    23.0483 0.0000e+00
      2.361      0.062     0.7258      7.875     45.328  43.475445    18.0142      8.009   121.3397 5.0967e+01     7.1591      2.315      3.358    22.9778 0.0000e+00
      2.372      0.065     0.6976      7.965     45.369  43.431567    18.3637      8.009   121.5533 5.0142e+01     7.1837      2.327      3.374    22.9475 0.0000e+00
      2.386      0.069     0.6770      8.097     45.463  43.398362    19.0074      8.009   121.9038 4.9117e+01     7.3376      2.338      3.392    22.9639 0.0000e+00
      2.406      0.073     0.6716      8.219     45.536  43.327687    19.3638      8.010   122.3079 4.7632e+01     7.4824      2.356      3.418    23.0021 0.0000e+00
      2.431      0.074     0.6734      8.300     45.561  43.211574    19.3850      8.011   122.6539 4.6106e+01     7.5677      2.386      3.461    22.9776 0.0000e+00
      2.455      0.073     0.6831      8.349     45.634  43.136773    19.1883      8.013   122.9901 4.5050e+01     7.6519      2.411      3.497    22.8716 0.0000e+00
      2.473      0.072     0.6988      8.393     45.828  43.184738    18.8251      8.013   123.3612 4.4256e+01     7.7827      2.425      3.519    22.7327 0.0000e+00
      2.487      0.072     0.7121      8.433     46.200  43.410485    18.6223      8.013   123.5270 4.3482e+01     7.8510      2.439      3.538    22.5645 0.0000e+00
      2.500      0.074     0.7212      8.470     46.746  43.771467    18.4839      8.014   123.5324 4.2722e+01     7.9315      2.452      3.557    22.4204 0.0000e+00
      2.515      0.078     0.7256      8.521     47.249  44.058060    17.0684      8.014   123.6848 4.1738e+01     8.6196      2.463      3.574    22.2574 0.0000e+00
      2.535      0.082     0.7327      8.582     47.534  44.145978    14.4590      8.015   123.9069 4.0271e+01     9.7155      2.483      3.601    22.0960 0.0000e+00
      2.564      0.084     0.7377      8.615     47.671  44.135997    13.0262      8.015   124.0668 3.8664e+01    10.2159      2.515      3.647    21.9956 0.0000e+00
      2.593      0.083     0.7419      8.555     47.750  44.127615    12.8700      8.014   124.1551 3.7449e+01    10.2298      2.546      3.693    21.8305 0.0000e+00
      2.615      0.079     0.7503      8.366     47.773  44.107998    12.6624      8.014   124.2866 3.6671e+01    10.2935      2.567      3.723    21.6143 0.0000e+00
      2.632      0.071     0.7590      8.078     47.794  44.089187    12.3219      8.014   124.6248 3.6067e+01    10.3704      2.582      3.744    21.4151 0.0000e+00
      2.646      0.062     0.7671      7.733     47.841  44.090547    12.1319      8.014   125.0608 3.5453e+01    10.3737      2.595      3.763    21.2645 0.0000e+00
      2.660      0.057     0.7644      7.331     47.891  44.124375    12.1131      8.013   125.3418 3.4836e+01    10.3341      2.608      3.783    21.1852 0.0000e+00
      2.674      0.056     0.7468      6.895     47.951  44.180809    12.2193      8.012   125.4412 3.4354e+01    10.4040      2.624      3.805    21.1592 0.0000e+00
      2.685      0.057     0.7191      6.504     48.020  44.201613    12.4177      8.010   125.5742 3.3960e+01    10.6045      2.634      3.820    21.1306 0.0000e+00
      2.698      0.058     0.6907      6.209     48.098  44.185426    12.5393      8.010   125.8317 3.3418e+01    10.7764      2.644      3.835    21.0563 0.0000e+00
      2.715      0.058     0.6548      5.995     48.187  44.175396    12.5745      8.009   126.1445 3.2744e+01    10.8423      2.663      3.861    21.0482 0.0000e+00
      2.733      0.058     0.6116      5.791     48.307  44.207164    12.7010      8.008   126.6038 3.2155e+01    10.8548      2.682      3.889    21.0906 0.0000e+00
      2.749      0.059     0.5758      5.551     48.430  44.252045    14.2443      8.008   127.2548 3.1734e+01    11.2346      2.697      3.911    21.0396 0.0000e+00
      2.762      0.062     0.5511      5.313     48.544  44.273622    17.1175      8.008   127.7358 3.1363e+01    12.0186      2.709      3.929    20.9242 0.0000e+00
      2.774      0.067     0.5359      5.109     48.699  44.277524    18.6847      8.008   127.8583 3.0900e+01    12.4771      2.720      3.945    20.8272 0.0000e+00
      2.788      0.076     0.5212      4.911     48.884  44.235557    18.6285      8.008   127.9612 3.0365e+01    12.5426      2.733      3.964    20.7475 0.0000e+00
      2.807      0.085     0.4974      4.666     49.067  44.146773    16.3464      8.009   128.2060 2.9685e+01    13.1183      2.749      3.988    20.6826 0.0000e+00
      2.832      0.092     0.4754      4.356     49.210  44.028894    12.1319      8.010   128.5818 2.8648e+01    14.2808      2.773      4.022    20.6195 0.0000e+00
      2.864      0.095     0.4595      3.975     49.341  43.952521     9.8288      8.009   129.1493 2.7488e+01    14.9836      2.809      4.074    20.4857 0.0000e+00
      2.895      0.091     0.4462      3.504     49.511  43.984808     9.5907      8.008   129.8187 2.6609e+01    15.1592      2.843      4.124    20.2591 0.0000e+00
      2.920      0.081     0.4268      2.969     49.624  44.038261     9.1197      8.006   130.3949 2.5905e+01    15.4476      2.864      4.155    19.9786 0.0000e+00
      2.939      0.068     0.3995      2.415     49.607  44.027479     8.2711      8.004   130.6954 2.5293e+01    15.9090      2.884      4.183    19.7084 0.0000e+00
      2.953      0.059     0.3692      1.919     49.461  43.917931     7.8021      8.003   130.8714 2.4933e+01    16.1950      2.899      4.203    19.5094 0.0000e+00
      2.960      0.059     0.3239      1.564     49.270  43.729376     7.7110      8.002   131.2316 2.4785e+01    16.2745      2.904      4.213    19.3853 0.0000e+00
      2.964      0.064     0.2747      1.350     49.154  43.524962     7.2618      8.002   131.6953 2.4520e+01    16.9389      2.904      4.212    19.3496 0.0000e+00
      2.976      0.072     0.2209      1.246     49.142  43.350485     6.4485      8.001   132.0902 2.3599e+01    18.1814      2.911      4.221    19.3629 0.0000e+00
      3.003      0.080     0.1706      1.249     49.328  43.333366     5.9924      8.001   132.3930 2.2139e+01    18.8638      2.942      4.267    19.4030 0.0000e+00
      3.036      0.086     0.1395      1.338     49.713  43.508165     5.9084      8.000   132.6032 2.0902e+01    19.0418      2.982      4.325    19.4130 0.0000e+00
      3.063      0.090     0.1214      1.437     50.211  43.813412     5.5589      8.000   132.7383 1.9989e+01    20.4009      3.007      4.361    19.2897 0.0000e+00
      3.083      0.088     0.1120      1.502     50.964  44.357961     4.9451      8.000   132.8228 1.9054e+01    22.8976      3.023      4.384    19.1094 0.0000e+00
      3.101      0.081     0.1122      1.537     52.001  45.140921     4.6203      7.999   133.0220 1.8043e+01    24.2925      3.042      4.411    18.9129 0.0000e+00
      3.120      0.076     0.1253      1.567     53.655  46.424303     4.5952      7.998   133.2536 1.7005e+01    24.4905      3.059      4.437    18.7393 0.0000e+00
      3.139      0.074     0.1355      1.598     56.342  48.574998     4.5662      7.999   133.3003 1.6017e+01    24.6770      3.078      4.464    18.6196 0.0000e+00
      3.158      0.074     0.1415      1.598     58.712  50.447263     4.3701      7.999   133.4147 1.5182e+01    26.7181      3.098      4.493    18.5160 0.0000e+00
      3.176      0.074     0.1448      1.572     59.874  51.283821     4.0559      7.998   133.6901 1.4434e+01    30.6207      3.114      4.517    18.4151 0.0000e+00
      3.195      0.076     0.1463      1.557     63.659  54.371999     3.9039      7.997   134.0489 1.3699e+01    32.7847      3.133      4.544    18.2675 0.0000e+00
      3.215      0.080     0.1527      1.562     70.622  60.155931     3.8898      7.995   134.4831 1.3041e+01    32.6945      3.154      4.574    18.1049 0.0000e+00
      3.235      0.087     0.1526      1.581     73.883  62.716111     3.8021      7.992   134.7241 1.2507e+01    29.2574      3.173      4.602    17.9582 0.0000e+00
      3.253      0.094     0.1483      1.611     72.415  61.190249     3.6338      7.987   134.4673 1.1968e+01    22.8924      3.189      4.625    17.8145 0.0000e+00
      3.277      0.099     0.1480      1.639     71.346  60.003853     3.5364      7.982   133.7020 1.1218e+01    19.4090      3.209      4.655    17.7039 0.0000e+00
      3.308      0.104     0.1484      1.654     71.926  60.251758     3.5156      7.974   132.6975 1.0360e+01    18.9763      3.244      4.705    17.6138 0.0000e+00
      3.342      0.109     0.1509      1.662     72.534  60.566326     3.4066      7.964   131.7015 9.6551e+00    17.2516      3.281      4.757    17.4555 0.0000e+00
      3.369      0.112     0.1548      1.677     72.712  60.567165     3.2101      7.954   130.8645 9.0897e+00    13.9953      3.306      4.795    17.2390 0.0000e+00
      3.393      0.110     0.1592      1.694     72.916  60.642888     3.1033      7.944   130.2359 8.2895e+00    12.1588      3.325      4.822    17.0331 0.0000e+00
      3.420      0.104     0.1606      1.698     73.270  60.846490     3.0885      7.934   129.9518 6.9849e+00    11.9214      3.351      4.860    16.8710 0.0000e+00
      3.452      0.096     0.1610      1.697     73.559  60.932332     3.0560      7.926   130.1822 5.6221e+00    11.0900      3.388      4.913    16.7380 0.0000e+00
      3.480      0.088     0.1630      1.695     73.603  60.791184     3.0189      7.921   129.6664 4.7468e+00     9.5883      3.416      4.954    16.6252 0.0000e+00
      3.500      0.079     0.1658      1.681     73.630  60.727890     3.0146      7.915   127.1564 4.3054e+00     8.7944      3.434      4.980    16.5767 0.0000e+00
      3.516      0.070     0.1660      1.665     74.015  61.056352     3.0196      7.910   123.8391 4.0784e+00     8.7667      3.449      5.002    16.5413 0.0000e+00
      3.531      0.064     0.1651      1.651     74.614  61.522571     2.9886      7.906   120.7038 3.9904e+00     8.7409      3.464      5.024    16.4273 0.0000e+00
      3.543      0.065     0.1677      1.638     74.544  61.282407     2.9316      7.903   117.6405 3.9569e+00     8.6535      3.475      5.040    16.2607 0.0000e+00
      3.555      0.070     0.1648      1.637     73.700  60.248752     2.8963      7.898   114.7643 3.9170e+00     8.6323      3.485      5.054    16.2005 0.0000e+00
      3.571      0.076     0.1634      1.649     73.187  59.443081     2.8864      7.893   112.2550 3.8595e+00     8.6543      3.500      5.076    16.2544 0.0000e+00
      3.594      0.080     0.1622      1.663     73.285  59.227508     2.7870      7.890   110.2730 3.7419e+00     8.4079      3.521      5.108    16.2667 0.0000e+00
      3.622      0.082     0.1607      1.667     73.489  59.230058     2.5846      7.887   108.5248 3.5781e+00     7.8732      3.554      5.154    16.1452 0.0000e+00
      3.648      0.081     0.1615      1.667     73.730  59.346683     2.4616      7.883   106.6038 3.4382e+00     7.5530      3.582      5.195    15.8807 0.0000e+00
      3.668      0.077     0.1640      1.652     73.881  59.430534     2.4318      7.879   104.5129 3.3042e+00     7.4736      3.597      5.218    15.5786 0.0000e+00
      3.685      0.073     0.1672      1.631     73.730  59.290976     2.4153      7.876   102.3450 3.1527e+00     7.4260      3.613      5.240    15.3668 0.0000e+00
      3.700      0.072     0.1666      1.618     73.513  59.056834     2.3717      7.875   100.3526 3.0386e+00     7.4894      3.631      5.267    15.2769 0.0000e+00
      3.713      0.075     0.1680      1.605     73.310  58.759318     2.2872      7.874    98.9225 2.9051e+00     7.5914      3.639      5.279    15.2378 0.0000e+00
      3.729      0.079     0.1664      1.600     73.084  58.425063     2.2254      7.872    97.8728 2.6400e+00     7.5660      3.651      5.296    15.2051 0.0000e+00
      3.754      0.081     0.1625      1.613     73.588  58.699516     2.1909      7.870    96.6951 2.3191e+00     7.4904      3.679      5.337    15.2148 0.0000e+00
      3.783      0.081     0.1630      1.618     75.031  59.727076     2.1357      7.869    95.3512 2.0597e+00     7.7017      3.713      5.383    15.1925 0.0000e+00
      3.808      0.080     0.1614      1.608     76.002  60.367426     2.0665      7.869    94.0998 1.8854e+00     8.1732      3.737      5.421    15.0722 0.0000e+00
      3.824      0.078     0.1599      1.596     75.555  59.898648     2.0360      7.869    93.0081 1.7672e+00     8.4441      3.750      5.439    14.9548 0.0000e+00
      3.839      0.078     0.1642      1.584     73.829  58.442305     2.0255      7.869    92.0461 1.6587e+00     8.4834      3.762      5.457    14.8815 0.0000e+00
      3.855      0.080     0.1642      1.584     71.965  56.860949     1.9139      7.868    91.2441 1.5661e+00     8.7499      3.782      5.486    14.8054 0.0000e+00
      3.872      0.084     0.1630      1.595     71.244  56.150476     1.7194      7.867    90.5388 1.4790e+00     9.2757      3.795      5.504    14.7057 0.0000e+00
      3.895      0.085     0.1625      1.597     70.908  55.759147     1.6129      7.866    89.7991 1.3629e+00     9.6146      3.814      5.532    14.6237 0.0000e+00
      3.927      0.084     0.1602      1.588     70.273  55.177906     1.6003      7.866    89.0111 1.2560e+00     9.7721      3.853      5.590    14.5824 0.0000e+00
      3.956      0.081     0.1609      1.580     69.988  54.902326     1.5413      7.865    88.2384 1.2013e+00    10.4974      3.885      5.636    14.5158 0.0000e+00
      3.973      0.077     0.1634      1.575     69.948  54.840586     1.4148      7.864    87.5115 1.1724e+00    11.7573      3.897      5.652    14.3985 0.0000e+00
      3.984      0.072     0.1641      1.576     69.850  54.748937     1.3278      7.863    86.8473 1.1382e+00    12.4013      3.906      5.665    14.2980 0.0000e+00
      3.997      0.067     0.1623      1.574     69.543  54.492811     1.2977      7.863    86.2306 1.0923e+00    12.4768      3.920      5.686    14.2518 0.0000e+00
      4.014      0.067     0.1621      1.560     68.402  53.585536     1.2594      7.863    85.5621 1.0371e+00    13.2159      3.935      5.708    14.2149 0.0000e+00
      4.034      0.070     0.1610      1.545     66.926  52.416098     1.2057      7.862    84.8728 9.8710e-01    14.5740      3.956      5.737    14.1908 0.0000e+00
      4.054      0.072     0.1616      1.531     66.402  51.974781     1.1726      7.861    84.3496 9.4144e-01    15.3029      3.977      5.768    14.1904 0.0000e+00
      4.074      0.072     0.1625      1.520     66.397  51.932876     1.1589      7.861    83.8826 8.9478e-01    15.4015      3.995      5.795    14.1745 0.0000e+00
      4.094      0.072     0.1598      1.522     65.347  51.083846     1.1568      7.863    83.3563 8.5500e-01    16.4160      4.014      5.824    14.1630 0.0000e+00
      4.112      0.074     0.1585      1.521     63.077  49.265505     1.1721      7.868    82.8899 8.2829e-01    18.4136      4.032      5.848    14.1647 0.0000e+00
      4.127      0.079     0.1576      1.498     60.916  47.472249     1.1859      7.875    82.4591 8.1624e-01    19.5368      4.047      5.870    14.1364 0.0000e+00
      4.143      0.085     0.1552      1.485     59.779  46.417419     1.1980      7.882    82.1052 7.9917e-01    19.6462      4.062      5.892    14.0966 0.0000e+00
      4.163      0.090     0.1564      1.496     59.520  46.034574     1.2023      7.888    81.8812 7.6235e-01    19.7707      4.079      5.915    14.0861 0.0000e+00
      4.191      0.092     0.1584      1.500     59.603  45.953847     1.1381      7.893    81.7291 7.1024e-01    21.1782      4.107      5.957    14.0689 0.0000e+00
      4.225      0.089     0.1536      1.500     59.554  45.822088     1.0211      7.896    81.8148 6.6510e-01    23.7528      4.146      6.014    13.9832 0.0000e+00
      4.253      0.084     0.1516      1.515     59.240  45.520585     0.9606      7.898    82.1424 6.4980e-01    25.1778      4.175      6.056    13.8238 0.0000e+00
      4.271      0.078     0.1566      1.534     59.011  45.291997     0.9569      7.901    82.5069 6.5058e-01    25.3593      4.190      6.076    13.6532 0.0000e+00
      4.282      0.072     0.1565      1.544     59.061  45.280066     0.8932      7.905    82.8669 6.4060e-01    25.1950      4.198      6.090    13.5300 0.0000e+00
      4.294      0.070     0.1548      1.524     58.981  45.185823     0.7647      7.909    83.2254 6.1672e-01    24.7968      4.209      6.105    13.4576 0.0000e+00
      4.309      0.073     0.1587      1.508     58.659  44.914246     0.6922      7.912    83.5722 5.9472e-01    24.5752      4.224      6.126    13.4158 0.0000e+00
      4.330      0.077     0.1598      1.573     58.469  44.726081     0.6831      7.915    83.8763 5.7516e-01    24.5312      4.245      6.156    13.3767 0.0000e+00
      4.355      0.079     0.1631      1.743     58.482  44.688128     0.6625      7.918    84.0628 5.5198e-01    23.9238      4.271      6.194    13.3221 0.0000e+00
      4.380      0.077     0.1607      2.108     58.479  44.645743     0.6104      7.921    84.1064 5.3293e-01    22.7307      4.297      6.232    13.2966 0.0000e+00
      4.402      0.075     0.1530      2.893     58.292  44.467482     0.5681      7.925    84.2322 5.2512e-01    22.0610      4.319      6.264    13.2934 0.0000e+00
      4.419      0.075     0.1622      4.275     57.973  44.183202     0.5588      7.929    84.6374 5.2115e-01    21.9412      4.335      6.288    13.2447 0.0000e+00
      4.431      0.078     0.1775      6.233     57.655  43.874576     0.5648      7.932    85.1337 5.1401e-01    21.4184      4.346      6.303    13.1994 0.0000e+00
      4.444      0.083     0.2057      8.646     57.398  43.592306     0.5823      7.934    85.5865 5.0241e-01    20.4545      4.354      6.316    13.1696 0.0000e+00
      4.465      0.088     0.2796     11.499     57.309  43.436215     0.5876      7.937    86.0680 4.8111e-01    19.8851      4.374      6.344    13.1363 0.0000e+00
      4.496      0.093     0.4276     15.053     57.433  43.447137     0.5706      7.940    86.4821 4.5666e-01    19.7940      4.410      6.396    13.1153 0.0000e+00
      4.529      0.096     0.6399     19.585     57.643  43.533845     0.5604      7.942    86.8076 4.2950e-01    19.6606      4.445      6.447    13.0537 0.0000e+00
      4.554      0.094     0.8990     25.011     57.804  43.595853     0.5722      7.942    87.3358 3.9419e-01    19.5027      4.468      6.481    12.9677 0.0000e+00
      4.575      0.088     1.1904     31.047     57.906  43.625521     0.5881      7.942    88.0511 3.7450e-01    19.4904      4.487      6.508    12.8929 0.0000e+00
      4.595      0.081     1.5497     37.304     57.968  43.638603     0.5871      7.942    88.7447 3.7453e-01    19.4776      4.507      6.537    12.8180 0.0000e+00
      4.615      0.079     2.0426     43.369     57.975  43.627032     0.5765      7.943    89.5262 3.7077e-01    19.3814      4.528      6.566    12.7548 0.0000e+00
      4.631      0.079     2.6281     48.783     57.955  43.612557     0.5848      7.943    90.3600 3.6328e-01    19.2155      4.542      6.587    12.7033 0.0000e+00
      4.648      0.080     3.2878     53.040     57.908  43.590532     0.6203      7.943    91.1680 3.4978e-01    19.0427      4.554      6.606    12.6616 0.0000e+00
      4.671      0.079     3.9701     55.921     57.835  43.551173     0.6473      7.943    91.9827 3.2338e-01    19.0010      4.578      6.640    12.6335 0.0000e+00
      4.697      0.077     4.6287     57.504     57.780  43.517547     0.6460      7.943    92.7251 2.9700e-01    18.9506      4.608      6.683    12.6166 0.0000e+00
      4.720      0.074     5.2318     58.062     57.770  43.501351     0.6370      7.942    93.4333 2.8354e-01    18.8086      4.631      6.717    12.6184 0.0000e+00
      4.737      0.071     5.6856     57.911     57.776  43.482289     0.6300      7.941    94.2644 2.8001e-01    18.7192      4.647      6.741    12.6341 0.0000e+00
      4.752      0.071     5.9875     57.299     57.739  43.413998     0.6285      7.940    95.1162 2.7052e-01    18.7231      4.661      6.760    12.6513 0.0000e+00
      4.764      0.074     6.1426     56.504     57.664  43.310353     0.6350      7.940    95.8172 2.5438e-01    18.7536      4.672      6.775    12.6602 0.0000e+00
      4.778      0.080     6.1888     55.810     57.632  43.244679     0.6092      7.941    96.4593 2.4259e-01    18.5760      4.681      6.790    12.6514 0.0000e+00
      4.800      0.086     6.1703     55.497     57.693  43.254642     0.5488      7.941    97.2018 2.2334e-01    18.1807      4.703      6.820    12.6329 0.0000e+00
      4.830      0.091     6.0972     55.710     57.798  43.303823     0.5210      7.940    97.9977 1.9133e-01    17.9705      4.736      6.870    12.5948 0.0000e+00
      4.861      0.093     6.0109     56.480     57.863  43.331494     0.5232      7.938    98.6821 1.6356e-01    17.9817      4.770      6.919    12.5474 0.0000e+00
      4.886      0.091     5.9285     57.868     57.888  43.335279     0.5261      7.937    99.3684 1.4682e-01    17.9067      4.794      6.953    12.5142 0.0000e+00
      4.906      0.088     5.8933     59.847     57.921  43.349576     0.5305      7.938   100.1011 1.4063e-01    17.7113      4.812      6.979    12.4823 0.0000e+00
      4.923      0.088     5.9234     62.308     57.966  43.377390     0.5270      7.938   100.7431 1.3916e-01    17.6011      4.828      7.003    12.4550 0.0000e+00
      4.941      0.093     6.0003     64.993     58.024  43.417673     0.5165      7.937   101.3668 1.3612e-01    17.5988      4.846      7.028    12.4381 0.0000e+00
      4.962      0.100     6.1538     67.502     58.083  43.455769     0.5039      7.935   101.9635 1.3306e-01    17.6844      4.863      7.055    12.4263 0.0000e+00
      4.990      0.106     6.3696     69.610     58.095  43.457152     0.4900      7.935   102.4506 1.2792e-01    17.8508      4.890      7.092    12.4169 0.0000e+00
      5.026      0.108     6.6393     71.269     58.075  43.434386     0.4745      7.934   103.0408 1.2389e-01    17.9028      4.928      7.148    12.4122 0.0000e+00
      5.061      0.104     6.9490     72.494     58.084  43.434396     0.4570      7.932   103.7653 1.2353e-01    17.8338      4.966      7.203    12.4119 0.0000e+00
      5.089      0.095     7.2225     73.298     58.121  43.457270     0.4453      7.930   104.4137 1.2356e-01    17.8367      4.993      7.242    12.4062 0.0000e+00
      5.110      0.082     7.4505     73.674     58.126  43.457044     0.4661      7.929   105.0302 1.2361e-01    17.9381      5.012      7.270    12.3981 0.0000e+00
      5.126      0.072     7.6279     73.738     58.094  43.431654     0.5081      7.928   105.6266 1.2361e-01    18.0342      5.029      7.294    12.3917 0.0000e+00
      5.138      0.066     7.7574     73.663     58.057  43.404182     0.5130      7.926   106.2031 1.2364e-01    18.0425      5.040      7.309    12.3864 0.0000e+00
      5.149      0.066     7.8484     73.555     58.024  43.378792     0.4917      7.925   106.8384 1.2376e-01    17.9702      5.048      7.321    12.3820 0.0000e+00
      5.165      0.069     7.8822     73.415     58.029  43.378556     0.4762      7.923   107.4578 1.2379e-01    17.8779      5.062      7.342    12.3784 0.0000e+00
      5.186      0.076     7.8825     73.176     58.067  43.401326     0.4667      7.921   108.0996 1.2368e-01    17.8146      5.085      7.376    12.3765 0.0000e+00
      5.210      0.086     7.8697     72.821     58.071  43.400191     0.4685      7.921   108.7480 1.2363e-01    17.8200      5.110      7.412    12.3782 0.0000e+00
      5.231      0.096     7.8582     72.428     58.027  43.364823     0.4649      7.921   109.2744 1.2358e-01    17.8399      5.131      7.441    12.3788 0.0000e+00
      5.251      0.104     7.8482     72.061     58.016  43.354549     0.4642      7.920   109.7317 1.2348e-01    17.8507      5.146      7.464    12.3737 0.0000e+00
      5.279      0.109     7.8249     71.700     58.082  43.402918     0.4847      7.918   110.1472 1.2348e-01    17.9164      5.173      7.501    12.3684 0.0000e+00
      5.315      0.112     7.7835     71.354     58.135  43.441835     0.5042      7.918   110.6849 1.2353e-01    18.0185      5.214      7.562    12.3655 0.0000e+00
      5.349      0.113     7.7373     71.048     58.140  43.444238     0.5173      7.917   111.5009 1.2357e-01    18.0949      5.249      7.613    12.3633 0.0000e+00
      5.376      0.110     7.7026     70.773     58.125  43.431970     0.5183      7.916   112.4419 1.2357e-01    18.0892      5.270      7.643    12.3614 0.0000e+00
      5.402      0.105     7.6626     70.548     58.110  43.420459     0.4994      7.915   113.2859 1.2356e-01    18.0512      5.297      7.683    12.3598 0.0000e+00
      5.428      0.103     7.6236     70.409     58.125  43.432003     0.4893      7.914   113.8771 1.2360e-01    18.0453      5.326      7.725    12.3591 0.0000e+00
      5.450      0.105     7.5934     70.397     58.138  43.444601     0.5042      7.913   114.2559 1.2365e-01    18.0525      5.345      7.752    12.3591 0.0000e+00
      5.472      0.109     7.5623     70.527     58.136  43.445840     0.5122      7.912   114.6821 1.2365e-01    18.1377      5.363      7.779    12.3583 0.0000e+00
      5.500      0.112     7.5374     70.732     58.138  43.446985     0.4867      7.911   115.0726 1.2356e-01    18.2226      5.390      7.817    12.3571 0.0000e+00
      5.535      0.112     7.5210     70.932     58.160  43.458431     0.4539      7.910   115.1912 1.2354e-01    18.1902      5.428      7.872    12.3566 0.0000e+00
      5.570      0.110     7.5174     71.122     58.166  43.457278     0.4402      7.908   115.3412 1.2358e-01    18.1559      5.467      7.929    12.3598 0.0000e+00
      5.599      0.105     7.5335     71.317     58.140  43.433043     0.4460      7.907   115.7691 1.2360e-01    18.1160      5.493      7.967    12.3649 0.0000e+00
      5.624      0.096     7.5607     71.494     58.127  43.419299     0.4651      7.905   116.3211 1.2360e-01    18.0146      5.515      7.999    12.3640 0.0000e+00
      5.645      0.089     7.5813     71.611     58.129  43.418048     0.4714      7.903   116.7670 1.2358e-01    17.9216      5.538      8.032    12.3588 0.0000e+00
      5.664      0.084     7.6021     71.650     58.132  43.417914     0.4557      7.902   117.2021 1.2358e-01    17.8449      5.556      8.058    12.3530 0.0000e+00
      5.680      0.080     7.6245     71.635     58.134  43.417675     0.4419      7.900   117.7962 1.2363e-01    17.7705      5.569      8.077    12.3484 0.0000e+00
      5.700      0.078     7.6459     71.587     58.133  43.415155     0.4303      7.899   118.3568 1.2366e-01    17.8074      5.587      8.103    12.3460 0.0000e+00
      5.726      0.078     7.6600     71.507     58.096  43.387448     0.4234      7.898   118.6459 1.2367e-01    17.9842      5.615      8.144    12.3437 0.0000e+00
      5.749      0.080     7.6626     71.398     58.029  43.336563     0.4164      7.897   118.6250 1.2371e-01    18.0632      5.644      8.185    12.3415 0.0000e+00
      5.764      0.084     7.6608     71.276     57.994  43.307711     0.3949      7.896   118.6204 1.2367e-01    18.0110      5.654      8.200    12.3394 0.0000e+00
      5.779      0.084     7.6556     71.146     57.979  43.292498     0.3972      7.895   118.8485 1.2363e-01    18.2062      5.661      8.210    12.3380 0.0000e+00
      5.802      0.081     7.6479     71.025     57.964  43.279574     0.4359      7.893   119.2321 1.2368e-01    18.6819      5.688      8.251    12.3383 0.0000e+00
      5.832      0.076     7.6344     70.911     57.964  43.278389     0.4715      7.890   119.5591 1.2371e-01    18.9807      5.720      8.298    12.3378 0.0000e+00
      5.857      0.070     7.6227     70.789     57.963  43.278177     0.4860      7.888   119.6183 1.2367e-01    19.0515      5.747      8.335    12.3354 0.0000e+00
      5.874      0.062     7.6081     70.679     57.960  43.277014     0.5701      7.885   119.6899 1.2364e-01    19.6403      5.764      8.360    12.3322 0.0000e+00
      5.884      0.053     7.5952     70.595     57.942  43.264328     0.7392      7.884   119.9942 1.2361e-01    20.8390      5.771      8.371    12.3298 0.0000e+00
      5.890      0.047     7.5855     70.519     57.924  43.251737     0.8662      7.884   120.3732 1.2361e-01    21.9648      5.776      8.378    12.3286 0.0000e+00
      5.897      0.044     7.5701     70.400     57.924  43.251731     1.2321      7.883   120.6581 1.2364e-01    26.9328      5.782      8.386    12.3297 0.0000e+00
      5.909      0.044     7.5577     70.242     57.937  43.264251     5.0385      7.881   120.9441 1.2369e-01    80.4970      5.793      8.401    12.3311 0.0000e+00
      5.925      0.044     7.5489     70.069     57.947  43.276167    11.9979      7.879   121.4206 1.2369e-01   178.7001      5.811      8.428    12.3311 0.0000e+00
      5.941      0.041     7.5439     69.824     57.932  43.268871    15.7964      7.878   121.8602 1.2366e-01   232.7951      5.829      8.454    12.3319 0.0000e+00
      5.952      0.035     7.5312     69.494     57.976  43.302978    16.1587      7.875   122.1301 1.2363e-01   243.8553      5.839      8.469    12.3316 0.0000e+00
      5.959      0.028     7.5103     69.156     58.155  43.434650    16.2369      7.871   122.3597 1.2353e-01   311.8816      5.845      8.478    12.3329 0.0000e+00
      5.963      0.019     7.4961     68.846     58.285  43.527915    16.2842      7.869   122.6574 1.2350e-01   435.6781      5.849      8.483    12.3381 0.0000e+00
      5.966      0.012     7.4704     68.563     58.224  43.478500    16.2897      7.868   123.0631 1.2361e-01   503.1401      5.850      8.485    12.3420 0.0000e+00
      5.967      0.008     7.4291     68.329     58.128  43.408460    16.2614      7.867   123.5647 1.2367e-01   509.1711      5.852      8.487    12.3434 0.0000e+00
      5.968      0.005     7.3930     68.155     58.078  43.379303    16.0254      7.865   123.9903 1.2363e-01   508.5645      5.853      8.489    12.3419 0.0000e+00
      5.969      0.003     7.3614     68.043     58.063  43.379877    13.4704      7.863   124.1647 1.2363e-01   495.7027      5.854      8.490    12.3369 0.0000e+00
      5.969      0.003     7.3304     68.018     58.092  43.415410     8.7812      7.861   124.3833 1.2362e-01   472.0230      5.854      8.490    12.3325 0.0000e+00
      5.970      0.002     7.3043     68.073     58.089  43.428102     6.2122      7.858   124.8259 1.2361e-01   459.0134      5.855      8.491    12.3337 0.0000e+00
      5.970      0.002     7.2861     68.206     58.040  43.406396     5.9312      7.857   125.3005 1.2365e-01   456.6648      5.855      8.491    12.3413 0.0000e+00
      5.971      0.002     7.2692     68.439     58.025  43.406886     5.4670      7.856   125.6473 1.2363e-01   443.7285      5.856      8.493    12.3522 0.0000e+00
      5.971      0.002     7.2659     68.741     58.052  43.434036     4.6695      7.854   125.9227 1.2358e-01   420.3160      5.856      8.493    12.3641 0.0000e+00
      5.971      0.002     7.2711     69.102     58.107  43.480767     4.2364      7.853   126.2209 1.2358e-01   407.3390      5.856      8.494    12.3776 0.0000e+00
      5.972      0.002     7.2787     69.523     58.161  43.527580     4.1422      7.852   126.4989 1.2360e-01   402.3859      5.857      8.495    12.3923 0.0000e+00
      5.972      0.002     7.3057     69.938     58.186  43.555723     3.4809      7.849   126.7032 1.2365e-01   359.9502      5.857      8.495    12.4029 0.0000e+00
      5.973      0.002     7.3377     70.300     58.187  43.567148     2.2661      7.846   126.7983 1.2366e-01   282.3715      5.858      8.496    12.4075 0.0000e+00
      5.973      0.002     7.3725     70.585     58.134  43.538788     1.6061      7.844   126.9603 1.2366e-01   239.9105      5.858      8.496    12.4103 0.0000e+00
      5.974      0.001     7.4231     70.836     58.106  43.530213     1.5352      7.842   127.3714 1.2367e-01   233.6510      5.859      8.497    12.4160 0.0000e+00
      5.974      0.001     7.4644     71.029     58.170  43.590433     1.2596      7.840   127.8970 1.2368e-01   205.9376      5.859      8.497    12.4248 0.0000e+00
      5.974      0.001     7.5058     71.090     58.219  43.632163     1.0035      7.839   128.1540 1.2366e-01   180.8036      5.859      8.498    12.4338 0.0000e+00
      5.974 -9.990e-29     7.5300 -9.990e-29 -9.990e-29 -9.990e-29 -9.990e-29 -9.990e-29 -9.990e-29 1.2362e-01 -9.990e-29      5.859      8.498    12.4435 0.0000e+00
      5.975 -9.990e-29     7.5545 -9.990e-29 -9.990e-29 -9.990e-29 -9.990e-29 -9.990e-29 -9.990e-29 1.2361e-01 -9.990e-29      5.859      8.498    12.4541 0.0000e+00
      5.975 -9.990e-29     7.5819 -9.990e-29 -9.990e-29 -9.990e-29 -9.990e-29 -9.990e-29 -9.990e-29 1.2364e-01 -9.990e-29      5.859      8.498    12.4665 0.0000e+00
      5.975 -9.990e-29     7.5791 -9.990e-29 -9.990e-29 -9.990e-29 -9.990e-29 -9.990e-29 -9.990e-29 1.2366e-01 -9.990e-29      5.860      8.500    12.4738 0.0000e+00
