* Sea-Bird SBE19plus  Data File:
* FileName = C:\DATA\080618_fcr50_0005.hex
* Software version 2.6.3.104 SB_Terminal.dll
* Temperature SN = 7809
* Conductivity SN = 7809
* System UpLoad Time = Aug 06 2018 16:28:37
* <ApplicationData>
* <Seaterm232>
* <SoftwareVersion>2.6.3.104</SoftwareVersion>
* <BuildDate>30-Jun-2017</BuildDate>
* </Seaterm232>
* </ApplicationData>
* cast   5 06 Aug 2018 15:09:29 samples 2643 to 3337, avg = 1, stop = mag switch
# nquan = 15
# nvalues = 599                         
# units = specified
# name 0 = depFM: Depth [fresh water, m]
# name 1 = dz/dtM: Descent Rate [m/s]
# name 2 = sbeox0Mg/L: Oxygen, SBE 43 [mg/l]
# name 3 = sbeox0PS: Oxygen, SBE 43 [% saturation]
# name 4 = specc: Specific Conductance [uS/cm]
# name 5 = c0uS/cm: Conductivity [uS/cm]
# name 6 = flECO-AFL: Fluorescence, WET Labs ECO-AFL/FL [mg/m^3]
# name 7 = ph: pH
# name 8 = orp: Oxidation Reduction Potential [mV]
# name 9 = par/sat/log: PAR/Logarithmic, Satlantic
# name 10 = turbWETntu0: Turbidity, WET Labs ECO [NTU]
# name 11 = prdM: Pressure, Strain Gauge [db]
# name 12 = prdE: Pressure, Strain Gauge [psi]
# name 13 = tv290C: Temperature [ITS-90, deg C]
# name 14 = flag:  0.000e+00
# span 0 =     -0.506,      7.314       
# span 1 =     -0.096,      0.211       
# span 2 =     0.1428,     8.7947       
# span 3 =      1.388,    107.674       
# span 4 =      2.075,     54.045       
# span 5 =   2.152655,  42.883078       
# span 6 =    -0.1745,     3.0034       
# span 7 =      5.899,      7.890       
# span 8 =   181.5862,   289.1296       
# span 9 = 2.0950e-01, 2.0796e+03       
# span 10 =    -0.2724,    17.8081      
# span 11 =     -0.498,      7.174      
# span 12 =     -0.723,     10.405      
# span 13 =    11.7304,    27.2955      
# span 14 = 0.0000e+00, 0.0000e+00      
# interval = seconds: 0.25
# start_time = Aug 06 2018 15:09:29 [Instrument's time stamp, header]
# bad_flag = -9.990e-29
# <Sensors count="9" >
#   <sensor Channel="1" >
#     <!-- Count, Temperature -->
#     <TemperatureSensor SensorID="58" >
#       <SerialNumber>7809</SerialNumber>
#       <CalibrationDate>09-Mar-18</CalibrationDate>
#       <A0>1.21093245e-003</A0>
#       <A1>2.84356597e-004</A1>
#       <A2>-1.94507398e-006</A2>
#       <A3>2.12806664e-007</A3>
#       <Slope>1.00000000</Slope>
#       <Offset>0.0000</Offset>
#     </TemperatureSensor>
#   </sensor>
#   <sensor Channel="2" >
#     <!-- Frequency 0, Conductivity -->
#     <ConductivitySensor SensorID="3" >
#       <SerialNumber>7809</SerialNumber>
#       <CalibrationDate>09-Mar-18</CalibrationDate>
#       <UseG_J>1</UseG_J>
#       <!-- Cell const and series R are applicable only for wide range sensors. -->
#       <SeriesR>0.0000</SeriesR>
#       <CellConst>2000.0000</CellConst>
#       <ConductivityType>0</ConductivityType>
#       <Coefficients equation="0" >
#         <A>0.00000000e+000</A>
#         <B>0.00000000e+000</B>
#         <C>0.00000000e+000</C>
#         <D>0.00000000e+000</D>
#         <M>0.0</M>
#         <CPcor>-9.57000000e-008</CPcor>
#       </Coefficients>
#       <Coefficients equation="1" >
#         <G>-1.00672082e+000</G>
#         <H>1.26906489e-001</H>
#         <I>-1.40584351e-004</I>
#         <J>2.47837121e-005</J>
#         <CPcor>-9.57000000e-008</CPcor>
#         <CTcor>3.2500e-006</CTcor>
#         <!-- WBOTC not applicable unless ConductivityType = 1. -->
#         <WBOTC>0.00000000e+000</WBOTC>
#       </Coefficients>
#       <Slope>1.00000000</Slope>
#       <Offset>0.00000</Offset>
#     </ConductivitySensor>
#   </sensor>
#   <sensor Channel="3" >
#     <!-- Count, Pressure, Strain Gauge -->
#     <PressureSensor SensorID="46" >
#       <SerialNumber>7809</SerialNumber>
#       <CalibrationDate>07-Mar-18</CalibrationDate>
#       <PA0>-4.08176359e-002</PA0>
#       <PA1>4.85188419e-004</PA1>
#       <PA2>-3.51168169e-012</PA2>
#       <PTEMPA0>-5.37806900e+001</PTEMPA0>
#       <PTEMPA1>5.36620721e+001</PTEMPA1>
#       <PTEMPA2>4.87214332e-002</PTEMPA2>
#       <PTCA0>5.25213435e+005</PTCA0>
#       <PTCA1>1.79532409e+000</PTCA1>
#       <PTCA2>-2.84353509e-001</PTCA2>
#       <PTCB0>2.51668750e+001</PTCB0>
#       <PTCB1>3.75000000e-004</PTCB1>
#       <PTCB2>0.00000000e+000</PTCB2>
#       <Offset>0.000000</Offset>
#     </PressureSensor>
#   </sensor>
#   <sensor Channel="4" >
#     <!-- A/D voltage 0, pH -->
#     <pH_Sensor SensorID="43" >
#       <SerialNumber>0363</SerialNumber>
#       <CalibrationDate>16-Mar-18</CalibrationDate>
#       <Slope>4.6194</Slope>
#       <Offset>2.5947</Offset>
#     </pH_Sensor>
#   </sensor>
#   <sensor Channel="5" >
#     <!-- A/D voltage 1, Oxidation Reduction Potential -->
#     <OxidationReductionPotentialSensor SensorID="41" >
#       <SerialNumber>0363</SerialNumber>
#       <CalibrationDate>16-Mar-18</CalibrationDate>
#       <B>2.499480</B>
#       <M>-0.496195</M>
#       <Offset>0.0</Offset>
#     </OxidationReductionPotentialSensor>
#   </sensor>
#   <sensor Channel="6" >
#     <!-- A/D voltage 2, Oxygen, SBE 43 -->
#     <OxygenSensor SensorID="38" >
#       <SerialNumber>0434</SerialNumber>
#       <CalibrationDate>13-Mar-18</CalibrationDate>
#       <Use2007Equation>1</Use2007Equation>
#       <CalibrationCoefficients equation="0" >
#         <!-- Coefficients for Owens-Millard equation. -->
#         <Boc>0.0000</Boc>
#         <Soc>0.0000e+000</Soc>
#         <offset>0.0000</offset>
#         <Pcor>0.00e+000</Pcor>
#         <Tcor>0.0000</Tcor>
#         <Tau>0.0</Tau>
#       </CalibrationCoefficients>
#       <CalibrationCoefficients equation="1" >
#         <!-- Coefficients for Sea-Bird equation - SBE calibration in 2007 and later. -->
#         <Soc>4.5718e-001</Soc>
#         <offset>-0.6113</offset>
#         <A>-4.0649e-003</A>
#         <B> 2.0945e-004</B>
#         <C>-3.3182e-006</C>
#         <D0> 2.5826e+000</D0>
#         <D1> 1.92634e-004</D1>
#         <D2>-4.64803e-002</D2>
#         <E> 3.6000e-002</E>
#         <Tau20> 1.2200</Tau20>
#         <H1>-3.3000e-002</H1>
#         <H2> 5.0000e+003</H2>
#         <H3> 1.4500e+003</H3>
#       </CalibrationCoefficients>
#     </OxygenSensor>
#   </sensor>
#   <sensor Channel="7" >
#     <!-- A/D voltage 3, PAR/Logarithmic, Satlantic -->
#     <PARLog_SatlanticSensor SensorID="76" >
#       <SerialNumber>1122</SerialNumber>
#       <CalibrationDate>22-Jun-2017</CalibrationDate>
#       <a0>9.6090e-001</a0>
#       <a1>8.0780e-001</a1>
#       <Im>1.3589e+000</Im>
#       <Multiplier>1.0000e+000</Multiplier>
#     </PARLog_SatlanticSensor>
#   </sensor>
#   <sensor Channel="8" >
#     <!-- A/D voltage 4, Fluorometer, WET Labs ECO-AFL/FL -->
#     <FluoroWetlabECO_AFL_FL_Sensor SensorID="20" >
#       <SerialNumber>FLNTURT-2496</SerialNumber>
#       <CalibrationDate>25-Jan-2017</CalibrationDate>
#       <ScaleFactor>5.30000000e+001</ScaleFactor>
#       <!-- Dark output -->
#       <Vblank>0.0560</Vblank>
#     </FluoroWetlabECO_AFL_FL_Sensor>
#   </sensor>
#   <sensor Channel="9" >
#     <!-- A/D voltage 5, Turbidity Meter, WET Labs, ECO-NTU -->
#     <TurbidityMeter SensorID="67" >
#       <SerialNumber>FLNTURT-2496</SerialNumber>
#       <CalibrationDate>25-Jan-2017</CalibrationDate>
#       <ScaleFactor>176.000000</ScaleFactor>
#       <!-- Dark output -->
#       <DarkVoltage>0.072000</DarkVoltage>
#     </TurbidityMeter>
#   </sensor>
# </Sensors>
# datcnv_date = Aug 06 2018 16:30:32, 7.26.7.114 [datcnv_vars = 14]
# datcnv_in = C:\DATA\080618_fcr45.hex C:\DATA\SBE19plusV2_7809.xmlcon
# datcnv_skipover = 0
# datcnv_ox_hysteresis_correction = yes
# datcnv_ox_tau_correction = yes
# filter_date = Aug 06 2018 16:30:50, 7.26.7.114
# filter_in = C:\DATA\080618_fcr45.cnv
# filter_low_pass_tc_A = 0.030
# filter_low_pass_tc_B = 0.150
# filter_low_pass_A_vars = prdM prdE tv290C
# filter_low_pass_B_vars = depFM dz/dtM sbeox0Mg/L sbeox0PS specc c0uS/cm flECO-AFL ph orp par/sat/log turbWETntu0
# alignctd_date = Aug 06 2018 16:31:06, 7.26.7.114
# alignctd_in = C:\DATA\080618_fcr45.cnv
# alignctd_adv = dz/dtM 1.000, sbeox0Mg/L 1.000, sbeox0PS 1.000, specc 1.000, c0uS/cm 1.000, flECO-AFL 1.000, ph 1.000, orp 1.000, turbWETntu0 1.000                                                                                 
# file_type = ascii
*END*
     -0.505 1.0870e-11     7.9440     99.467      2.075   2.152655    -0.1721      5.903   279.2957 1.1682e+02     0.0310     -0.495     -0.718    26.8677 0.0000e+00
     -0.506 1.1957e-10     7.9444     99.472      2.269   2.353765    -0.1745      5.905   278.0811 1.2327e+02     0.0075     -0.496     -0.719    26.8679 0.0000e+00
     -0.506 1.3152e-09     7.9457     99.491      2.792   2.896820    -0.1646      5.910   278.7026 1.2603e+02    -0.0455     -0.496     -0.719    26.8682 0.0000e+00
     -0.505 1.4467e-08     7.9457     99.491      3.147   3.264785    -0.1531      5.910   279.0651 1.1413e+02    -0.1519     -0.496     -0.719    26.8684 0.0000e+00
     -0.505 1.5914e-07     7.9434     99.466      3.134   3.251384    -0.1461      5.904   279.1953 1.0050e+02    -0.2414     -0.496     -0.719    26.8685 0.0000e+00
     -0.506      0.000     7.9415     99.450      2.941   3.051896    -0.1445      5.899   278.7288 9.7111e+01    -0.2724     -0.496     -0.719    26.8691 0.0000e+00
     -0.506      0.000     7.9410     99.457      2.655   2.755329    -0.1517      5.903   275.6606 1.0275e+02    -0.2221     -0.496     -0.720    26.8696 0.0000e+00
     -0.506      0.000     7.9412     99.475      3.343   3.470689    -0.1606      5.913   269.3727 1.1241e+02    -0.1516     -0.495     -0.719    26.8699 0.0000e+00
     -0.506      0.002     7.9406     99.479      5.404   5.612595    -0.1594      5.962   251.5726 1.2882e+02    -0.1526     -0.496     -0.719    26.8702 0.0000e+00
     -0.506      0.016     7.9353     99.479     11.634  12.099734    -0.1554      6.201   218.4095 1.6668e+02    -0.1733     -0.495     -0.718    26.8754 0.0000e+00
     -0.505      0.052     7.9215     99.504     23.184  24.160653    -0.1308      6.685   192.0798 2.1360e+02    -0.1269     -0.496     -0.720    26.8833 0.0000e+00
     -0.504      0.106     7.9075     99.579     32.157  33.576686     0.1287      7.177   183.8550 2.3542e+02     0.4081     -0.494     -0.716    26.8962 0.0000e+00
     -0.498      0.159     7.9057     99.704     34.971  36.563086     0.5934      7.496   183.4076 2.2928e+02     1.3826     -0.498     -0.723    26.8949 0.0000e+00
     -0.453      0.195     7.9220     99.934     35.404  37.023503     0.8462      7.665   184.0035 2.1640e+02     1.8892     -0.475     -0.689    26.8979 0.0000e+00
     -0.351      0.211     7.9562    100.331     35.439  37.047261     0.8882      7.743   184.0048 2.1242e+02     1.9248     -0.346     -0.502    27.0278 0.0000e+00
     -0.243      0.206     7.9970    100.797     35.452  37.040892     1.0651      7.774   184.1972 2.1941e+02     2.2401     -0.211     -0.306    27.2173 0.0000e+00
     -0.185      0.180     8.0352    101.237     35.499  37.073520     1.3861      7.783   184.6952 2.2679e+02     2.8326     -0.168     -0.243    27.2941 0.0000e+00
     -0.168      0.134     8.0674    101.627     35.553  37.124106     1.5614      7.785   184.9501 2.2835e+02     3.1383     -0.164     -0.237    27.2896 0.0000e+00
     -0.161      0.081     8.0887    101.922     35.562  37.144309     1.5764      7.782   184.4399 2.2735e+02     3.1598     -0.158     -0.229    27.2645 0.0000e+00
     -0.154      0.046     8.0989    102.108     35.524  37.127232     1.5665      7.775   183.0861 2.2575e+02     3.1526     -0.150     -0.218    27.2331 0.0000e+00
     -0.148      0.039     8.1035    102.217     35.487  37.108234     1.5435      7.765   181.9179 2.4634e+02     3.1131     -0.144     -0.209    27.2077 0.0000e+00
     -0.143      0.050     8.1070    102.278     35.478  37.105221     1.5285      7.756   181.5862 5.3594e+02     3.0476     -0.140     -0.204    27.1938 0.0000e+00
     -0.136      0.068     8.1140    102.336     35.476  37.090809     1.5221      7.750   181.9151 1.0857e+03     2.9721     -0.137     -0.198    27.2101 0.0000e+00
     -0.119      0.083     8.1294    102.445     35.479  37.061012     1.5209      7.749   182.4521 1.1943e+03     2.9324     -0.123     -0.178    27.2524 0.0000e+00
     -0.088      0.091     8.1497    102.576     35.465  36.999007     1.5603      7.754   183.0891 7.2028e+02     2.9339     -0.090     -0.130    27.2846 0.0000e+00
     -0.050      0.089     8.1651    102.636     35.432  36.912763     1.6500      7.760   183.9383 3.1597e+02     2.9591     -0.047     -0.066    27.2955 0.0000e+00
     -0.016      0.074     8.1509    102.335     35.411  36.843987     1.7134      7.766   184.8046 2.1112e+02     2.9622     -0.012     -0.017    27.2818 0.0000e+00
      0.005      0.051     8.0756    101.285     35.411  36.802618     1.7208      7.774   185.5621 2.2346e+02     2.9420      0.010      0.014    27.2313 0.0000e+00
      0.011      0.025     7.9462     99.575     35.436  36.793663     1.6840      7.781   186.1268 2.4154e+02     2.9590      0.016      0.023    27.1567 0.0000e+00
      0.005      0.002     7.8060     97.755     35.466  36.799193     1.6176      7.786   186.3844 2.4487e+02     2.9835      0.006      0.008    27.0797 0.0000e+00
     -0.007     -0.011     7.6830     96.173     35.488  36.805903     1.5801      7.788   186.6115 2.4161e+02     2.9635     -0.008     -0.011    27.0131 0.0000e+00
     -0.018     -0.015     7.5709     94.746     35.502  36.811253     1.5796      7.788   186.8949 2.3629e+02     2.9314     -0.018     -0.026    26.9546 0.0000e+00
     -0.024     -0.011     7.4569     93.310     35.496  36.800338     1.6115      7.788   187.2294 2.1726e+02     2.9316     -0.027     -0.040    26.9045 0.0000e+00
     -0.023     -0.004     7.3378     91.820     35.496  36.800973     1.6717      7.788   188.8490 1.8739e+02     2.9349     -0.027     -0.038    26.8689 0.0000e+00
     -0.017      0.002     7.2114     90.246     35.510  36.818932     1.7007      7.790   202.5191 1.7526e+02     2.9405     -0.014     -0.021    26.8461 0.0000e+00
     -0.012      0.006     7.0886     88.716     35.515  36.826912     1.6863      7.795   215.5398 1.9105e+02     2.9688     -0.009     -0.014    26.8339 0.0000e+00
     -0.012      0.007     6.9942     87.535     35.522  36.833932     1.6636      7.801   204.8327 2.1870e+02     2.9415     -0.012     -0.017    26.8286 0.0000e+00
     -0.012      0.006     6.9356     86.799     35.530  36.840293     1.6465      7.804   192.0526 2.3465e+02     2.8852     -0.013     -0.018    26.8286 0.0000e+00
     -0.012      0.006     6.9010     86.364     35.530  36.840293     1.6450      7.806   190.4188 2.3726e+02     2.8987     -0.012     -0.017    26.8358 0.0000e+00
     -0.011      0.007     6.8809     86.111     35.524  36.833932     1.6542      7.807   189.8110 2.3006e+02     2.9218     -0.011     -0.015    26.8429 0.0000e+00
     -0.008      0.009     6.8780     86.075     35.518  36.826902     1.6571      7.807   189.2633 2.1116e+02     2.9208     -0.009     -0.012    26.8410 0.0000e+00
     -0.005      0.008     6.8992     86.341     35.510  36.818817     1.6522      7.810   189.0456 2.1093e+02     2.9160     -0.005     -0.006    26.8369 0.0000e+00
     -0.001      0.000     6.9333     86.771     35.490  36.799712     1.6410      7.814   190.3624 2.5651e+02     2.8950     -0.002     -0.002    26.8362 0.0000e+00
      0.003     -0.016     6.9566     87.066     35.476  36.786477     1.6319      7.818   197.8715 3.2051e+02     2.9100      0.003      0.004    26.8367 0.0000e+00
      0.004     -0.040     6.9522     87.018     35.472  36.785852     1.6251      7.820   207.8230 3.5342e+02     2.9456      0.008      0.011    26.8361 0.0000e+00
     -0.004     -0.065     6.9193     86.619     35.472  36.792156     1.6140      7.818   206.5766 3.7232e+02     2.8982      0.001      0.001    26.8354 0.0000e+00
     -0.027     -0.086     6.8744     86.075     35.471  36.799191     1.6178      7.811   197.6006 7.4781e+02     2.7948     -0.021     -0.030    26.8386 0.0000e+00
     -0.063     -0.096     6.8373     85.630     35.471  36.807392     1.6335      7.804   193.3359 1.4856e+03     2.7325     -0.060     -0.086    26.8410 0.0000e+00
     -0.103     -0.091     6.8117     85.327     35.482  36.827812     1.6385      7.799   194.5041 1.9297e+03     2.7249     -0.104     -0.151    26.8432 0.0000e+00
     -0.138     -0.073     6.7902     85.078     35.500  36.855519     1.6232      7.795   198.8199 2.0311e+03     2.7644     -0.141     -0.205    26.8525 0.0000e+00
     -0.156     -0.047     6.7659     84.797     35.521  36.888311     1.5956      7.795   201.7230 2.0572e+03     2.8435     -0.161     -0.233    26.8660 0.0000e+00
     -0.155     -0.018     6.7391     84.486     35.527  36.906690     1.5707      7.800   204.8264 1.9754e+03     2.9186     -0.155     -0.225    26.8771 0.0000e+00
     -0.145      0.007     6.7262     84.346     35.499  36.887179     1.5524      7.806   213.5425 1.9000e+03     2.9706     -0.142     -0.205    26.8889 0.0000e+00
     -0.135      0.022     6.7452     84.597     35.451  36.842988     1.5122      7.811   220.2946 1.9500e+03     2.9831     -0.133     -0.191    26.9025 0.0000e+00
     -0.126      0.028     6.7961     85.242     35.422  36.817068     1.4339      7.816   222.8833 1.9994e+03     2.9478     -0.124     -0.179    26.9171 0.0000e+00
     -0.119      0.027     6.8653     86.111     35.432  36.827889     1.3772      7.821   224.7089 1.9874e+03     2.9105     -0.116     -0.169    26.9361 0.0000e+00
     -0.113      0.023     6.9355     86.988     35.452  36.846774     1.3692      7.822   224.1276 1.9723e+03     2.8977     -0.109     -0.159    26.9507 0.0000e+00
     -0.109      0.018     6.9907     87.675     35.462  36.854831     1.4007      7.820   222.4795 1.9706e+03     2.8551     -0.107     -0.155    26.9589 0.0000e+00
     -0.104      0.011     7.0144     87.966     35.472  36.861775     1.4651      7.819   220.8708 1.9869e+03     2.7912     -0.103     -0.149    26.9640 0.0000e+00
     -0.099      0.003     6.9939     87.704     35.479  36.867200     1.5048      7.821   219.2176 2.0141e+03     2.7670     -0.095     -0.139    26.9636 0.0000e+00
     -0.096     -0.002     6.9283     86.878     35.470  36.856901     1.5033      7.826   216.9460 2.0446e+03     2.7446     -0.091     -0.133    26.9608 0.0000e+00
     -0.101     -0.004     6.8259     85.590     35.479  36.864296     1.4744      7.829   214.5708 2.0671e+03     2.7341     -0.098     -0.142    26.9571 0.0000e+00
     -0.109     -0.003     6.7044     84.063     35.509  36.893082     1.4215      7.830   211.7511 2.0738e+03     2.7617     -0.108     -0.157    26.9524 0.0000e+00
     -0.114      0.002     6.5846     82.558     35.505  36.887317     1.3878      7.829   206.5997 2.0719e+03     2.7739     -0.114     -0.165    26.9496 0.0000e+00
     -0.113      0.013     6.4781     81.221     35.478  36.858120     1.3802      7.826   201.5865 2.0677e+03     2.7596     -0.113     -0.164    26.9476 0.0000e+00
     -0.106      0.032     6.3954     80.182     35.478  36.857694     1.3662      7.821   200.2646 2.0556e+03     2.8025     -0.105     -0.153    26.9448 0.0000e+00
     -0.097      0.055     6.3529     79.646     35.503  36.882156     1.3467      7.817   202.9208 2.0352e+03     2.9255     -0.095     -0.138    26.9425 0.0000e+00
     -0.086      0.075     6.3667     79.815     35.522  36.899781     1.3379      7.819   205.3090 2.0113e+03     2.9959     -0.086     -0.124    26.9406 0.0000e+00
     -0.066      0.084     6.4380     80.711     35.502  36.880221     1.3325      7.825   205.1358 1.9502e+03     2.9827     -0.072     -0.105    26.9393 0.0000e+00
     -0.029      0.083     6.5423     82.029     35.456  36.836234     1.3189      7.832   205.9026 1.5520e+03     2.9494     -0.034     -0.048    26.9385 0.0000e+00
      0.012      0.073     6.6523     83.410     35.431  36.812623     1.3108      7.837   208.3003 1.2128e+03     2.9290      0.022      0.032    26.9365 0.0000e+00
      0.033      0.057     6.7483     84.603     35.410  36.785321     1.3179      7.842   210.5509 1.5781e+03     2.9491      0.040      0.058    26.9302 0.0000e+00
      0.034      0.036     6.8108     85.362     35.396  36.760215     1.3216      7.847   210.3133 1.9695e+03     2.9476      0.033      0.047    26.9315 0.0000e+00
      0.032      0.014     6.8384     85.677     35.413  36.763151     1.3182      7.850   207.7506 2.0129e+03     2.9115      0.032      0.046    26.9436 0.0000e+00
      0.030     -0.001     6.8609     85.931     35.420  36.757271     1.3139      7.851   208.1316 2.0297e+03     2.9096      0.030      0.043    26.9474 0.0000e+00
      0.025     -0.007     6.9088     86.508     35.425  36.752624     1.3074      7.852   210.9616 2.0442e+03     2.9546      0.024      0.035    26.9390 0.0000e+00
      0.022     -0.008     6.9813     87.404     35.448  36.770474     1.3129      7.853   213.6612 2.0424e+03     2.9982      0.020      0.029    26.9218 0.0000e+00
      0.022     -0.009     7.0615     88.402     35.463  36.782511     1.3244      7.854   215.2186 2.0248e+03     2.9795      0.022      0.031    26.9003 0.0000e+00
      0.023     -0.009     7.1379     89.353     35.454  36.771109     1.3556      7.855   214.5636 2.0039e+03     2.9418      0.024      0.035    26.8801 0.0000e+00
      0.021     -0.008     7.2007     90.134     35.445  36.759669     1.4145      7.856   212.5383 1.9940e+03     2.9384      0.023      0.032    26.8648 0.0000e+00
      0.016     -0.005     7.2410     90.633     35.458  36.771229     1.4485      7.856   209.4874 1.9978e+03     2.9387      0.017      0.024    26.8571 0.0000e+00
      0.010     -0.002     7.2497     90.737     35.472  36.783825     1.4531      7.857   209.4236 2.0054e+03     2.9459      0.008      0.011    26.8541 0.0000e+00
      0.009      0.002     7.2166     90.317     35.476  36.784918     1.4340      7.858   211.9381 2.0134e+03     2.9643      0.006      0.008    26.8517 0.0000e+00
      0.014      0.007     7.1433     89.393     35.478  36.784440     1.3912      7.858   212.7890 2.0279e+03     2.9468      0.014      0.021    26.8479 0.0000e+00
      0.020      0.011     7.0453     88.161     35.474  36.778035     1.3677      7.858   213.4300 2.0459e+03     2.9181      0.020      0.029    26.8449 0.0000e+00
      0.024      0.012     6.9439     86.887     35.469  36.771001     1.3707      7.859   215.4733 2.0556e+03     2.9218      0.024      0.035    26.8427 0.0000e+00
      0.026      0.012     6.8579     85.807     35.463  36.762916     1.3822      7.862   217.8772 2.0515e+03     2.9311      0.027      0.039    26.8388 0.0000e+00
      0.028      0.010     6.7955     85.021     35.448  36.743808     1.3871      7.864   219.2646 2.0237e+03     2.9395      0.027      0.040    26.8348 0.0000e+00
      0.031      0.007     6.7535     84.487     35.438  36.730532     1.3840      7.866   219.7717 1.9347e+03     2.9308      0.029      0.042    26.8317 0.0000e+00
      0.034      0.004     6.7267     84.146     35.440  36.729438     1.3815      7.866   219.9654 1.7289e+03     2.9179      0.033      0.048    26.8287 0.0000e+00
      0.035      0.002     6.7158     84.006     35.443  36.730578     1.3839      7.867   219.9723 1.3822e+03     2.9361      0.035      0.051    26.8261 0.0000e+00
      0.035      0.001     6.7257     84.126     35.458  36.744314     1.4224      7.868   219.6827 9.4628e+02     2.8768      0.035      0.051    26.8216 0.0000e+00
      0.033      0.000     6.7595     84.545     35.483  36.768468     1.4791      7.868   217.4102 5.8168e+02     2.7499      0.033      0.047    26.8165 0.0000e+00
      0.032      0.000     6.8099     85.173     35.484  36.768520     1.5003      7.869   214.2637 5.2388e+02     2.7134      0.031      0.044    26.8128 0.0000e+00
      0.032      0.001     6.8618     85.821     35.462  36.744943     1.5137      7.871   213.9885 9.0644e+02     2.7416      0.031      0.045    26.8095 0.0000e+00
      0.032      0.002     6.9039     86.347     35.455  36.737499     1.5578      7.872   215.0298 1.5103e+03     2.8161      0.031      0.045    26.8069 0.0000e+00
      0.033      0.003     6.9289     86.659     35.459  36.742034     1.6106      7.872   215.2383 1.9254e+03     2.9118      0.033      0.047    26.8049 0.0000e+00
      0.036      0.002     6.9287     86.658     35.453  36.736254     1.6380      7.871   214.8751 2.0529e+03     2.9227      0.036      0.052    26.8032 0.0000e+00
      0.038      0.001     6.8988     86.285     35.448  36.731142     1.6501      7.868   213.8218 2.0624e+03     2.8861      0.037      0.054    26.8022 0.0000e+00
      0.038     -0.002     6.8431     85.589     35.460  36.743751     1.7019      7.864   212.5694 2.0524e+03     2.8350      0.037      0.054    26.8019 0.0000e+00
      0.037     -0.004     6.7711     84.690     35.476  36.761654     1.7859      7.863   211.8637 2.0422e+03     2.7634      0.037      0.053    26.8021 0.0000e+00
      0.034     -0.004     6.6920     83.702     35.471  36.757029     1.8289      7.863   211.9143 2.0398e+03     2.7229      0.033      0.048    26.8026 0.0000e+00
      0.031     -0.003     6.6170     82.764     35.465  36.751359     1.8367      7.862   212.1490 2.0455e+03     2.7114      0.029      0.043    26.8035 0.0000e+00
      0.030     -0.002     6.5540     81.977     35.470  36.756624     1.8710      7.862   212.6362 2.0559e+03     2.8069      0.028      0.041    26.8046 0.0000e+00
      0.031      0.000     6.4965     81.260     35.470  36.757164     1.9315      7.863   213.3309 2.0661e+03     3.0236      0.029      0.043    26.8055 0.0000e+00
      0.032      0.001     6.4378     80.528     35.470  36.757884     1.9607      7.865   213.5801 2.0750e+03     3.1342      0.032      0.047    26.8060 0.0000e+00
      0.034      0.002     6.3754     79.748     35.476  36.765343     1.9581      7.868   213.5840 2.0796e+03     3.1065      0.034      0.049    26.8066 0.0000e+00
      0.034      0.002     6.3076     78.901     35.494  36.783823     1.9729      7.870   213.7230 2.0778e+03     3.0549      0.033      0.048    26.8073 0.0000e+00
      0.033      0.002     6.2368     78.016     35.500  36.790753     2.0022      7.871   213.9690 2.0721e+03     2.9979      0.032      0.047    26.8083 0.0000e+00
      0.033      0.001     6.1639     77.105     35.495  36.785604     2.0182      7.871   214.2355 2.0634e+03     2.9669      0.032      0.046    26.8093 0.0000e+00
      0.033      0.001     6.0892     76.172     35.494  36.785084     2.0199      7.871   214.3648 2.0556e+03     2.9556      0.033      0.047    26.8102 0.0000e+00
      0.034      0.001     6.0158     75.254     35.493  36.784469     2.0224      7.871   214.3272 2.0497e+03     2.9519      0.034      0.049    26.8108 0.0000e+00
      0.035      0.000     5.9462     74.383     35.487  36.778164     2.0300      7.872   214.2117 2.0479e+03     2.9528      0.035      0.051    26.8113 0.0000e+00
      0.035      0.000     5.8817     73.578     35.481  36.772379     2.0379      7.873   214.2579 2.0516e+03     2.9354      0.035      0.050    26.8118 0.0000e+00
      0.035      0.000     5.8241     72.858     35.486  36.778055     2.0452      7.874   215.3169 2.0538e+03     2.9256      0.034      0.049    26.8122 0.0000e+00
      0.034     -0.001     5.7736     72.226     35.490  36.783261     2.0450      7.874   217.3790 2.0531e+03     2.9256      0.033      0.048    26.8128 0.0000e+00
      0.034     -0.001     5.7287     71.665     35.479  36.771808     2.0349      7.875   219.0571 2.0467e+03     2.8741      0.032      0.047    26.8132 0.0000e+00
      0.034      0.000     5.6876     71.151     35.474  36.766619     2.0229      7.877   219.8622 2.0192e+03     2.7603      0.033      0.048    26.8135 0.0000e+00
      0.034 -1.509e-08     5.6507     70.690     35.491  36.784054     2.0208      7.878   220.3167 1.9585e+03     2.7096      0.034      0.049    26.8142 0.0000e+00
      0.034 -1.659e-07     5.6211     70.320     35.499  36.792034     2.0179      7.878   220.5937 1.8619e+03     2.7499      0.034      0.049    26.8148 0.0000e+00
      0.034 2.0660e-07     5.5992     70.047     35.506  36.799588     1.9056      7.878   220.7165 1.7363e+03     2.8195      0.034      0.049    26.8151 0.0000e+00
      0.034      0.000     5.5820     69.832     35.517  36.811868     1.6919      7.879   220.8555 1.5902e+03     2.9412      0.033      0.048    26.8154 0.0000e+00
      0.033      0.000     5.5656     69.628     35.518  36.813449     1.5757      7.879   220.8978 1.4173e+03     3.0316      0.032      0.047    26.8157 0.0000e+00
      0.033      0.001     5.5500     69.433     35.523  36.818705     1.5670      7.879   220.5395 1.2118e+03     3.0276      0.032      0.047    26.8159 0.0000e+00
      0.034      0.001     5.5364     69.262     35.516  36.811899     1.5493      7.878   220.4804 9.9177e+02     2.9837      0.034      0.050    26.8162 0.0000e+00
      0.035      0.001     5.5239     69.107     35.499  36.794685     1.5178      7.877   221.3883 7.8622e+02     2.9287      0.035      0.051    26.8168 0.0000e+00
      0.035      0.001     5.5110     68.947     35.505  36.801142     1.5083      7.878   222.5684 6.1241e+02     2.9114      0.035      0.050    26.8173 0.0000e+00
      0.035      0.001     5.4996     68.805     35.529  36.826446     1.5167      7.878   223.3928 4.8537e+02     2.9577      0.034      0.050    26.8178 0.0000e+00
      0.034      0.000     5.4914     68.703     35.548  36.846534     1.5280      7.878   223.6116 4.0607e+02     2.9999      0.033      0.048    26.8183 0.0000e+00
      0.034      0.000     5.4872     68.650     35.554  36.853459     1.5255      7.880   223.8374 3.5907e+02     2.9950      0.033      0.048    26.8187 0.0000e+00
      0.035      0.000     5.4878     68.658     35.547  36.846643     1.5048      7.883   224.2295 3.3618e+02     2.9594      0.034      0.050    26.8193 0.0000e+00
      0.035      0.001     5.4915     68.706     35.529  36.827644     1.4984      7.884   223.7921 3.3003e+02     2.9350      0.035      0.051    26.8201 0.0000e+00
      0.035      0.001     5.4971     68.776     35.516  36.814324     1.5025      7.885   223.1092 3.3046e+02     2.9447      0.034      0.050    26.8205 0.0000e+00
      0.035      0.001     5.5041     68.864     35.514  36.812639     1.4717      7.887   223.1141 3.3345e+02     2.9543      0.033      0.048    26.8206 0.0000e+00
      0.035      0.001     5.5091     68.928     35.508  36.807271     1.4108      7.889   222.9907 3.4100e+02     2.9298      0.034      0.049    26.8208 0.0000e+00
      0.036      0.001     5.5095     68.934     35.513  36.812941     1.3831      7.889   222.3063 3.5726e+02     2.9222      0.035      0.051    26.8212 0.0000e+00
      0.036      0.001     5.5047     68.874     35.517  36.817673     1.3937      7.889   222.4970 3.8212e+02     2.9544      0.036      0.052    26.8216 0.0000e+00
      0.036      0.001     5.4943     68.744     35.501  36.800971     1.4283      7.889   222.4572 4.1287e+02     3.0136      0.035      0.051    26.8220 0.0000e+00
      0.036      0.001     5.4799     68.564     35.501  36.801577     1.4802      7.889   219.8456 4.4691e+02     3.0882      0.035      0.051    26.8229 0.0000e+00
      0.037      0.002     5.4640     68.366     35.523  36.824997     1.5072      7.888   217.6783 4.8201e+02     3.1239      0.036      0.052    26.8235 0.0000e+00
      0.038      0.003     5.4456     68.137     35.528  36.830033     1.5064      7.887   217.5044 5.1415e+02     3.1400      0.037      0.053    26.8239 0.0000e+00
      0.038      0.006     5.4253     67.882     35.498  36.798943     1.5344      7.888   216.7108 5.3017e+02     3.0995      0.037      0.054    26.8246 0.0000e+00
      0.039      0.010     5.4048     67.627     35.467  36.766720     1.6065      7.889   215.7401 5.2870e+02     3.0005      0.038      0.055    26.8250 0.0000e+00
      0.040      0.016     5.3819     67.341     35.458  36.758059     1.6523      7.890   215.4903 5.2130e+02     2.9505      0.039      0.057    26.8257 0.0000e+00
      0.044      0.022     5.3554     67.008     35.458  36.757735     1.6470      7.890   215.1527 5.1095e+02     2.9531      0.041      0.061    26.8262 0.0000e+00
      0.050      0.029     5.3264     66.646     35.463  36.762807     1.6428      7.890   215.1860 4.9923e+02     2.9707      0.048      0.069    26.8265 0.0000e+00
      0.060      0.037     5.2959     66.262     35.457  36.755861     1.6668      7.889   215.1187 4.5649e+02     2.9797      0.058      0.083    26.8270 0.0000e+00
      0.071      0.044     5.2660     65.887     35.440  36.737266     1.6886      7.885   213.1351 3.8004e+02     2.9399      0.071      0.101    26.8269 0.0000e+00
      0.084      0.051     5.2412     65.575     35.433  36.728561     1.6956      7.879   210.3025 3.3022e+02     2.8867      0.082      0.119    26.8266 0.0000e+00
      0.097      0.058     5.2243     65.360     35.421  36.714129     1.7139      7.872   208.9183 3.3901e+02     2.9470      0.095      0.138    26.8264 0.0000e+00
      0.112      0.067     5.2163     65.252     35.401  36.689804     1.7446      7.864   208.4448 3.6883e+02     3.0896      0.110      0.160    26.8257 0.0000e+00
      0.128      0.077     5.2233     65.328     35.407  36.688539     1.7634      7.859   207.6750 4.8589e+02     3.1457      0.124      0.180    26.8244 0.0000e+00
      0.146      0.086     5.2469     65.608     35.425  36.698831     1.7759      7.857   206.4942 6.7950e+02     3.1372      0.141      0.206    26.8233 0.0000e+00
      0.171      0.094     5.2801     66.008     35.423  36.687176     1.7945      7.857   204.9226 6.4644e+02     3.1393      0.165      0.241    26.8212 0.0000e+00
      0.201      0.099     5.3185     66.475     35.419  36.674657     1.8699      7.857   203.9006 4.3331e+02     3.1400      0.197      0.287    26.8147 0.0000e+00
      0.231      0.101     5.3582     66.961     35.424  36.674501     2.0064      7.856   203.7750 3.5409e+02     3.1460      0.228      0.331    26.8033 0.0000e+00
      0.258      0.098     5.4009     67.488     35.439  36.685279     2.0851      7.855   203.8342 3.5962e+02     3.1510      0.254      0.369    26.7903 0.0000e+00
      0.283      0.093     5.4557     68.169     35.435  36.677921     2.1044      7.853   203.9282 3.1361e+02     3.1697      0.279      0.404    26.7770 0.0000e+00
      0.304      0.088     5.5291     69.080     35.410  36.649046     2.1565      7.852   204.1363 2.6918e+02     3.1887      0.299      0.435    26.7652 0.0000e+00
      0.324      0.084     5.6203     70.210     35.420  36.653780     2.2379      7.852   204.4578 2.5788e+02     3.1680      0.318      0.462    26.7575 0.0000e+00
      0.342      0.082     5.7253     71.511     35.442  36.671625     2.2896      7.855   205.0629 2.4900e+02     3.1327      0.335      0.486    26.7523 0.0000e+00
      0.363      0.079     5.8363     72.893     35.447  36.674229     2.3030      7.859   205.7734 2.4401e+02     3.0977      0.354      0.514    26.7490 0.0000e+00
      0.387      0.077     5.9398     74.185     35.458  36.685256     2.2984      7.862   206.1651 2.4348e+02     3.0797      0.380      0.550    26.7450 0.0000e+00
      0.409      0.075     6.0227     75.219     35.452  36.677906     2.2898      7.864   206.5297 2.4214e+02     3.0986      0.403      0.583    26.7357 0.0000e+00
      0.427      0.073     6.0776     75.899     35.426  36.648877     2.2907      7.865   207.0843 2.3718e+02     3.1433      0.420      0.609    26.7263 0.0000e+00
      0.442      0.070     6.1046     76.230     35.432  36.651883     2.2917      7.866   207.5373 2.3257e+02     3.1931      0.434      0.628    26.7239 0.0000e+00
      0.457      0.067     6.1094     76.282     35.435  36.650723     2.2732      7.866   207.7041 2.3021e+02     3.2118      0.448      0.649    26.7245 0.0000e+00
      0.474      0.065     6.0974     76.127     35.422  36.634842     2.2422      7.866   207.7239 2.2892e+02     3.1868      0.465      0.674    26.7239 0.0000e+00
      0.493      0.065     6.0716     75.802     35.438  36.650437     2.2295      7.867   207.8620 2.2863e+02     3.1339      0.484      0.702    26.7204 0.0000e+00
      0.511      0.064     6.0350     75.345     35.437  36.648718     2.2399      7.869   208.1703 2.3358e+02     3.1222      0.502      0.728    26.7143 0.0000e+00
      0.527      0.061     5.9929     74.817     35.404  36.614056     2.3124      7.870   208.6118 2.4103e+02     3.1372      0.518      0.750    26.7087 0.0000e+00
      0.541      0.057     5.9484     74.260     35.404  36.612478     2.4342      7.871   208.8980 2.4130e+02     3.1013      0.531      0.769    26.7047 0.0000e+00
      0.555      0.055     5.9016     73.676     35.420  36.629640     2.4905      7.872   208.8776 2.4105e+02     3.0858      0.545      0.790    26.7033 0.0000e+00
      0.569      0.054     5.8518     73.054     35.421  36.630978     2.4881      7.869   209.1398 2.4400e+02     3.1025      0.558      0.810    26.7023 0.0000e+00
      0.581      0.056     5.8022     72.433     35.421  36.628653     2.4970      7.863   209.8308 2.5268e+02     3.0586      0.569      0.827    26.7011 0.0000e+00
      0.593      0.061     5.7601     71.904     35.397  36.601533     2.5158      7.853   210.5220 2.7005e+02     2.9824      0.581      0.843    26.7005 0.0000e+00
      0.607      0.067     5.7309     71.531     35.297  36.493646     2.5305      7.842   211.0436 2.7710e+02     2.9444      0.595      0.862    26.7009 0.0000e+00
      0.625      0.073     5.7291     71.458     35.113  36.277048     2.5465      7.834   211.3201 2.6631e+02     2.9343      0.611      0.886    26.7005 0.0000e+00
      0.646      0.077     5.8171     72.397     35.001  36.078910     2.5538      7.829   211.4553 2.5603e+02     2.9521      0.633      0.918    26.6992 0.0000e+00
      0.671      0.079     6.1026     75.690     35.054  36.003549     2.5358      7.825   211.7327 2.4626e+02     3.0374      0.659      0.956    26.6963 0.0000e+00
      0.695      0.079     6.5966     81.562     35.108  35.937364     2.5037      7.821   212.1786 2.2869e+02     3.1416      0.683      0.991    26.6954 0.0000e+00
      0.715      0.078     7.1686     88.429     35.050  35.786668     2.4780      7.816   212.7167 2.1763e+02     3.1746      0.702      1.018    26.6861 0.0000e+00
      0.731      0.075     7.6990     94.782     34.985  35.642363     2.4720      7.809   213.3346 2.1198e+02     3.1609      0.717      1.039    26.5653 0.0000e+00
      0.747      0.074     8.1356     99.973     35.004  35.589946     2.5136      7.799   213.8848 2.0005e+02     3.1597      0.732      1.062    26.3353 0.0000e+00
      0.765      0.076     8.4642    103.858     35.068  35.597435     2.5863      7.788   214.2932 1.9232e+02     3.1598      0.751      1.088    26.1536 0.0000e+00
      0.785      0.080     8.6853    106.455     35.118  35.605790     2.6160      7.778   214.6592 1.9255e+02     3.1309      0.770      1.116    26.0430 0.0000e+00
      0.805      0.084     8.7922    107.674     35.109  35.563852     2.6064      7.771   214.9537 1.9677e+02     3.0854      0.788      1.142    25.9325 0.0000e+00
      0.829      0.086     8.7947    107.620     35.048  35.471448     2.6174      7.766   215.1006 2.1361e+02     3.0382      0.811      1.176    25.8205 0.0000e+00
      0.854      0.086     8.7314    106.743     34.992  35.377798     2.6567      7.762   215.3171 2.5547e+02     2.9870      0.839      1.218    25.7423 0.0000e+00
      0.878      0.086     8.6436    105.566     34.973  35.320767     2.6771      7.757   215.6788 3.1728e+02     2.9537      0.862      1.250    25.6827 0.0000e+00
      0.898      0.085     8.5591    104.455     34.971  35.289999     2.6807      7.752   215.9467 3.5188e+02     2.9413      0.881      1.279    25.6383 0.0000e+00
      0.917      0.083     8.4953    103.618     34.962  35.259819     2.7461      7.748   216.1468 3.3621e+02     2.9900      0.899      1.303    25.6040 0.0000e+00
      0.937      0.082     8.4530    103.040     34.935  35.209918     2.8621      7.746   216.3772 3.0521e+02     3.0840      0.917      1.330    25.5460 0.0000e+00
      0.959      0.082     8.4203    102.568     34.884  35.131260     2.9246      7.744   216.5807 2.8571e+02     3.1316      0.940      1.363    25.4850 0.0000e+00
      0.981      0.082     8.3943    102.157     34.859  35.070971     2.9316      7.744   216.8863 2.7277e+02     3.1390      0.962      1.395    25.4457 0.0000e+00
      1.002      0.083     8.3761    101.819     34.884  35.052594     2.9473      7.744   217.3199 2.5024e+02     3.0816      0.983      1.424    25.4210 0.0000e+00
      1.023      0.083     8.3650    101.568     34.911  35.036039     2.9759      7.744   217.7800 2.1786e+02     2.9867      1.005      1.456    25.3887 0.0000e+00
      1.044      0.084     8.3558    101.360     34.909  34.997783     2.9932      7.741   218.3187 1.8997e+02     2.9692      1.024      1.486    25.3509 0.0000e+00
      1.064      0.085     8.3394    101.085     34.910  34.971107     3.0001      7.737   218.7566 1.7379e+02     2.9911      1.041      1.510    25.3049 0.0000e+00
      1.085      0.087     8.3141    100.720     34.929  34.967539     3.0034      7.733   218.9448 1.6262e+02     2.9768      1.064      1.543    25.2338 0.0000e+00
      1.108      0.087     8.2866    100.341     34.934  34.954608     2.9599      7.733   219.0453 1.5586e+02     2.9493      1.086      1.575    25.1674 0.0000e+00
      1.131      0.087     8.2617    100.000     34.935  34.941770     2.8703      7.733   219.1983 1.5145e+02     2.9324      1.109      1.609    25.1186 0.0000e+00
      1.155      0.086     8.2383     99.671     34.950  34.939337     2.8195      7.731   219.4174 1.4741e+02     2.9253      1.134      1.645    25.0776 0.0000e+00
      1.177      0.085     8.2169     99.351     34.960  34.925157     2.8152      7.728   219.7147 1.4295e+02     2.9250      1.156      1.676    25.0458 0.0000e+00
      1.197      0.084     8.2010     99.076     34.963  34.897330     2.7994      7.723   220.1258 1.3696e+02     2.8677      1.174      1.703    25.0241 0.0000e+00
      1.218      0.083     8.1881     98.829     34.958  34.856914     2.7663      7.717   220.4310 1.3230e+02     2.7514      1.194      1.732    25.0044 0.0000e+00
      1.239      0.081     8.1697     98.523     34.951  34.817548     2.7463      7.712   220.5660 1.2664e+02     2.7093      1.215      1.762    24.9807 0.0000e+00
      1.259      0.079     8.1370     98.064     34.961  34.802424     2.7408      7.708   220.8111 1.2095e+02     2.7555      1.234      1.790    24.9493 0.0000e+00
      1.280      0.079     8.0907     97.456     34.979  34.801050     2.7005      7.705   221.1577 1.1681e+02     2.7905      1.256      1.821    24.9007 0.0000e+00
      1.301      0.079     8.0383     96.772     34.999  34.800920     2.6350      7.704   221.4010 1.1395e+02     2.7666      1.278      1.853    24.8469 0.0000e+00
      1.319      0.078     7.9856     96.079     35.022  34.800819     2.6106      7.704   221.6022 1.1198e+02     2.7111      1.293      1.877    24.7992 0.0000e+00
      1.338      0.077     7.9361     95.421     35.046  34.799793     2.6090      7.704   221.7840 1.0956e+02     2.6993      1.311      1.902    24.7632 0.0000e+00
      1.359      0.076     7.8896     94.787     35.065  34.788469     2.5880      7.703   221.8783 1.0664e+02     2.6239      1.334      1.934    24.7416 0.0000e+00
      1.380      0.075     7.8430     94.139     35.104  34.790899     2.5583      7.701   222.0534 1.0424e+02     2.4099      1.354      1.964    24.7123 0.0000e+00
      1.398      0.075     7.7895     93.409     35.179  34.829133     2.5443      7.699   222.2668 1.0249e+02     2.2780      1.371      1.988    24.6771 0.0000e+00
      1.416      0.074     7.7184     92.473     35.254  34.869575     2.5468      7.696   222.3931 1.0087e+02     2.2802      1.388      2.014    24.6461 0.0000e+00
      1.435      0.073     7.6235     91.263     35.314  34.898713     2.5435      7.691   222.5476 9.8960e+01     2.2839      1.407      2.041    24.6020 0.0000e+00
      1.454      0.071     7.5085     89.823     35.370  34.927308     2.5315      7.685   222.7588 9.7398e+01     2.2616      1.425      2.067    24.5488 0.0000e+00
      1.473      0.070     7.3815     88.249     35.429  34.961201     2.5301      7.679   222.9676 9.6539e+01     2.2552      1.445      2.096    24.4966 0.0000e+00
      1.492      0.070     7.2488     86.616     35.544  35.054399     2.5359      7.671   223.3521 9.6061e+01     2.2977      1.464      2.123    24.4475 0.0000e+00
      1.508      0.072     7.1164     84.988     35.742  35.228364     2.5369      7.658   224.0520 9.5996e+01     2.3179      1.479      2.145    24.4042 0.0000e+00
      1.523      0.075     6.9929     83.462     35.953  35.413043     2.5416      7.643   224.6319 9.6138e+01     2.2856      1.494      2.167    24.3661 0.0000e+00
      1.541      0.080     6.8822     82.081     36.143  35.572248     2.5481      7.630   224.8578 9.6258e+01     2.2736      1.510      2.190    24.3336 0.0000e+00
      1.563      0.084     6.7763     80.755     36.296  35.692268     2.5503      7.620   225.1479 9.6344e+01     2.2952      1.530      2.220    24.3051 0.0000e+00
      1.588      0.088     6.6595     79.300     36.356  35.720754     2.5502      7.612   225.5590 9.6373e+01     2.3324      1.556      2.258    24.2780 0.0000e+00
      1.613      0.090     6.5166     77.542     36.326  35.662531     2.5646      7.602   225.8709 9.6757e+01     2.3577      1.582      2.296    24.2461 0.0000e+00
      1.638      0.088     6.3453     75.454     36.313  35.623485     2.5965      7.592   226.1653 9.7307e+01     2.3272      1.608      2.332    24.2068 0.0000e+00
      1.660      0.084     6.1598     73.200     36.409  35.693265     2.6138      7.584   226.4517 9.7697e+01     2.2683      1.628      2.362    24.1627 0.0000e+00
      1.680      0.078     5.9766     70.982     36.549  35.807459     2.6173      7.578   226.6654 9.8012e+01     2.2555      1.648      2.391    24.1187 0.0000e+00
      1.699      0.073     5.8061     68.920     36.625  35.860752     2.6206      7.573   226.9426 9.8161e+01     2.2942      1.667      2.418    24.0807 0.0000e+00
      1.716      0.068     5.6497     67.031     36.677  35.892945     2.6261      7.568   227.3955 9.8094e+01     2.3092      1.683      2.441    24.0449 0.0000e+00
      1.732      0.067     5.5087     65.330     36.744  35.942583     2.6288      7.562   228.0111 9.7729e+01     2.2844      1.698      2.463    24.0100 0.0000e+00
      1.748      0.068     5.3896     63.888     36.774  35.952716     2.6265      7.554   228.7924 9.7094e+01     2.2692      1.714      2.486    23.9784 0.0000e+00
      1.763      0.070     5.2919     62.694     36.732  35.888383     2.6900      7.543   229.6144 9.6232e+01     2.2780      1.729      2.507    23.9491 0.0000e+00
      1.780      0.074     5.2074     61.649     36.669  35.799936     2.8172      7.528   230.3795 9.5367e+01     2.2985      1.744      2.529    23.9248 0.0000e+00
      1.801      0.077     5.1264     60.644     36.671  35.772586     2.8779      7.513   230.9024 9.4475e+01     2.3038      1.765      2.561    23.9041 0.0000e+00
      1.824      0.078     5.0450     59.633     36.744  35.811738     2.8726      7.499   231.1182 9.3542e+01     2.2809      1.789      2.595    23.8801 0.0000e+00
      1.846      0.078     4.9753     58.761     36.795  35.828620     2.8551      7.484   231.2680 9.2832e+01     2.2355      1.810      2.626    23.8487 0.0000e+00
      1.866      0.076     4.9343     58.227     36.785  35.786091     2.8222      7.469   231.5080 9.2292e+01     2.1821      1.830      2.655    23.8116 0.0000e+00
      1.885      0.073     4.9154     57.956     36.772  35.742133     2.8152      7.455   231.8694 9.2094e+01     2.1538      1.849      2.682    23.7702 0.0000e+00
      1.902      0.069     4.8966     57.688     36.804  35.741740     2.8251      7.442   232.1108 9.2361e+01     2.1382      1.866      2.706    23.7263 0.0000e+00
      1.919      0.066     4.8667     57.290     36.877  35.781283     2.8123      7.429   232.1888 9.2777e+01     2.1154      1.882      2.730    23.6812 0.0000e+00
      1.936      0.064     4.8279     56.790     36.968  35.839070     2.7712      7.416   232.6416 9.3417e+01     2.1217      1.898      2.753    23.6363 0.0000e+00
      1.951      0.064     4.7841     56.234     37.028  35.868689     2.7146      7.401   233.6277 9.4373e+01     2.1535      1.912      2.774    23.5937 0.0000e+00
      1.966      0.066     4.7356     55.624     37.009  35.821750     2.6881      7.385   234.7325 9.5702e+01     2.1644      1.927      2.796    23.5504 0.0000e+00
      1.983      0.070     4.6777     54.904     36.929  35.716147     2.6895      7.367   235.6746 9.7440e+01     2.1622      1.944      2.820    23.5078 0.0000e+00
      2.000      0.075     4.6042     53.997     36.851  35.608177     2.7039      7.349   236.3289 9.8529e+01     2.1577      1.961      2.845    23.4673 0.0000e+00
      2.019      0.079     4.5170     52.922     36.812  35.532602     2.7332      7.332   236.6204 9.8616e+01     2.1397      1.978      2.869    23.4273 0.0000e+00
      2.040      0.081     4.4273     51.815     36.823  35.501057     2.7502      7.316   236.7047 9.8055e+01     2.1281      2.000      2.901    23.3907 0.0000e+00
      2.065      0.082     4.3511     50.867     36.848  35.480796     2.7533      7.303   236.9179 9.7108e+01     2.1089      2.026      2.939    23.3548 0.0000e+00
      2.088      0.081     4.2999     50.212     36.823  35.414608     2.7528      7.291   237.2189 9.6525e+01     2.0911      2.049      2.973    23.3113 0.0000e+00
      2.108      0.078     4.2750     49.864     36.788  35.335936     2.7531      7.278   237.5054 9.5770e+01     2.1264      2.069      3.000    23.2578 0.0000e+00
      2.126      0.073     4.2659     49.699     36.791  35.291766     2.7571      7.266   237.8012 9.4091e+01     2.1689      2.086      3.025    23.1993 0.0000e+00
      2.143      0.069     4.2461     49.405     36.811  35.261621     2.7546      7.254   238.0413 9.2685e+01     2.1782      2.101      3.048    23.1394 0.0000e+00
      2.159      0.068     4.1960     48.757     36.827  35.225462     2.7509      7.241   238.2575 9.1800e+01     2.1778      2.118      3.071    23.0825 0.0000e+00
      2.176      0.068     4.1171     47.777     36.825  35.172102     2.7484      7.228   238.6086 9.0733e+01     2.1641      2.134      3.096    23.0234 0.0000e+00
      2.192      0.069     4.0142     46.527     36.824  35.124546     2.7438      7.215   239.1033 8.9445e+01     2.1644      2.150      3.119    22.9589 0.0000e+00
      2.210      0.072     3.8948     45.092     36.838  35.095038     2.7402      7.200   239.5067 8.7581e+01     2.1817      2.167      3.143    22.8915 0.0000e+00
      2.229      0.074     3.7743     43.640     36.864  35.069350     2.7234      7.186   239.8722 8.6071e+01     2.1597      2.186      3.170    22.8207 0.0000e+00
      2.249      0.076     3.6634     42.295     36.924  35.067970     2.6973      7.173   240.2526 8.5235e+01     2.1117      2.206      3.199    22.7461 0.0000e+00
      2.270      0.076     3.5729     41.186     36.998  35.078268     2.6815      7.160   240.5783 8.3760e+01     2.0895      2.225      3.227    22.6837 0.0000e+00
      2.290      0.075     3.5153     40.461     37.046  35.066727     2.6714      7.147   240.8858 8.2047e+01     2.1055      2.246      3.258    22.6344 0.0000e+00
      2.309      0.074     3.4885     40.095     37.092  35.055392     2.6665      7.134   241.2167 8.0928e+01     2.1228      2.266      3.286    22.5650 0.0000e+00
      2.328      0.071     3.4815     39.960     37.162  35.068191     2.6405      7.121   241.6537 8.0061e+01     2.0848      2.282      3.310    22.4805 0.0000e+00
      2.346      0.069     3.4875     39.973     37.248  35.094364     2.5866      7.108   242.1262 7.9000e+01     2.0118      2.300      3.336    22.3989 0.0000e+00
      2.363      0.069     3.4993     40.049     37.333  35.117682     2.5567      7.094   242.5412 7.7924e+01     1.9727      2.318      3.361    22.3216 0.0000e+00
      2.379      0.069     3.5116     40.127     37.443  35.159490     2.5556      7.080   242.9723 7.7104e+01     1.9772      2.333      3.383    22.2485 0.0000e+00
      2.395      0.071     3.5240     40.204     37.573  35.218642     2.5550      7.066   243.8963 7.6114e+01     1.9754      2.349      3.407    22.1778 0.0000e+00
      2.413      0.074     3.5337     40.246     37.688  35.261109     2.5488      7.050   244.9376 7.4836e+01     1.9505      2.366      3.432    22.1067 0.0000e+00
      2.432      0.077     3.5354     40.192     37.797  35.291739     2.5456      7.034   245.1519 7.3732e+01     1.9512      2.384      3.458    22.0300 0.0000e+00
      2.452      0.078     3.5268     40.017     37.923  35.334812     2.5431      7.019   245.1105 7.2443e+01     1.9533      2.404      3.486    21.9478 0.0000e+00
      2.475      0.077     3.5038     39.684     38.072  35.400666     2.5281      7.006   245.2973 7.0609e+01     1.9153      2.427      3.520    21.8638 0.0000e+00
      2.498      0.075     3.4658     39.188     38.200  35.452661     2.5020      6.994   245.5174 6.9174e+01     1.8878      2.451      3.555    21.7781 0.0000e+00
      2.517      0.072     3.4178     38.586     38.266  35.455209     2.4847      6.982   245.7935 6.8119e+01     1.8959      2.469      3.581    21.6828 0.0000e+00
      2.533      0.067     3.3628     37.913     38.298  35.431392     2.4840      6.970   246.1397 6.7001e+01     1.9223      2.484      3.603    21.5812 0.0000e+00
      2.548      0.062     3.3013     37.177     38.333  35.418707     2.4848      6.957   246.5207 6.6025e+01     1.9011      2.500      3.626    21.4843 0.0000e+00
      2.563      0.058     3.2335     36.383     38.379  35.428815     2.4852      6.945   246.8721 6.5095e+01     1.8228      2.513      3.645    21.3960 0.0000e+00
      2.577      0.055     3.1648     35.593     38.398  35.426510     2.4885      6.934   247.1188 6.4244e+01     1.7691      2.527      3.665    21.3207 0.0000e+00
      2.591      0.054     3.1058     34.912     38.380  35.390818     2.4871      6.922   247.2663 6.3517e+01     1.7403      2.540      3.685    21.2501 0.0000e+00
      2.604      0.054     3.0651     34.427     38.400  35.378370     2.4686      6.912   247.5377 6.2812e+01     1.7193      2.554      3.704    21.1863 0.0000e+00
      2.617      0.054     3.0453     34.161     38.481  35.403002     2.4400      6.902   247.9050 6.2017e+01     1.6977      2.566      3.721    21.1436 0.0000e+00
      2.630      0.054     3.0409     34.056     38.587  35.434497     2.4259      6.891   248.1800 6.1296e+01     1.6927      2.579      3.741    21.1240 0.0000e+00
      2.644      0.054     3.0464     34.057     38.740  35.504992     2.4264      6.881   248.4530 6.0486e+01     1.7196      2.593      3.761    21.1082 0.0000e+00
      2.658      0.055     3.0593     34.147     38.933  35.620022     2.4288      6.871   248.8830 5.9502e+01     1.7486      2.607      3.781    21.0709 0.0000e+00
      2.672      0.057     3.0724     34.247     39.130  35.745359     2.4272      6.860   249.4211 5.8770e+01     1.7683      2.621      3.801    21.0056 0.0000e+00
      2.686      0.058     3.0708     34.188     39.326  35.876945     2.4248      6.848   249.8829 5.8192e+01     1.7748      2.635      3.820    20.9111 0.0000e+00
      2.701      0.060     3.0419     33.828     39.516  36.004010     2.4185      6.837   250.1639 5.7476e+01     1.7658      2.649      3.841    20.8156 0.0000e+00
      2.717      0.061     2.9795     33.095     39.716  36.138212     2.4063      6.827   250.4103 5.6594e+01     1.7210      2.665      3.865    20.7381 0.0000e+00
      2.734      0.061     2.8783     31.936     39.933  36.292550     2.3787      6.816   250.7966 5.5711e+01     1.6294      2.682      3.889    20.6671 0.0000e+00
      2.750      0.060     2.7385     30.360     40.099  36.408976     2.3241      6.806   251.2221 5.5025e+01     1.5439      2.696      3.911    20.6085 0.0000e+00
      2.765      0.059     2.5697     28.469     40.124  36.402419     2.2877      6.796   251.5107 5.4342e+01     1.5102      2.712      3.934    20.5562 0.0000e+00
      2.780      0.057     2.3804     26.354     40.015  36.276761     2.2875      6.786   251.7050 5.3494e+01     1.4967      2.726      3.954    20.4881 0.0000e+00
      2.794      0.054     2.1804     24.116     39.931  36.160107     2.2759      6.777   251.9368 5.2781e+01     1.5032      2.740      3.974    20.4313 0.0000e+00
      2.808      0.051     1.9831     21.901     39.972  36.135360     2.2480      6.767   252.1618 5.2278e+01     1.5279      2.754      3.993    20.3931 0.0000e+00
      2.821      0.047     1.8055     19.906     40.082  36.168025     2.2352      6.758   252.4464 5.1697e+01     1.5209      2.767      4.012    20.3536 0.0000e+00
      2.833      0.045     1.6705     18.393     40.219  36.237347     2.2321      6.748   253.2276 5.1071e+01     1.5101      2.778      4.030    20.3305 0.0000e+00
      2.843      0.045     1.5885     17.469     40.384  36.338215     2.2287      6.737   254.1215 5.0533e+01     1.5192      2.789      4.046    20.2872 0.0000e+00
      2.852      0.048     1.5534     17.058     40.559  36.434678     2.2311      6.726   254.9087 5.0014e+01     1.5087      2.798      4.057    20.1988 0.0000e+00
      2.860      0.053     1.5542     17.035     40.731  36.514240     2.2328      6.715   255.7769 4.9344e+01     1.5056      2.803      4.065    20.1037 0.0000e+00
      2.872      0.059     1.5741     17.217     40.849  36.537788     2.2315      6.701   255.8421 4.8516e+01     1.5125      2.814      4.081    20.0390 0.0000e+00
      2.891      0.066     1.5920     17.377     40.936  36.528708     2.1965      6.689   255.4386 4.7560e+01     1.4390      2.835      4.112    19.9947 0.0000e+00
      2.912      0.071     1.5899     17.318     41.110  36.594915     2.1218      6.679   255.4587 4.6395e+01     1.3188      2.855      4.141    19.9183 0.0000e+00
      2.933      0.074     1.5569     16.922     41.330  36.702911     2.0828      6.670   255.6553 4.5341e+01     1.2798      2.876      4.172    19.8197 0.0000e+00
      2.953      0.074     1.4927     16.190     41.487  36.754433     2.0921      6.661   255.8365 4.4590e+01     1.3035      2.897      4.203    19.7218 0.0000e+00
      2.971      0.072     1.4071     15.229     41.611  36.773065     2.0784      6.651   256.1000 4.3800e+01     1.2693      2.914      4.226    19.6124 0.0000e+00
      2.987      0.069     1.3076     14.120     41.821  36.864544     2.0271      6.642   256.4335 4.2942e+01     1.1713      2.930      4.249    19.5021 0.0000e+00
      3.005      0.065     1.2008     12.938     42.119  37.034524     1.9868      6.634   256.7706 4.2257e+01     1.0951      2.947      4.274    19.3979 0.0000e+00
      3.022      0.062     1.0954     11.779     42.378  37.176446     1.9771      6.627   257.0788 4.1652e+01     1.0810      2.963      4.298    19.2919 0.0000e+00
      3.037      0.060     0.9982     10.713     42.546  37.246334     1.9751      6.619   257.1480 4.1070e+01     1.0917      2.979      4.321    19.1850 0.0000e+00
      3.052      0.058     0.9091      9.741     42.694  37.307675     1.9522      6.611   257.1777 4.0619e+01     1.0718      2.993      4.342    19.0708 0.0000e+00
      3.066      0.056     0.8215      8.791     42.873  37.409798     1.9205      6.603   257.4374 4.0225e+01     1.0538      3.006      4.360    18.9547 0.0000e+00
      3.079      0.054     0.7332      7.839     42.981  37.464565     1.9047      6.596   257.7938 3.9759e+01     1.0575      3.020      4.380    18.8551 0.0000e+00
      3.093      0.054     0.6487      6.929     43.024  37.461582     1.8995      6.591   258.1312 3.9226e+01     1.0556      3.033      4.399    18.7652 0.0000e+00
      3.106      0.054     0.5699      6.080     43.138  37.500743     1.8854      6.585   258.3330 3.8723e+01     1.0614      3.046      4.418    18.6804 0.0000e+00
      3.120      0.054     0.4970      5.292     43.290  37.556803     1.8529      6.577   258.4265 3.8271e+01     1.0665      3.060      4.438    18.6174 0.0000e+00
      3.134      0.054     0.4280      4.549     43.379  37.567530     1.8280      6.569   258.6600 3.7788e+01     1.0870      3.073      4.458    18.5784 0.0000e+00
      3.148      0.055     0.3640      3.864     43.286  37.439766     1.8237      6.560   259.0045 3.7277e+01     1.1259      3.087      4.477    18.5418 0.0000e+00
      3.161      0.057     0.3086      3.273     43.169  37.282543     1.8285      6.551   259.2367 3.6766e+01     1.1406      3.100      4.496    18.4721 0.0000e+00
      3.176      0.058     0.2608      2.761     43.318  37.318234     1.8307      6.542   259.5743 3.6261e+01     1.1119      3.113      4.516    18.3685 0.0000e+00
      3.191      0.059     0.2208      2.331     43.564  37.426493     1.8233      6.535   260.0756 3.5791e+01     1.0544      3.129      4.538    18.2835 0.0000e+00
      3.207      0.059     0.1927      2.030     43.757  37.511369     1.8213      6.527   260.6519 3.5326e+01     1.0551      3.145      4.562    18.2462 0.0000e+00
      3.222      0.058     0.1773      1.865     43.996  37.645541     1.7888      6.519   261.2938 3.4848e+01     1.1203      3.160      4.583    18.1998 0.0000e+00
      3.237      0.057     0.1708      1.793     44.246  37.778079     1.7055      6.513   261.7280 3.4399e+01     1.1413      3.175      4.604    18.0781 0.0000e+00
      3.252      0.057     0.1703      1.784     44.341  37.779651     1.6501      6.508   262.1164 3.3989e+01     1.0950      3.189      4.626    17.9328 0.0000e+00
      3.266      0.058     0.1730      1.810     44.127  37.537389     1.6433      6.502   262.8921 3.3629e+01     1.0793      3.204      4.647    17.8546 0.0000e+00
      3.279      0.060     0.1760      1.839     43.714  37.135878     1.6875      6.495   263.8794 3.3320e+01     1.1647      3.216      4.665    17.7908 0.0000e+00
      3.292      0.063     0.1783      1.861     43.457  36.863723     1.7795      6.488   264.6751 3.3002e+01     1.2734      3.227      4.680    17.6841 0.0000e+00
      3.308      0.065     0.1778      1.852     43.435  36.787834     1.8368      6.480   265.2005 3.2620e+01     1.3249      3.242      4.701    17.5869 0.0000e+00
      3.329      0.065     0.1750      1.821     43.494  36.789988     1.8385      6.472   265.4999 3.2170e+01     1.3300      3.264      4.733    17.5237 0.0000e+00
      3.350      0.064     0.1745      1.816     43.569  36.826178     1.8278      6.465   265.7989 3.1812e+01     1.3052      3.286      4.767    17.4754 0.0000e+00
      3.367      0.064     0.1810      1.884     43.675  36.907731     1.7714      6.458   266.1485 3.1647e+01     1.3297      3.302      4.791    17.4118 0.0000e+00
      3.379      0.063     0.1954      2.032     43.903  37.077236     1.6616      6.451   266.3718 3.1505e+01     1.4434      3.313      4.806    17.3394 0.0000e+00
      3.391      0.060     0.2134      2.215     44.233  37.287421     1.5947      6.445   266.5191 3.1335e+01     1.5507      3.325      4.822    17.2806 0.0000e+00
      3.406      0.059     0.2319      2.401     44.500  37.416081     1.5782      6.440   266.7253 3.1158e+01     1.5588      3.339      4.842    17.2436 0.0000e+00
      3.423      0.059     0.2486      2.570     44.600  37.425684     1.5624      6.436   266.9718 3.0950e+01     1.5113      3.357      4.869    17.2536 0.0000e+00
      3.441      0.060     0.2585      2.671     44.601  37.403438     1.5603      6.432   267.0914 3.0748e+01     1.4943      3.376      4.896    17.2491 0.0000e+00
      3.456      0.061     0.2607      2.693     44.610  37.401191     1.5812      6.429   267.0526 3.0581e+01     1.4752      3.390      4.917    17.1586 0.0000e+00
      3.469      0.063     0.2585      2.665     44.708  37.398518     1.6030      6.425   266.9332 3.0388e+01     1.4642      3.402      4.934    17.0267 0.0000e+00
      3.483      0.065     0.2511      2.578     45.053  37.498081     1.6496      6.420   266.8530 3.0113e+01     1.5442      3.415      4.952    16.9267 0.0000e+00
      3.500      0.068     0.2400      2.452     45.656  37.778870     1.7220      6.415   266.8564 2.9806e+01     1.6800      3.430      4.975    16.9126 0.0000e+00
      3.520      0.072     0.2310      2.350     46.383  38.188511     1.7609      6.410   266.9740 2.9466e+01     1.7323      3.451      5.005    16.9528 0.0000e+00
      3.540      0.075     0.2249      2.279     47.276  38.765988     1.7801      6.406   267.2429 2.9080e+01     1.7198      3.472      5.035    16.8780 0.0000e+00
      3.560      0.075     0.2215      2.238     48.157  39.360608     1.8343      6.402   267.4404 2.8687e+01     1.7718      3.491      5.063    16.6186 0.0000e+00
      3.580      0.073     0.2203      2.220     48.738  39.723330     1.9114      6.399   267.4692 2.8275e+01     1.8729      3.511      5.093    16.3527 0.0000e+00
      3.599      0.070     0.2169      2.181     49.181  39.974727     1.9492      6.396   267.4189 2.7884e+01     1.9344      3.531      5.122    16.1533 0.0000e+00
      3.616      0.066     0.2113      2.120     49.715  40.303372     1.9606      6.393   267.4347 2.7589e+01     1.9362      3.547      5.144    15.9843 0.0000e+00
      3.631      0.064     0.2051      2.053     50.338  40.710539     1.9846      6.390   267.7467 2.7340e+01     1.9253      3.561      5.165    15.8592 0.0000e+00
      3.646      0.061     0.1959      1.957     50.598  40.831124     2.0101      6.386   268.2654 2.7074e+01     1.9250      3.576      5.186    15.7493 0.0000e+00
      3.662      0.060     0.1835      1.830     50.203  40.426910     2.0297      6.381   268.7158 2.6823e+01     1.9326      3.591      5.208    15.6354 0.0000e+00
      3.677      0.061     0.1722      1.715     49.956  40.143765     2.0372      6.376   269.0622 2.6588e+01     1.9559      3.606      5.230    15.5276 0.0000e+00
      3.692      0.063     0.1632      1.623     50.610  40.584491     2.0277      6.370   269.4430 2.6332e+01     1.9621      3.621      5.252    15.4316 0.0000e+00
      3.707      0.066     0.1560      1.548     51.700  41.371364     2.0076      6.364   269.7917 2.6082e+01     1.8856      3.635      5.272    15.3438 0.0000e+00
      3.723      0.070     0.1521      1.506     52.402  41.842215     1.9861      6.356   269.9228 2.5804e+01     1.7633      3.650      5.293    15.2589 0.0000e+00
      3.741      0.074     0.1498      1.481     52.822  42.083666     1.9701      6.349   270.0826 2.5442e+01     1.7044      3.667      5.319    15.1750 0.0000e+00
      3.762      0.076     0.1476      1.456     53.476  42.511376     1.9617      6.342   270.5191 2.5017e+01     1.7230      3.689      5.350    15.0946 0.0000e+00
      3.784      0.076     0.1472      1.450     54.045  42.883078     1.9487      6.337   270.9843 2.4583e+01     1.8055      3.712      5.383    15.0103 0.0000e+00
      3.805      0.074     0.1479      1.455     54.038  42.828596     1.9237      6.332   271.1467 2.4217e+01     1.9079      3.732      5.413    14.9214 0.0000e+00
      3.824      0.071     0.1478      1.453     53.636  42.488046     1.9068      6.327   270.9338 2.3912e+01     1.9529      3.751      5.440    14.8331 0.0000e+00
      3.842      0.066     0.1472      1.447     53.236  42.133424     1.9015      6.322   270.5618 2.3646e+01     1.9537      3.768      5.465    14.7421 0.0000e+00
      3.857      0.063     0.1467      1.440     53.046  41.908743     1.8595      6.315   270.1758 2.3394e+01     1.9478      3.783      5.487    14.6592 0.0000e+00
      3.871      0.062     0.1461      1.431     52.941  41.741224     1.7754      6.308   269.6223 2.3119e+01     1.9424      3.796      5.506    14.6107 0.0000e+00
      3.885      0.062     0.1450      1.418     52.669  41.442274     1.7212      6.303   268.9465 2.2840e+01     1.9197      3.810      5.525    14.6106 0.0000e+00
      3.900      0.063     0.1438      1.403     52.262  41.026380     1.7095      6.298   268.3717 2.2549e+01     1.8862      3.824      5.545    14.5893 0.0000e+00
      3.917      0.065     0.1429      1.391     51.744  40.525058     1.6615      6.294   267.8337 2.2233e+01     1.9045      3.840      5.570    14.4988 0.0000e+00
      3.936      0.067     0.1428      1.388     51.048  39.892048     1.5718      6.291   267.2605 2.1890e+01     1.9578      3.860      5.598    14.4155 0.0000e+00
      3.954      0.068     0.1439      1.397     50.385  39.281657     1.5254      6.288   266.7755 2.1573e+01     1.9816      3.878      5.625    14.3475 0.0000e+00
      3.970      0.070     0.1453      1.407     49.980  38.863063     1.5153      6.285   266.4436 2.1323e+01     1.9782      3.893      5.647    14.2443 0.0000e+00
      3.986      0.071     0.1478      1.427     49.832  38.642850     1.4771      6.282   266.1726 2.1069e+01     2.0081      3.909      5.670    14.1492 0.0000e+00
      4.004      0.072     0.1503      1.448     49.798  38.524980     1.4214      6.280   265.9087 2.0757e+01     2.0996      3.926      5.695    14.0736 0.0000e+00
      4.024      0.073     0.1505      1.448     49.722  38.390805     1.3935      6.278   265.8345 2.0435e+01     2.1683      3.946      5.723    13.9798 0.0000e+00
      4.044      0.073     0.1531      1.471     49.609  38.227575     1.3973      6.277   265.9625 2.0138e+01     2.1677      3.967      5.752    13.8776 0.0000e+00
      4.063      0.073     0.1645      1.577     49.514  38.076078     1.4027      6.276   266.0799 1.9838e+01     2.1534      3.985      5.780    13.7639 0.0000e+00
      4.082      0.072     0.1878      1.797     49.449  37.956681     1.3849      6.275   266.1358 1.9537e+01     2.3305      4.003      5.806    13.6677 0.0000e+00
      4.101      0.071     0.2295      2.193     49.409  37.863919     1.3569      6.273   266.1215 1.9251e+01     2.6918      4.021      5.832    13.6064 0.0000e+00
      4.118      0.071     0.2991      2.854     49.379  37.780336     1.3394      6.270   266.0793 1.8973e+01     2.8908      4.038      5.857    13.5277 0.0000e+00
      4.134      0.071     0.4017      3.828     49.364  37.708390     1.3299      6.267   265.9706 1.8680e+01     2.9357      4.054      5.880    13.4416 0.0000e+00
      4.152      0.071     0.5360      5.101     49.337  37.629267     1.3257      6.265   265.8395 1.8370e+01     3.1742      4.072      5.906    13.3737 0.0000e+00
      4.171      0.072     0.6979      6.634     49.269  37.522428     1.3252      6.262   265.8702 1.8079e+01     3.5762      4.091      5.933    13.3131 0.0000e+00
      4.190      0.073     0.8816      8.371     49.221  37.433031     1.3327      6.260   265.9980 1.7802e+01     3.7684      4.109      5.959    13.2528 0.0000e+00
      4.209      0.075     1.0792     10.235     49.212  37.374209     1.3426      6.258   266.1798 1.7535e+01     3.7891      4.128      5.988    13.1908 0.0000e+00
      4.227      0.077     1.2877     12.199     49.209  37.319399     1.4089      6.254   266.3480 1.7277e+01     4.0093      4.145      6.012    13.1307 0.0000e+00
      4.246      0.077     1.4982     14.175     49.224  37.278503     1.5450      6.252   266.4827 1.7002e+01     4.3860      4.163      6.038    13.0747 0.0000e+00
      4.267      0.076     1.6925     15.995     49.269  37.260854     1.6284      6.249   266.9483 1.6726e+01     4.5901      4.185      6.069    13.0224 0.0000e+00
      4.289      0.074     1.8663     17.620     49.294  37.233002     1.6457      6.247   268.0202 1.6462e+01     4.6765      4.207      6.102    12.9693 0.0000e+00
      4.309      0.070     2.0232     19.083     49.298  37.195814     1.6799      6.245   268.8589 1.6226e+01     5.1567      4.227      6.131    12.9159 0.0000e+00
      4.327      0.065     2.1629     20.385     49.339  37.192339     1.7297      6.243   268.5714 1.6048e+01     6.0015      4.244      6.155    12.8629 0.0000e+00
      4.342      0.061     2.2869     21.540     49.380  37.190950     1.7609      6.242   267.9860 1.5922e+01     6.4680      4.259      6.176    12.8091 0.0000e+00
      4.354      0.060     2.3939     22.528     49.415  37.178992     1.7721      6.240   267.8890 1.5824e+01     6.5236      4.270      6.193    12.7610 0.0000e+00
      4.366      0.063     2.4767     23.285     49.466  37.174771     1.7275      6.238   268.1739 1.5710e+01     6.6440      4.281      6.209    12.7199 0.0000e+00
      4.381      0.068     2.5377     23.836     49.474  37.139859     1.6355      6.235   268.6772 1.5548e+01     6.8554      4.295      6.229    12.6868 0.0000e+00
      4.399      0.074     2.5821     24.234     49.433  37.074483     1.5880      6.232   269.1560 1.5344e+01     6.9736      4.313      6.256    12.6578 0.0000e+00
      4.420      0.079     2.6117     24.495     49.399  37.019568     1.5846      6.229   269.4880 1.5095e+01     6.9749      4.335      6.287    12.6178 0.0000e+00
      4.443      0.083     2.6290     24.639     49.394  36.984080     1.5943      6.226   269.6806 1.4819e+01     7.0238      4.357      6.320    12.5721 0.0000e+00
      4.466      0.084     2.6366     24.692     49.409  36.963006     1.6229      6.224   269.9363 1.4527e+01     7.1378      4.380      6.353    12.5292 0.0000e+00
      4.490      0.081     2.6406     24.714     49.436  36.955314     1.6453      6.223   270.2570 1.4218e+01     7.1624      4.404      6.387    12.4945 0.0000e+00
      4.511      0.076     2.6459     24.752     49.462  36.954565     1.6444      6.221   270.3748 1.3950e+01     7.1385      4.424      6.417    12.4682 0.0000e+00
      4.529      0.070     2.6544     24.825     49.477  36.953930     1.6301      6.220   270.4138 1.3739e+01     7.1841      4.443      6.444    12.4351 0.0000e+00
      4.546      0.063     2.6659     24.925     49.486  36.947625     1.5558      6.220   270.5564 1.3540e+01     7.3782      4.459      6.466    12.4002 0.0000e+00
      4.561      0.058     2.6781     25.030     49.503  36.941841     1.4168      6.220   270.7226 1.3353e+01     7.6543      4.473      6.487    12.3709 0.0000e+00
      4.574      0.053     2.6866     25.097     49.538  36.947510     1.3282      6.219   271.0466 1.3199e+01     7.7754      4.486      6.507    12.3505 0.0000e+00
      4.586      0.051     2.6880     25.098     49.570  36.952615     1.3109      6.217   271.4621 1.3054e+01     7.8047      4.497      6.523    12.3425 0.0000e+00
      4.597      0.053     2.6825     25.038     49.575  36.940017     1.3004      6.215   271.7023 1.2880e+01     7.9479      4.508      6.538    12.3312 0.0000e+00
      4.608      0.058     2.6709     24.921     49.572  36.922219     1.2748      6.213   271.8858 1.2690e+01     8.1338      4.518      6.553    12.3097 0.0000e+00
      4.622      0.067     2.6544     24.759     49.602  36.927992     1.2584      6.211   272.0467 1.2486e+01     8.2215      4.532      6.572    12.2877 0.0000e+00
      4.639      0.077     2.6359     24.574     49.653  36.946267     1.2583      6.208   272.1856 1.2222e+01     8.2452      4.548      6.596    12.2700 0.0000e+00
      4.660      0.085     2.6174     24.389     49.692  36.952576     1.2275      6.204   272.7906 1.1891e+01     8.3894      4.568      6.626    12.2533 0.0000e+00
      4.687      0.090     2.6000     24.215     49.705  36.940716     1.1705      6.203   273.7687 1.1501e+01     8.6833      4.595      6.665    12.2382 0.0000e+00
      4.717      0.088     2.5856     24.072     49.713  36.929907     1.1300      6.201   274.2896 1.1118e+01     8.8384      4.628      6.712    12.2233 0.0000e+00
      4.744      0.083     2.5762     23.978     49.756  36.948920     1.1149      6.199   274.3564 1.0843e+01     8.8304      4.655      6.751    12.2023 0.0000e+00
      4.764      0.074     2.5689     23.903     49.814  36.980002     1.1164      6.198   274.4034 1.0668e+01     8.8916      4.674      6.779    12.1775 0.0000e+00
      4.779      0.064     2.5606     23.820     49.839  36.988065     1.1205      6.197   274.5149 1.0529e+01     8.9987      4.687      6.798    12.1557 0.0000e+00
      4.790      0.055     2.5531     23.745     49.846  36.982867     1.1188      6.195   274.5862 1.0377e+01     9.0570      4.697      6.813    12.1391 0.0000e+00
      4.801      0.048     2.5470     23.682     49.857  36.980672     1.1139      6.195   274.6622 1.0206e+01     9.0780      4.708      6.828    12.1264 0.0000e+00
      4.813      0.046     2.5386     23.597     49.847  36.961510     1.1164      6.195   274.8323 1.0041e+01     9.1300      4.721      6.846    12.1154 0.0000e+00
      4.825      0.046     2.5279     23.492     49.836  36.941756     1.1214      6.194   275.0940 9.8967e+00     9.2283      4.732      6.864    12.1048 0.0000e+00
      4.836      0.047     2.5175     23.389     49.837  36.932402     1.1196      6.193   275.4177 9.7669e+00     9.2590      4.742      6.877    12.0945 0.0000e+00
      4.847      0.049     2.5070     23.289     49.819  36.911931     1.1127      6.193   275.5621 9.6180e+00     9.2580      4.753      6.893    12.0840 0.0000e+00
      4.860      0.051     2.4975     23.200     49.784  36.884815     1.1025      6.193   275.6359 9.4494e+00     9.3065      4.765      6.912    12.0722 0.0000e+00
      4.873      0.054     2.4918     23.149     49.743  36.858663     1.0878      6.192   275.8796 9.2787e+00     9.3573      4.779      6.931    12.0604 0.0000e+00
      4.887      0.058     2.4904     23.137     49.727  36.849837     1.0646      6.190   276.0993 9.0863e+00     9.4148      4.793      6.951    12.0489 0.0000e+00
      4.902      0.061     2.4932     23.159     49.725  36.841628     1.0514      6.188   276.2269 8.8750e+00     9.4828      4.807      6.973    12.0406 0.0000e+00
      4.918      0.064     2.5004     23.218     49.723  36.822933     1.0571      6.186   276.4766 8.6685e+00     9.5392      4.822      6.994    12.0402 0.0000e+00
      4.935      0.066     2.5089     23.289     49.732  36.814366     1.0406      6.184   276.7947 8.4413e+00     9.5168      4.838      7.017    12.0458 0.0000e+00
      4.954      0.066     2.5170     23.360     49.725  36.801556     0.9992      6.181   277.0618 8.1962e+00     9.4559      4.858      7.046    12.0539 0.0000e+00
      4.972      0.066     2.5255     23.437     49.721  36.795090     0.9799      6.178   277.3833 7.9799e+00     9.4739      4.877      7.073    12.0472 0.0000e+00
      4.989      0.065     2.5344     23.517     49.731  36.799715     0.9822      6.175   277.7563 7.8008e+00     9.5218      4.893      7.097    12.0236 0.0000e+00
      5.005      0.064     2.5421     23.587     49.727  36.793940     0.9905      6.172   278.0438 7.6468e+00     9.6078      4.908      7.118    12.0057 0.0000e+00
      5.020      0.061     2.5474     23.634     49.726  36.788790     0.9965      6.169   278.2795 7.4941e+00     9.7503      4.923      7.140    12.0010 0.0000e+00
      5.035      0.058     2.5531     23.686     49.746  36.800973     0.9915      6.166   278.5407 7.3216e+00     9.8409      4.938      7.162    11.9985 0.0000e+00
      5.050      0.055     2.5588     23.741     49.760  36.814179     0.9939      6.164   278.7069 7.1583e+00     9.8797      4.953      7.184    11.9959 0.0000e+00
      5.065      0.052     2.5635     23.788     49.760  36.821419     0.9606      6.163   278.8261 7.0363e+00     9.9144      4.968      7.206    11.9947 0.0000e+00
      5.078      0.050     2.5679     23.836     49.748  36.824987     0.8644      6.161   279.0355 6.9267e+00     9.9239      4.981      7.224    11.9875 0.0000e+00
      5.090      0.050     2.5687     23.852     49.684  36.793798     0.7964      6.160   279.3450 6.8081e+00     9.9030      4.991      7.239    11.9826 0.0000e+00
      5.100      0.053     2.5671     23.837     49.641  36.761988     0.7907      6.158   279.7305 6.6851e+00     9.9069      5.002      7.255    11.9893 0.0000e+00
      5.111      0.059     2.5673     23.829     49.660  36.758005     0.7959      6.154   280.0825 6.5501e+00     9.9699      5.012      7.269    11.9937 0.0000e+00
      5.124      0.067     2.5691     23.834     49.672  36.745622     0.7946      6.151   280.2447 6.3621e+00    10.0549      5.024      7.287    12.0047 0.0000e+00
      5.143      0.073     2.5688     23.821     49.689  36.739290     0.8024      6.149   280.3152 6.1062e+00    10.1100      5.042      7.313    12.0337 0.0000e+00
      5.166      0.077     2.5688     23.813     49.717  36.744951     0.8075      6.149   280.5053 5.8519e+00    10.1174      5.065      7.348    12.0336 0.0000e+00
      5.192      0.077     2.5727     23.844     49.736  36.750531     0.8006      6.149   280.8227 5.6397e+00    10.1145      5.093      7.387    12.0047 0.0000e+00
      5.216      0.073     2.5771     23.883     49.730  36.743224     0.7751      6.149   281.2267 5.4730e+00    10.1362      5.117      7.422    11.9855 0.0000e+00
      5.234      0.067     2.5801     23.912     49.697  36.720121     0.7279      6.149   281.6041 5.3610e+00    10.1355      5.135      7.446    11.9656 0.0000e+00
      5.247      0.060     2.5824     23.935     49.699  36.725310     0.6984      6.149   281.6862 5.2777e+00    10.1056      5.146      7.464    11.9476 0.0000e+00
      5.257      0.054     2.5850     23.960     49.719  36.742431     0.6952      6.147   281.3593 5.1882e+00    10.1102      5.155      7.477    11.9407 0.0000e+00
      5.268      0.051     2.5860     23.968     49.716  36.736552     0.6793      6.145   281.0929 5.0903e+00    10.1302      5.165      7.492    11.9392 0.0000e+00
      5.282      0.049     2.5842     23.946     49.703  36.717751     0.6439      6.145   281.1327 4.9873e+00    10.1342      5.180      7.513    11.9407 0.0000e+00
      5.296      0.049     2.5830     23.930     49.698  36.705691     0.6254      6.145   281.2376 4.8808e+00    10.1273      5.194      7.533    11.9450 0.0000e+00
      5.310      0.049     2.5825     23.924     49.718  36.717774     0.6222      6.144   281.3286 4.7803e+00    10.1082      5.208      7.553    11.9497 0.0000e+00
      5.322      0.049     2.5816     23.918     49.737  36.736783     0.5871      6.144   281.4601 4.6988e+00    10.1172      5.220      7.571    11.9461 0.0000e+00
      5.332      0.050     2.5802     23.911     49.735  36.744952     0.5321      6.144   281.5364 4.6333e+00    10.2053      5.229      7.584    11.9339 0.0000e+00
      5.343      0.053     2.5775     23.889     49.739  36.753031     0.5172      6.143   281.5620 4.5578e+00    10.3191      5.240      7.599    11.9239 0.0000e+00
      5.356      0.058     2.5759     23.873     49.767  36.770943     0.5258      6.140   281.7701 4.4586e+00    10.3636      5.251      7.616    11.9200 0.0000e+00
      5.371      0.064     2.5759     23.870     49.773  36.770935     0.4979      6.138   282.0737 4.3374e+00    10.3476      5.265      7.637    11.9253 0.0000e+00
      5.390      0.069     2.5743     23.852     49.758  36.752930     0.4468      6.135   282.3077 4.2040e+00    10.3384      5.286      7.666    11.9406 0.0000e+00
      5.410      0.074     2.5704     23.811     49.757  36.743821     0.4222      6.132   282.4484 4.0670e+00    10.3440      5.305      7.694    11.9466 0.0000e+00
      5.431      0.076     2.5665     23.772     49.738  36.724311     0.4303      6.131   282.5709 3.9194e+00    10.3232      5.325      7.723    11.9402 0.0000e+00
      5.452      0.075     2.5662     23.769     49.716  36.707612     0.4438      6.130   282.7564 3.7729e+00    10.2398      5.346      7.754    11.9360 0.0000e+00
      5.472      0.073     2.5684     23.790     49.747  36.732502     0.4391      6.130   282.8838 3.6605e+00    10.1295      5.366      7.783    11.9302 0.0000e+00
      5.491      0.070     2.5675     23.782     49.798  36.771137     0.4279      6.129   282.9075 3.5853e+00    10.0877      5.386      7.811    11.9188 0.0000e+00
      5.507      0.066     2.5626     23.738     49.827  36.793584     0.4284      6.127   282.9563 3.5127e+00    10.1005      5.401      7.833    11.9118 0.0000e+00
      5.522      0.063     2.5581     23.698     49.849  36.813323     0.4359      6.126   283.0430 3.4198e+00    10.1006      5.414      7.853    11.9135 0.0000e+00
      5.537      0.063     2.5550     23.671     49.852  36.819222     0.4544      6.125   283.0951 3.3288e+00    10.1510      5.430      7.876    11.9169 0.0000e+00
      5.551      0.065     2.5507     23.630     49.831  36.801387     0.4771      6.123   283.0709 3.2528e+00    10.2519      5.444      7.897    11.9174 0.0000e+00
      5.566      0.070     2.5441     23.565     49.825  36.788259     0.4897      6.122   283.0945 3.1723e+00    10.3137      5.458      7.916    11.9179 0.0000e+00
      5.584      0.074     2.5366     23.490     49.838  36.787532     0.4968      6.121   283.4666 3.0765e+00    10.3492      5.474      7.940    11.9210 0.0000e+00
      5.605      0.077     2.5330     23.451     49.857  36.792590     0.4990      6.120   284.0419 2.9711e+00    10.4061      5.496      7.971    11.9286 0.0000e+00
      5.629      0.078     2.5310     23.428     49.859  36.785870     0.4975      6.120   284.6309 2.8651e+00    10.4824      5.521      8.007    11.9268 0.0000e+00
      5.652      0.076     2.5223     23.344     49.846  36.769808     0.4975      6.120   285.1673 2.7715e+00    10.5086      5.545      8.042    11.9136 0.0000e+00
      5.671      0.072     2.5069     23.201     49.875  36.788961     0.4985      6.120   285.2783 2.7088e+00    10.5098      5.563      8.069    11.9041 0.0000e+00
      5.687      0.066     2.4900     23.047     49.921  36.826858     0.5002      6.119   284.8550 2.6568e+00    10.5278      5.577      8.089    11.8952 0.0000e+00
      5.702      0.060     2.4747     22.910     49.937  36.846863     0.5003      6.119   284.2649 2.5779e+00    10.5119      5.591      8.109    11.8865 0.0000e+00
      5.717      0.055     2.4612     22.788     49.919  36.840251     0.4997      6.118   283.9084 2.5093e+00    10.5012      5.608      8.134    11.8797 0.0000e+00
      5.731      0.051     2.4494     22.679     49.874  36.810447     0.5020      6.117   283.8140 2.4808e+00    10.5212      5.622      8.153    11.8752 0.0000e+00
      5.744      0.048     2.4404     22.598     49.863  36.804152     0.5001      6.118   283.8973 2.4451e+00    10.5397      5.634      8.171    11.8811 0.0000e+00
      5.755      0.046     2.4349     22.548     49.894  36.827669     0.4958      6.118   283.9695 2.4013e+00    10.5413      5.644      8.185    11.8921 0.0000e+00
      5.765      0.046     2.4332     22.532     49.910  36.840676     0.4958      6.118   283.9130 2.3791e+00    10.5106      5.653      8.199    11.8979 0.0000e+00
      5.776      0.046     2.4335     22.535     49.901  36.834361     0.4906      6.118   283.9016 2.3497e+00    10.5040      5.665      8.215    11.9010 0.0000e+00
      5.788      0.047     2.4321     22.520     49.879  36.814849     0.4883      6.118   284.0045 2.3007e+00    10.5528      5.676      8.232    11.9028 0.0000e+00
      5.800      0.048     2.4283     22.484     49.856  36.795332     0.5042      6.118   284.1244 2.2547e+00    10.5821      5.687      8.249    11.9032 0.0000e+00
      5.813      0.049     2.4252     22.455     49.846  36.788971     0.5169      6.117   284.1465 2.2112e+00    10.5535      5.700      8.268    11.9044 0.0000e+00
      5.827      0.051     2.4225     22.430     49.862  36.801467     0.5135      6.116   284.1000 2.1689e+00    10.5124      5.715      8.288    11.9056 0.0000e+00
      5.839      0.054     2.4181     22.387     49.894  36.819372     0.5086      6.115   284.1640 2.1225e+00    10.5116      5.728      8.307    11.9022 0.0000e+00
      5.851      0.056     2.4136     22.340     49.901  36.814862     0.4950      6.113   284.3187 2.0652e+00    10.6054      5.737      8.322    11.8970 0.0000e+00
      5.866      0.058     2.4104     22.307     49.906  36.810453     0.4865      6.113   284.3347 2.0021e+00    10.7300      5.751      8.341    11.8995 0.0000e+00
      5.883      0.059     2.4074     22.277     49.936  36.829579     0.4977      6.113   284.3586 1.9459e+00    10.7674      5.769      8.367    11.9035 0.0000e+00
      5.900      0.059     2.4045     22.251     49.968  36.855531     0.5019      6.112   284.5220 1.9184e+00    10.7825      5.787      8.393    11.8963 0.0000e+00
      5.915      0.058     2.4017     22.229     49.978  36.870121     0.5011      6.112   284.5885 1.8943e+00    10.8515      5.802      8.415    11.8838 0.0000e+00
      5.929      0.055     2.3978     22.196     49.982  36.878933     0.5062      6.111   284.5613 1.8566e+00    10.9306      5.814      8.434    11.8754 0.0000e+00
      5.943      0.051     2.3943     22.163     50.011  36.898562     0.5085      6.110   284.6232 1.8233e+00    10.9756      5.828      8.453    11.8720 0.0000e+00
      5.955      0.047     2.3909     22.130     50.041  36.916858     0.5102      6.110   284.7341 1.7856e+00    10.9691      5.840      8.470    11.8734 0.0000e+00
      5.967      0.044     2.3855     22.079     50.034  36.909561     0.5094      6.110   284.7833 1.7511e+00    10.9133      5.851      8.486    11.8832 0.0000e+00
      5.977      0.041     2.3774     22.004     49.986  36.873860     0.4986      6.109   284.7877 1.7271e+00    10.9109      5.862      8.501    11.8931 0.0000e+00
      5.987      0.037     2.3677     21.914     49.976  36.866371     0.4899      6.109   284.7878 1.7001e+00    10.9704      5.872      8.517    11.8889 0.0000e+00
      5.997      0.035     2.3586     21.829     49.999  36.882538     0.4860      6.108   284.7847 1.6608e+00    10.9918      5.882      8.531    11.8822 0.0000e+00
      6.005      0.034     2.3513     21.762     49.992  36.878750     0.4701      6.107   284.8357 1.6262e+00    10.9863      5.889      8.541    11.8814 0.0000e+00
      6.012      0.035     2.3444     21.701     49.994  36.884099     0.4449      6.107   284.9743 1.6178e+00    10.9643      5.896      8.551    11.8816 0.0000e+00
      6.020      0.038     2.3375     21.638     49.989  36.883691     0.4299      6.108   285.0847 1.6008e+00    10.9403      5.903      8.561    11.8815 0.0000e+00
      6.029      0.043     2.3320     21.586     49.976  36.873817     0.4358      6.109   285.0516 1.5706e+00    10.9406      5.911      8.572    11.8792 0.0000e+00
      6.039      0.049     2.3276     21.543     50.007  36.891770     0.4602      6.107   284.9185 1.5555e+00    10.9671      5.922      8.587    11.8807 0.0000e+00
      6.052      0.056     2.3258     21.522     50.045  36.910166     0.4867      6.105   284.8519 1.5320e+00    10.9866      5.935      8.608    11.8866 0.0000e+00
      6.068      0.061     2.3260     21.518     50.055  36.905642     0.4985      6.104   285.1062 1.4814e+00    10.9625      5.950      8.629    11.8901 0.0000e+00
      6.086      0.063     2.3236     21.492     50.061  36.900588     0.5015      6.104   285.6705 1.4272e+00    10.9504      5.968      8.655    11.8902 0.0000e+00
      6.106      0.063     2.3192     21.449     50.085  36.912575     0.5045      6.103   286.1684 1.3834e+00    10.9625      5.988      8.686    11.8861 0.0000e+00
      6.123      0.062     2.3163     21.421     50.104  36.923511     0.4899      6.102   286.3948 1.3550e+00    11.0165      6.007      8.712    11.8752 0.0000e+00
      6.138      0.059     2.3123     21.382     50.083  36.905761     0.4532      6.102   286.3423 1.3418e+00    11.1160      6.020      8.731    11.8609 0.0000e+00
      6.151      0.054     2.3040     21.305     50.060  36.888540     0.4281      6.102   286.0493 1.3262e+00    11.1576      6.031      8.748    11.8519 0.0000e+00
      6.164      0.049     2.2924     21.199     50.079  36.905880     0.4248      6.101   285.6918 1.3118e+00    11.1539      6.045      8.767    11.8467 0.0000e+00
      6.176      0.045     2.2795     21.082     50.099  36.924834     0.4413      6.101   285.5477 1.2853e+00    11.1622      6.057      8.785    11.8429 0.0000e+00
      6.188      0.043     2.2670     20.968     50.098  36.927134     0.4719      6.101   285.5979 1.2450e+00    11.1677      6.068      8.802    11.8408 0.0000e+00
      6.198      0.043     2.2569     20.875     50.104  36.933695     0.4910      6.101   285.6965 1.2333e+00    11.1585      6.079      8.817    11.8401 0.0000e+00
      6.207      0.044     2.2498     20.810     50.110  36.940639     0.4985      6.100   285.8789 1.2323e+00    11.1727      6.087      8.828    11.8431 0.0000e+00
      6.216      0.048     2.2436     20.753     50.119  36.947562     0.4981      6.099   285.9960 1.2007e+00    11.2484      6.095      8.840    11.8495 0.0000e+00
      6.227      0.053     2.2401     20.719     50.133  36.953868     0.4949      6.097   285.9941 1.1564e+00    11.3412      6.106      8.856    11.8532 0.0000e+00
      6.242      0.059     2.2414     20.728     50.141  36.953358     0.4974      6.095   286.0282 1.1257e+00    11.4089      6.120      8.877    11.8529 0.0000e+00
      6.259      0.064     2.2441     20.751     50.132  36.941385     0.5005      6.094   286.1508 1.1101e+00    11.4272      6.138      8.902    11.8564 0.0000e+00
      6.278      0.067     2.2466     20.772     50.129  36.936149     0.5043      6.093   286.2719 1.0844e+00    11.4401      6.156      8.929    11.8593 0.0000e+00
      6.298      0.067     2.2483     20.787     50.156  36.953581     0.5067      6.092   286.2017 1.0308e+00    11.5040      6.177      8.959    11.8540 0.0000e+00
      6.316      0.066     2.2484     20.787     50.171  36.961569     0.5022      6.091   286.0756 9.7734e-01    11.5582      6.196      8.987    11.8452 0.0000e+00
      6.331      0.063     2.2475     20.778     50.183  36.969191     0.4953      6.091   286.1242 9.5063e-01    11.5771      6.210      9.007    11.8402 0.0000e+00
      6.345      0.060     2.2450     20.754     50.202  36.982211     0.4877      6.091   286.2731 9.4416e-01    11.5805      6.223      9.024    11.8385 0.0000e+00
      6.360      0.056     2.2397     20.703     50.217  36.991924     0.4840      6.090   286.3273 9.3548e-01    11.5686      6.237      9.044    11.8357 0.0000e+00
      6.375      0.053     2.2303     20.616     50.262  37.023109     0.4962      6.089   286.1780 9.1069e-01    11.5556      6.252      9.068    11.8326 0.0000e+00
      6.389      0.050     2.2199     20.520     50.289  37.041611     0.5066      6.089   286.0164 8.8042e-01    11.5752      6.266      9.089    11.8309 0.0000e+00
      6.401      0.047     2.2105     20.432     50.268  37.025044     0.5001      6.089   286.0076 8.6349e-01    11.5924      6.278      9.105    11.8301 0.0000e+00
      6.413      0.043     2.2007     20.342     50.251  37.013392     0.4910      6.090   285.9852 8.5622e-01    11.5805      6.289      9.123    11.8292 0.0000e+00
      6.423      0.039     2.1901     20.246     50.267  37.027784     0.4884      6.090   285.8324 8.4338e-01    11.5835      6.299      9.136    11.8273 0.0000e+00
      6.431      0.038     2.1778     20.134     50.322  37.072004     0.4954      6.090   285.7952 8.2960e-01    11.5985      6.307      9.147    11.8248 0.0000e+00
      6.439      0.039     2.1651     20.018     50.362  37.103353     0.5020      6.090   286.0509 8.2966e-01    11.6092      6.314      9.158    11.8241 0.0000e+00
      6.448      0.042     2.1531     19.905     50.347  37.089177     0.4952      6.090   286.3424 8.2809e-01    11.5912      6.323      9.171    11.8257 0.0000e+00
      6.458      0.048     2.1426     19.805     50.357  37.091183     0.4864      6.089   286.4804 8.0544e-01    11.5630      6.333      9.185    11.8274 0.0000e+00
      6.470      0.053     2.1345     19.728     50.412  37.127603     0.4870      6.089   286.5157 7.7193e-01    11.5734      6.344      9.201    11.8323 0.0000e+00
      6.485      0.057     2.1265     19.654     50.442  37.148345     0.4945      6.088   286.4251 7.3793e-01    11.5949      6.359      9.222    11.8363 0.0000e+00
      6.504      0.058     2.1177     19.571     50.449  37.151388     0.4854      6.088   286.4168 7.1484e-01    11.6408      6.377      9.249    11.8311 0.0000e+00
      6.523      0.058     2.1095     19.495     50.469  37.164390     0.4591      6.088   286.5874 6.9846e-01    11.7309      6.397      9.278    11.8239 0.0000e+00
      6.538      0.056     2.1009     19.415     50.492  37.178487     0.4431      6.088   286.6817 6.8135e-01    11.7684      6.412      9.300    11.8209 0.0000e+00
      6.550      0.052     2.0892     19.305     50.518  37.194775     0.4391      6.086   286.6960 6.7484e-01    11.7588      6.423      9.316    11.8198 0.0000e+00
      6.561      0.048     2.0755     19.177     50.575  37.234269     0.4561      6.086   286.6746 6.8456e-01    11.7372      6.434      9.332    11.8184 0.0000e+00
      6.571      0.045     2.0590     19.024     50.634  37.274821     0.4832      6.086   286.5955 6.9331e-01    11.6594      6.444      9.347    11.8168 0.0000e+00
      6.582      0.044     2.0399     18.847     50.677  37.303910     0.4913      6.086   286.5998 6.8664e-01    11.6127      6.455      9.362    11.8141 0.0000e+00
      6.593      0.045     2.0221     18.682     50.717  37.331850     0.4902      6.086   286.6404 6.7439e-01    11.6296      6.465      9.377    11.8105 0.0000e+00
      6.604      0.047     2.0059     18.531     50.757  37.358532     0.4792      6.085   286.5704 6.5638e-01    11.6192      6.476      9.393    11.8077 0.0000e+00
      6.616      0.047     1.9871     18.356     50.779  37.372396     0.4593      6.084   286.5276 6.4240e-01    11.5796      6.489      9.409    11.8052 0.0000e+00
      6.630      0.047     1.9661     18.161     50.782  37.372418     0.4523      6.084   286.6395 6.3269e-01    11.5771      6.503      9.431    11.8032 0.0000e+00
      6.644      0.047     1.9470     17.984     50.765  37.358788     0.4487      6.083   286.8044 6.0870e-01    11.6199      6.515      9.450    11.8012 0.0000e+00
      6.656      0.048     1.9292     17.819     50.732  37.334657     0.4431      6.083   286.8866 5.9162e-01    11.6397      6.526      9.467    11.7985 0.0000e+00
      6.666      0.048     1.9083     17.626     50.732  37.334772     0.4403      6.083   286.9449 5.9486e-01    11.6325      6.537      9.482    11.7959 0.0000e+00
      6.677      0.049     1.8861     17.420     50.767  37.360174     0.4323      6.082   286.9936 5.9215e-01    11.6248      6.547      9.496    11.7940 0.0000e+00
      6.689      0.052     1.8675     17.249     50.806  37.387668     0.4297      6.081   286.9595 5.8000e-01    11.6068      6.558      9.512    11.7926 0.0000e+00
      6.703      0.056     1.8525     17.110     50.842  37.413086     0.4362      6.081   286.9616 5.6314e-01    11.5985      6.573      9.534    11.7927 0.0000e+00
      6.718      0.059     1.8398     16.992     50.843  37.413375     0.4378      6.080   287.1049 5.3374e-01    11.6467      6.587      9.554    11.7932 0.0000e+00
      6.734      0.061     1.8298     16.900     50.814  37.391164     0.4397      6.079   287.2295 5.0995e-01    11.7315      6.602      9.576    11.7927 0.0000e+00
      6.751      0.061     1.8229     16.836     50.824  37.398650     0.4403      6.078   287.1775 5.0005e-01    11.7697      6.621      9.603    11.7921 0.0000e+00
      6.768      0.060     1.8195     16.805     50.967  37.503882     0.4265      6.077   287.0791 4.9188e-01    11.7736      6.638      9.627    11.7910 0.0000e+00
      6.783      0.057     1.8204     16.813     51.249  37.710567     0.4203      6.077   287.0725 4.8399e-01    11.8086      6.652      9.648    11.7900 0.0000e+00
      6.797      0.054     1.8229     16.834     51.465  37.864685     0.4301      6.077   287.1825 4.7823e-01    11.8866      6.666      9.669    11.7894 0.0000e+00
      6.810      0.052     1.8236     16.838     51.530  37.906088     0.4343      6.077   287.3774 4.7622e-01    11.9542      6.679      9.687    11.7892 0.0000e+00
      6.822      0.050     1.8223     16.824     51.606  37.957033     0.4342      6.076   287.4508 4.7820e-01    12.0163      6.690      9.703    11.7894 0.0000e+00
      6.834      0.050     1.8165     16.770     51.719  38.035924     0.4385      6.075   287.3804 4.7559e-01    12.1794      6.702      9.720    11.7900 0.0000e+00
      6.846      0.050     1.8005     16.620     51.807  38.097568     0.4409      6.074   287.3866 4.6681e-01    12.3696      6.713      9.737    11.7860 0.0000e+00
      6.859      0.051     1.7696     16.335     51.855  38.130573     0.4357      6.074   287.5264 4.6215e-01    12.4251      6.726      9.755    11.7772 0.0000e+00
      6.873      0.052     1.7242     15.915     51.839  38.117326     0.4298      6.074   287.7794 4.4785e-01    12.4231      6.740      9.776    11.7722 0.0000e+00
      6.887      0.054     1.6693     15.407     51.855  38.127984     0.4435      6.073   287.9514 4.2306e-01    12.6491      6.754      9.796    11.7690 0.0000e+00
      6.900      0.057     1.6065     14.827     51.950  38.195905     0.4726      6.073   287.8850 4.1891e-01    13.0522      6.766      9.814    11.7655 0.0000e+00
      6.914      0.060     1.5374     14.189     52.012  38.239697     0.4871      6.073   287.8368 4.2864e-01    13.2383      6.779      9.833    11.7634 0.0000e+00
      6.929      0.062     1.4687     13.555     52.064  38.276274     0.4903      6.072   287.8843 4.2229e-01    13.2517      6.794      9.854    11.7621 0.0000e+00
      6.946      0.064     1.4071     12.985     52.127  38.320489     0.4839      6.070   287.9441 4.0093e-01    13.5183      6.811      9.879    11.7614 0.0000e+00
      6.965      0.064     1.3562     12.515     52.141  38.329565     0.4551      6.070   288.1294 3.7848e-01    14.0208      6.831      9.907    11.7602 0.0000e+00
      6.983      0.063     1.3157     12.141     52.133  38.322467     0.4274      6.070   288.5761 3.6657e-01    14.2913      6.849      9.934    11.7581 0.0000e+00
      6.999      0.061     1.2842     11.850     52.101  38.298203     0.4246      6.069   289.1296 3.6672e-01    14.3177      6.864      9.957    11.7559 0.0000e+00
      7.013      0.058     1.2576     11.605     52.091  38.290328     0.4393      6.068   289.0562 3.7161e-01    14.4006      6.878      9.976    11.7542 0.0000e+00
      7.027      0.056     1.2315     11.365     52.177  38.354316     0.4856      6.067   288.3771 3.6669e-01    15.0810      6.891      9.994    11.7529 0.0000e+00
      7.040      0.054     1.2057     11.127     52.289  38.436550     0.5438      6.067   287.9734 3.4366e-01    16.2572      6.904     10.013    11.7519 0.0000e+00
      7.054      0.053     1.1816     10.903     52.320  38.458680     0.5558      6.066   287.8746 3.2398e-01    16.8722      6.916     10.033    11.7508 0.0000e+00
      7.067      0.052     1.1592     10.697     52.283  38.431280     0.5468      6.065   287.6992 3.1660e-01    16.9324      6.930     10.052    11.7505 0.0000e+00
      7.081      0.051     1.1395     10.516     52.272  38.422931     0.5365      6.065   287.5740 3.1655e-01    16.6490      6.944     10.071    11.7517 0.0000e+00
      7.095      0.048     1.1233     10.366     52.270  38.421268     0.5143      6.066   287.6515 3.1764e-01    16.0088      6.958     10.091    11.7518 0.0000e+00
      7.107      0.045     1.1093     10.236     52.257  38.411164     0.5078      6.067   287.6896 3.1355e-01    15.6011      6.970     10.109    11.7508 0.0000e+00
      7.117      0.043     1.0959     10.113     52.281  38.427828     0.5041      6.067   287.6051 3.1026e-01    15.5343      6.980     10.124    11.7501 0.0000e+00
      7.127      0.043     1.0838     10.002     52.373  38.495680     0.4964      6.066   287.5756 3.0749e-01    15.7196      6.991     10.139    11.7500 0.0000e+00
      7.136      0.044     1.0752      9.922     52.597  38.659765     0.5066      6.064   287.5050 3.0099e-01    16.1016      6.997     10.149    11.7497 0.0000e+00
      7.146      0.046     1.0692      9.865     52.909  38.886942     0.5088      6.063   287.3540 2.9833e-01    16.3392      7.006     10.162    11.7491 0.0000e+00
      7.158      0.049     1.0627      9.805     53.179  39.082297     0.4956      6.062   287.2121 3.0103e-01    16.3948      7.019     10.181    11.7487 0.0000e+00
      7.172      0.053     1.0579      9.760     53.317  39.179275     0.4844      6.062   287.0799 2.9814e-01    16.7124      7.033     10.200    11.7486 0.0000e+00
      7.187      0.054     1.0565      9.746     53.309  39.169990     0.4835      6.062   287.0463 2.8889e-01    17.3717      7.048     10.222    11.7488 0.0000e+00
      7.203      0.054     1.0534      9.717     53.299  39.160634     0.4937      6.062   287.1497 2.8142e-01    17.7746      7.064     10.245    11.7470 0.0000e+00
      7.218      0.052     1.0432      9.623     53.431  39.256758     0.4974      6.062   287.3838 2.7972e-01    17.7998      7.079     10.266    11.7432 0.0000e+00
      7.231      0.048     1.0217      9.424     53.599  39.379183     0.4924      6.062   287.5536 2.8033e-01    17.7682      7.092     10.286    11.7387 0.0000e+00
      7.242      0.043     0.9876      9.110     53.585  39.370139     0.4878      6.061   287.4821 2.7024e-01    17.7587      7.103     10.303    11.7350 0.0000e+00
      7.252      0.038     0.9461      8.728     53.447  39.274479     0.4881      6.061   287.2940 2.6036e-01    17.7772      7.112     10.315    11.7335 0.0000e+00
      7.261      0.033     0.9000      8.303     53.390  39.239148     0.4956      6.062   287.0859 2.6701e-01    17.8081      7.120     10.327    11.7338 0.0000e+00
      7.268      0.029     0.8527      7.868     53.419  39.260647     0.4961      6.064   287.0308 2.6841e-01    17.7964      7.128     10.338    11.7326 0.0000e+00
      7.275      0.027     0.8105      7.478     53.452  39.280280     0.4851      6.064   287.1439 2.5721e-01    17.7270      7.134     10.347    11.7304 0.0000e+00
      7.281      0.025     0.7763      7.161     53.464  39.285916     0.4820      6.063   287.0772 2.4829e-01    17.6396      7.141     10.356    11.7379 0.0000e+00
      7.287      0.024     0.7514      6.932     53.434  39.265254     0.4858      6.063   286.9125 2.4331e-01    17.5941      7.147     10.365    11.7480 0.0000e+00
      7.293      0.023     0.7357      6.788     53.366  39.221066     0.4953      6.063   287.0446 2.3845e-01    17.6050      7.152     10.373    11.7461 0.0000e+00
      7.299      0.022     0.7298      6.734     53.328  39.196391     0.5037      6.063   287.2121 2.3496e-01    17.6185      7.158     10.381    11.7398 0.0000e+00
      7.305 -9.990e-29 -9.990e-29 -9.990e-29 -9.990e-29 -9.990e-29 -9.990e-29 -9.990e-29 -9.990e-29 2.3641e-01 -9.990e-29      7.164     10.390    11.7366 0.0000e+00
      7.310 -9.990e-29 -9.990e-29 -9.990e-29 -9.990e-29 -9.990e-29 -9.990e-29 -9.990e-29 -9.990e-29 2.3495e-01 -9.990e-29      7.170     10.398    11.7374 0.0000e+00
      7.313 -9.990e-29 -9.990e-29 -9.990e-29 -9.990e-29 -9.990e-29 -9.990e-29 -9.990e-29 -9.990e-29 2.2033e-01 -9.990e-29      7.173     10.403    11.7448 0.0000e+00
      7.314 -9.990e-29 -9.990e-29 -9.990e-29 -9.990e-29 -9.990e-29 -9.990e-29 -9.990e-29 -9.990e-29 2.0950e-01 -9.990e-29      7.174     10.405    11.7507 0.0000e+00
