* Sea-Bird SBE19plus  Data File:
* FileName = C:\DATA\081318_fcr_0002.hex
* Software version 2.6.3.104
* Temperature SN = 7809
* Conductivity SN = 7809
* System UpLoad Time = Aug 13 2018 19:25:18
* <ApplicationData>
* <Seaterm232>
* <SoftwareVersion>2.6.3.104</SoftwareVersion>
* <BuildDate>30-Jun-2017</BuildDate>
* </Seaterm232>
* </ApplicationData>
* <InstrumentState>
* <HardwareData DeviceType='SBE19plus' SerialNumber='01907809'>
*
*    <Manufacturer>Sea-Bird Electronics, Inc.</Manufacturer>
*
*    <FirmwareVersion>3.1.8</FirmwareVersion>
*
*    <FirmwareDate>Mar  9 2016 16:22:29</FirmwareDate>
*
*    <CommandSetVersion>1.4</CommandSetVersion>
*
*    <PCBAssembly PCBSerialNum='120721' AssemblyNum='41054J'/>
*
*    <PCBAssembly PCBSerialNum='120715' AssemblyNum='41967A'/>
*
*    <PCBAssembly PCBSerialNum='116699' AssemblyNum='41606'/>
*
*    <PCBAssembly PCBSerialNum='120719' AssemblyNum='41059D'/>
*
*    <MfgDate>28-Apr-2017</MfgDate>
*
*    <InternalSensors>
*
*       <Sensor id='Main Temperature'>
*
*          <type>temperature0</type>
*
*          <SerialNumber>01907809</SerialNumber>
*
*       </Sensor>
*
*       <Sensor id='Main Conductivity'>
*
*          <type>conductivity-0</type>
*
*          <SerialNumber>01907809</SerialNumber>
*
*       </Sensor>
*
*       <Sensor id='Main Pressure'>
*
*          <type>strain-0</type>
*
*          <SerialNumber>10586018</SerialNumber>
*
*       </Sensor>
*
*    </InternalSensors>
*
*    <ExternalSensors>
*
*       <Sensor id='volt 0'>
*
*          <type>pH</type>
*
*          <SerialNumber>27-0363</SerialNumber>
*
*       </Sensor>
*
*       <Sensor id='volt 1'>
*
*          <type>ORP</type>
*
*          <SerialNumber>27-0363</SerialNumber>
*
*       </Sensor>
*
*       <Sensor id='volt 2'>
*
*          <type>OXY</type>
*
*          <SerialNumber>43-0434</SerialNumber>
*
*       </Sensor>
*
*       <Sensor id='volt 3'>
*
*          <type>PAR</type>
*
*          <SerialNumber>1122</SerialNumber>
*
*       </Sensor>
*
*       <Sensor id='volt 4'>
*
*          <type>ECO AFL/FL</type>
*
*          <SerialNumber>FLNTURT-2496</SerialNumber>
*
*       </Sensor>
*
*       <Sensor id='volt 5'>
*
*          <type>ECO-NTU</type>
*
*          <SerialNumber>FLNTURT-2496</SerialNumber>
*
*       </Sensor>
*
*       <Sensor id='serial'>
*
*          <type>not assigned</type>
*
*          <SerialNumber>not assigned</SerialNumber>
*
*       </Sensor>
*
*    </ExternalSensors>
*
* </HardwareData>
* <StatusData DeviceType='SBE19plus' SerialNumber='01907809'>
*
*    <DateTime>2018-08-13T23:24:22</DateTime>
*
*    <LoggingState>not logging</LoggingState>
*
*    <EventSummary numEvents='0'/>
*
*    <Power>
*
*       <vMain>13.1</vMain>
*
*       <vLith>8.7</vLith>
*
*       <iMain>63.3</iMain>
*
*       <iPump>132.3</iPump>
*
*       <iExt01>13.6</iExt01>
*
*       <iExt2345>41.9</iExt2345>
*
*    </Power>
*
*    <MemorySummary>
*
*       <Bytes>139955</Bytes>
*
*       <Samples>6085</Samples>
*
*       <SamplesFree>2854703</SamplesFree>
*
*       <SampleLength>23</SampleLength>
*
*       <Profiles>9</Profiles>
*
*    </MemorySummary>
*
* </StatusData>
* <ConfigurationData DeviceType='SBE19plus' SerialNumber='01907809'>
*
*    <ProfileMode>
*
*       <ScansToAverage>1</ScansToAverage>
*
*       <MinimumCondFreq>5</MinimumCondFreq>
*
*       <PumpDelay>45</PumpDelay>
*
*       <AutoRun>no</AutoRun>
*
*       <IgnoreSwitch>no</IgnoreSwitch>
*
*    </ProfileMode>
*
*    <Battery>
*
*       <Type>alkaline</Type>
*
*       <CutOff>7.5</CutOff>
*
*    </Battery>
*
*    <DataChannels>
*
*       <ExtVolt0>yes</ExtVolt0>
*
*       <ExtVolt1>yes</ExtVolt1>
*
*       <ExtVolt2>yes</ExtVolt2>
*
*       <ExtVolt3>yes</ExtVolt3>
*
*       <ExtVolt4>yes</ExtVolt4>
*
*       <ExtVolt5>yes</ExtVolt5>
*
*       <SBE38>no</SBE38>
*
*       <WETLABS>no</WETLABS>
*
*       <OPTODE>no</OPTODE>
*
*       <SBE63>no</SBE63>
*
*       <SeaFET>no</SeaFET>
*
*       <GTD>no</GTD>
*
*    </DataChannels>
*
*    <EchoCharacters>yes</EchoCharacters>
*
*    <OutputExecutedTag>yes</OutputExecutedTag>
*
*    <OutputFormat>raw HEX</OutputFormat>
*
* </ConfigurationData>
* <CalibrationCoefficients DeviceType='SBE19plus' SerialNumber='01907809'>
*
*    <Calibration format='TEMP1' id='Main Temperature'>
*
*       <SerialNum>01907809</SerialNum>
*
*       <CalDate>09-Mar-18</CalDate>
*
*       <TA0>1.210932e-03</TA0>
*
*       <TA1>2.843566e-04</TA1>
*
*       <TA2>-1.945074e-06</TA2>
*
*       <TA3>2.128067e-07</TA3>
*
*       <TOFFSET>0.000000e+00</TOFFSET>
*
*    </Calibration>
*
*    <Calibration format='WBCOND0' id='Main Conductivity'>
*
*       <SerialNum>01907809</SerialNum>
*
*       <CalDate>09-Mar-18</CalDate>
*
*       <G>-1.006721e+00</G>
*
*       <H>1.269065e-01</H>
*
*       <I>-1.405844e-04</I>
*
*       <J>2.478371e-05</J>
*
*       <CPCOR>-9.570000e-08</CPCOR>
*
*       <CTCOR>3.250000e-06</CTCOR>
*
*       <CSLOPE>1.000000e+00</CSLOPE>
*
*    </Calibration>
*
*    <Calibration format='STRAIN0' id='Main Pressure'>
*
*       <SerialNum>10586018</SerialNum>
*
*       <CalDate>07-Mar-18</CalDate>
*
*       <PA0>-4.081764e-02</PA0>
*
*       <PA1>4.851884e-04</PA1>
*
*       <PA2>-3.511682e-12</PA2>
*
*       <PTCA0>5.252134e+05</PTCA0>
*
*       <PTCA1>1.795324e+00</PTCA1>
*
*       <PTCA2>-2.843535e-01</PTCA2>
*
*       <PTCB0>2.516687e+01</PTCB0>
*
*       <PTCB1>3.750000e-04</PTCB1>
*
*       <PTCB2>0.000000e+00</PTCB2>
*
*       <PTEMPA0>-5.378069e+01</PTEMPA0>
*
*       <PTEMPA1>5.366207e+01</PTEMPA1>
*
*       <PTEMPA2>4.872143e-02</PTEMPA2>
*
*       <POFFSET>5.000000e-01</POFFSET>
*
*       <PRANGE>1.600000e+02</PRANGE>
*
*    </Calibration>
*
*    <Calibration format='VOLT0' id='Volt 0'>
*
*       <OFFSET>-4.920000e-02</OFFSET>
*
*       <SLOPE>1.248122e+00</SLOPE>
*
*    </Calibration>
*
*    <Calibration format='VOLT0' id='Volt 1'>
*
*       <OFFSET>-4.784000e-02</OFFSET>
*
*       <SLOPE>1.248871e+00</SLOPE>
*
*    </Calibration>
*
*    <Calibration format='VOLT0' id='Volt 2'>
*
*       <OFFSET>-4.864632e-02</OFFSET>
*
*       <SLOPE>1.248714e+00</SLOPE>
*
*    </Calibration>
*
*    <Calibration format='VOLT0' id='Volt 3'>
*
*       <OFFSET>-4.743790e-02</OFFSET>
*
*       <SLOPE>1.248571e+00</SLOPE>
*
*    </Calibration>
*
*    <Calibration format='VOLT0' id='Volt 4'>
*
*       <OFFSET>-4.671263e-02</OFFSET>
*
*       <SLOPE>1.248951e+00</SLOPE>
*
*    </Calibration>
*
*    <Calibration format='VOLT0' id='Volt 5'>
*
*       <OFFSET>-4.871053e-02</OFFSET>
*
*       <SLOPE>1.249136e+00</SLOPE>
*
*    </Calibration>
*
*    <Calibration format='FREQ0' id='external frequency channel'>
*
*       <EXTFREQSF>1.000014e+00</EXTFREQSF>
*
*    </Calibration>
*
* </CalibrationCoefficients>
* <EventCounters DeviceType='SBE19plus' SerialNumber='01907809'>
*
*    <EventSummary numEvents='0'/>
*
* </EventCounters></InstrumentState>
* <Headers>
*
* cast   2 10 Aug 2018 16:22:13 samples 901 to 1767, avg = 1, stop = mag switch
*
# nquan = 17
# nvalues = 672                         
# units = specified
# name 0 = depFM: Depth [fresh water, m]
# name 1 = tv290C: Temperature [ITS-90, deg C]
# name 2 = sbeox0Mg/L: Oxygen, SBE 43 [mg/l]
# name 3 = sbeox0PS: Oxygen, SBE 43 [% saturation]
# name 4 = c0uS/cm: Conductivity [uS/cm]
# name 5 = specc: Specific Conductance [uS/cm]
# name 6 = ph: pH
# name 7 = orp: Oxidation Reduction Potential [mV]
# name 8 = flECO-AFL: Fluorescence, WET Labs ECO-AFL/FL [mg/m^3]
# name 9 = turbWETntu0: Turbidity, WET Labs ECO [NTU]
# name 10 = sal00: Salinity, Practical [PSU]
# name 11 = dz/dtM: Descent Rate [m/s]
# name 12 = prdM: Pressure, Strain Gauge [db]
# name 13 = prdE: Pressure, Strain Gauge [psi]
# name 14 = scan: Scan Count
# name 15 = par/sat/log: PAR/Logarithmic, Satlantic
# name 16 = flag:  0.000e+00
# span 0 =     -0.570,      9.590       
# span 1 =    11.7846,    27.3200       
# span 2 =     0.1565,     8.8749       
# span 3 =      1.523,    108.474       
# span 4 =   0.664778,  70.972669       
# span 5 =      0.493,     96.693       
# span 6 =      6.069,      8.065       
# span 7 = -1240.7455,   442.1986       
# span 8 =    -1.1605,     6.8864       
# span 9 =    -0.3452,   194.3197       
# span 10 =     0.0124,     0.0464      
# span 11 =     -0.168,      0.178      
# span 12 =     -0.558,      9.404      
# span 13 =     -0.810,     13.639      
# span 14 =          1,        672      
# span 15 = -1.431e+01, 2.2293e+03      
# span 16 = 0.0000e+00, 0.0000e+00      
# interval = seconds: 0.25
# start_time = Aug 10 2018 16:22:13 [Instrument's time stamp, header]
# bad_flag = -9.990e-29
# <Sensors count="9" >
#   <sensor Channel="1" >
#     <!-- Count, Temperature -->
#     <TemperatureSensor SensorID="58" >
#       <SerialNumber>7809</SerialNumber>
#       <CalibrationDate>09-Mar-18</CalibrationDate>
#       <A0>1.21093245e-003</A0>
#       <A1>2.84356597e-004</A1>
#       <A2>-1.94507398e-006</A2>
#       <A3>2.12806664e-007</A3>
#       <Slope>1.00000000</Slope>
#       <Offset>0.0000</Offset>
#     </TemperatureSensor>
#   </sensor>
#   <sensor Channel="2" >
#     <!-- Frequency 0, Conductivity -->
#     <ConductivitySensor SensorID="3" >
#       <SerialNumber>7809</SerialNumber>
#       <CalibrationDate>09-Mar-18</CalibrationDate>
#       <UseG_J>1</UseG_J>
#       <!-- Cell const and series R are applicable only for wide range sensors. -->
#       <SeriesR>0.0000</SeriesR>
#       <CellConst>2000.0000</CellConst>
#       <ConductivityType>0</ConductivityType>
#       <Coefficients equation="0" >
#         <A>0.00000000e+000</A>
#         <B>0.00000000e+000</B>
#         <C>0.00000000e+000</C>
#         <D>0.00000000e+000</D>
#         <M>0.0</M>
#         <CPcor>-9.57000000e-008</CPcor>
#       </Coefficients>
#       <Coefficients equation="1" >
#         <G>-1.00672082e+000</G>
#         <H>1.26906489e-001</H>
#         <I>-1.40584351e-004</I>
#         <J>2.47837121e-005</J>
#         <CPcor>-9.57000000e-008</CPcor>
#         <CTcor>3.2500e-006</CTcor>
#         <!-- WBOTC not applicable unless ConductivityType = 1. -->
#         <WBOTC>0.00000000e+000</WBOTC>
#       </Coefficients>
#       <Slope>1.00000000</Slope>
#       <Offset>0.00000</Offset>
#     </ConductivitySensor>
#   </sensor>
#   <sensor Channel="3" >
#     <!-- Count, Pressure, Strain Gauge -->
#     <PressureSensor SensorID="46" >
#       <SerialNumber>7809</SerialNumber>
#       <CalibrationDate>07-Mar-18</CalibrationDate>
#       <PA0>-4.08176359e-002</PA0>
#       <PA1>4.85188419e-004</PA1>
#       <PA2>-3.51168169e-012</PA2>
#       <PTEMPA0>-5.37806900e+001</PTEMPA0>
#       <PTEMPA1>5.36620721e+001</PTEMPA1>
#       <PTEMPA2>4.87214332e-002</PTEMPA2>
#       <PTCA0>5.25213435e+005</PTCA0>
#       <PTCA1>1.79532409e+000</PTCA1>
#       <PTCA2>-2.84353509e-001</PTCA2>
#       <PTCB0>2.51668750e+001</PTCB0>
#       <PTCB1>3.75000000e-004</PTCB1>
#       <PTCB2>0.00000000e+000</PTCB2>
#       <Offset>0.000000</Offset>
#     </PressureSensor>
#   </sensor>
#   <sensor Channel="4" >
#     <!-- A/D voltage 0, pH -->
#     <pH_Sensor SensorID="43" >
#       <SerialNumber>0363</SerialNumber>
#       <CalibrationDate>16-Mar-18</CalibrationDate>
#       <Slope>4.6194</Slope>
#       <Offset>2.5947</Offset>
#     </pH_Sensor>
#   </sensor>
#   <sensor Channel="5" >
#     <!-- A/D voltage 1, Oxidation Reduction Potential -->
#     <OxidationReductionPotentialSensor SensorID="41" >
#       <SerialNumber>0363</SerialNumber>
#       <CalibrationDate>16-Mar-18</CalibrationDate>
#       <B>2.499480</B>
#       <M>-0.496195</M>
#       <Offset>0.0</Offset>
#     </OxidationReductionPotentialSensor>
#   </sensor>
#   <sensor Channel="6" >
#     <!-- A/D voltage 2, Oxygen, SBE 43 -->
#     <OxygenSensor SensorID="38" >
#       <SerialNumber>0434</SerialNumber>
#       <CalibrationDate>13-Mar-18</CalibrationDate>
#       <Use2007Equation>1</Use2007Equation>
#       <CalibrationCoefficients equation="0" >
#         <!-- Coefficients for Owens-Millard equation. -->
#         <Boc>0.0000</Boc>
#         <Soc>0.0000e+000</Soc>
#         <offset>0.0000</offset>
#         <Pcor>0.00e+000</Pcor>
#         <Tcor>0.0000</Tcor>
#         <Tau>0.0</Tau>
#       </CalibrationCoefficients>
#       <CalibrationCoefficients equation="1" >
#         <!-- Coefficients for Sea-Bird equation - SBE calibration in 2007 and later. -->
#         <Soc>4.5718e-001</Soc>
#         <offset>-0.6113</offset>
#         <A>-4.0649e-003</A>
#         <B> 2.0945e-004</B>
#         <C>-3.3182e-006</C>
#         <D0> 2.5826e+000</D0>
#         <D1> 1.92634e-004</D1>
#         <D2>-4.64803e-002</D2>
#         <E> 3.6000e-002</E>
#         <Tau20> 1.2200</Tau20>
#         <H1>-3.3000e-002</H1>
#         <H2> 5.0000e+003</H2>
#         <H3> 1.4500e+003</H3>
#       </CalibrationCoefficients>
#     </OxygenSensor>
#   </sensor>
#   <sensor Channel="7" >
#     <!-- A/D voltage 3, PAR/Logarithmic, Satlantic -->
#     <PARLog_SatlanticSensor SensorID="76" >
#       <SerialNumber>1122</SerialNumber>
#       <CalibrationDate>22-Jun-2017</CalibrationDate>
#       <a0>9.6090e-001</a0>
#       <a1>8.0780e-001</a1>
#       <Im>1.3589e+000</Im>
#       <Multiplier>1.0000e+000</Multiplier>
#     </PARLog_SatlanticSensor>
#   </sensor>
#   <sensor Channel="8" >
#     <!-- A/D voltage 4, Fluorometer, WET Labs ECO-AFL/FL -->
#     <FluoroWetlabECO_AFL_FL_Sensor SensorID="20" >
#       <SerialNumber>FLNTURT-2496</SerialNumber>
#       <CalibrationDate>25-Jan-2017</CalibrationDate>
#       <ScaleFactor>5.30000000e+001</ScaleFactor>
#       <!-- Dark output -->
#       <Vblank>0.0560</Vblank>
#     </FluoroWetlabECO_AFL_FL_Sensor>
#   </sensor>
#   <sensor Channel="9" >
#     <!-- A/D voltage 5, Turbidity Meter, WET Labs, ECO-NTU -->
#     <TurbidityMeter SensorID="67" >
#       <SerialNumber>FLNTURT-2496</SerialNumber>
#       <CalibrationDate>25-Jan-2017</CalibrationDate>
#       <ScaleFactor>176.000000</ScaleFactor>
#       <!-- Dark output -->
#       <DarkVoltage>0.072000</DarkVoltage>
#     </TurbidityMeter>
#   </sensor>
# </Sensors>
# datcnv_date = Aug 13 2018 19:37:06, 7.26.7.114 [datcnv_vars = 16]
# datcnv_in = C:\DATA\081018_fcr50(2).hex C:\DATA\SBE19plusV2_7809.xmlcon
# datcnv_skipover = 0
# datcnv_ox_hysteresis_correction = yes
# datcnv_ox_tau_correction = yes
# filter_date = Aug 13 2018 19:37:29, 7.26.7.114
# filter_in = C:\DATA\081018_fcr50(2).cnv
# filter_low_pass_tc_A = 0.030
# filter_low_pass_tc_B = 0.150
# filter_low_pass_A_vars = tv290C c0uS/cm par/sat/log
# filter_low_pass_B_vars = prdM prdE
# alignctd_date = Aug 13 2018 19:37:46, 7.26.7.114
# alignctd_in = C:\DATA\081018_fcr50(2).cnv
# alignctd_adv = tv290C 0.500, sbeox0Mg/L 3.000, sbeox0PS 3.000                                                                                                                                                                      
# file_type = ascii
*END*
     -0.569    26.7115     8.1555    101.820   0.867211      0.897      6.425 -1240.7455    -0.1253     0.0711     0.0124 -4.211e-16     -0.558     -0.809          1 3.7436e+02 0.0000e+00
     -0.570    26.7101     8.1575    101.844   0.968005      0.843      6.428 -1240.7455    -0.1900    -0.0363     0.0124     -0.000     -0.558     -0.810          2 4.0000e+02 0.0000e+00
     -0.569    26.7075     8.1565    101.828   1.017485      1.113      6.426 -1240.7455    -0.1981    -0.1437     0.0124     -0.000     -0.558     -0.810          3 4.1720e+02 0.0000e+00
     -0.569    26.7058     8.1573    101.837   0.835245      0.654      6.424 -1240.7455    -0.1738     0.0174     0.0124     -0.000     -0.558     -0.810          4 4.1749e+02 0.0000e+00
     -0.570    26.7078     8.1583    101.849   0.928341      1.059      6.423 -1240.7455    -0.1577     0.0174     0.0124     -0.000     -0.558     -0.810          5 3.9811e+02 0.0000e+00
     -0.569    26.7121     8.1588    101.856   0.664778      0.493      6.418 -1240.7455    -0.2021    -0.0229     0.0125     -0.000     -0.558     -0.810          6 3.8326e+02 0.0000e+00
     -0.569    26.7137     8.1556    101.811   0.807968      0.897      6.417 -1240.7455    -0.1860     0.0577     0.0124     -0.000     -0.558     -0.810          7 3.4238e+02 0.0000e+00
     -0.569    26.7118     8.1592    101.846   0.957384      0.843      6.419 -1240.7455    -0.1577     0.0577     0.0124     -0.000     -0.558     -0.809          8 3.5887e+02 0.0000e+00
     -0.569    26.7084     8.1615    101.865   0.863713      0.897      6.414 -1240.7455    -0.1455     0.0040     0.0124      0.000     -0.558     -0.809          9 2.8841e+02 0.0000e+00
     -0.569    26.7069     8.1633    101.877   0.835721      0.762      6.412 -1240.7455    -0.1941    -0.0363     0.0124      0.000     -0.558     -0.809         10 3.6520e+02 0.0000e+00
     -0.569    26.7075     8.1582    101.805   0.844188      0.843      6.417 -1240.7455    -0.2143    -0.0229     0.0124      0.000     -0.558     -0.809         11 2.2143e+02 0.0000e+00
     -0.569    26.7069     8.1620    101.845   0.882782      0.843      6.422 -1240.7455    -0.1698     0.0040     0.0124      0.000     -0.558     -0.809         12 4.3973e+02 0.0000e+00
     -0.569    26.7056     8.1624    101.841   0.876511      0.843      6.427 -1240.7455    -0.1819    -0.2512     0.0124      0.000     -0.558     -0.809         13 2.2020e+03 0.0000e+00
     -0.569    26.7044     8.1612    101.818   0.851993      0.843      6.423 -1240.7455    -0.2021    -0.2512     0.0124      0.000     -0.558     -0.809         14 2.2293e+03 0.0000e+00
     -0.569    26.7045     8.1649    101.859   0.824476      0.762      6.422 -1240.7455    -0.1941    -0.2109     0.0124      0.000     -0.558     -0.809         15 4.4711e+02 0.0000e+00
     -0.569    26.7046     8.1626    101.826   0.881150      0.897      6.425 -1240.7455    -0.1900    -0.2243     0.0124      0.000     -0.558     -0.809         16 1.5896e+02 0.0000e+00
     -0.569    26.7020     8.1579    101.796   0.781463      0.708      6.428 -1240.7455    -0.1819    -0.2914     0.0124     -0.000     -0.558     -0.809         17 1.0369e+02 0.0000e+00
     -0.569    26.6967     8.1391    101.825   0.889320      0.897      6.426 -1240.7455    -0.1900    -0.2512     0.0124      0.000     -0.558     -0.809         18 2.2393e+02 0.0000e+00
     -0.569    26.6911     8.1223    101.851   0.894954      0.843      6.423 -1240.7455    -0.1860    -0.2512     0.0124      0.000     -0.558     -0.809         19 -1.431e+01 0.0000e+00
     -0.568    26.6855     8.1077    101.822   0.863271      0.843      6.423 -1240.7455    -0.1698    -0.1974     0.0124      0.000     -0.557     -0.808         20 4.3597e+02 0.0000e+00
     -0.568    26.6814     8.0996    101.836   0.869537      0.844      6.422 -1240.7455    -0.1941    -0.1974     0.0124      0.000     -0.557     -0.808         21 1.2649e+03 0.0000e+00
     -0.568    26.6768     8.0913    101.823   0.798338      0.763      6.422 -1240.7455    -0.1536    -0.2243     0.0124      0.000     -0.557     -0.808         22 6.1033e+02 0.0000e+00
     -0.568    26.6732     8.0863    101.827   0.863059      0.844      6.420 -1240.7455    -0.1698    -0.2243     0.0124      0.000     -0.557     -0.808         23 1.0842e+03 0.0000e+00
     -0.568    26.6666     8.0844    101.863   0.788993      0.763      6.419 -1240.7455    -0.1860    -0.2377     0.0124      0.000     -0.557     -0.808         24 8.2458e+02 0.0000e+00
     -0.568    26.6670     8.0907    101.982   0.890512      0.844      6.418 -1240.7455    -0.1860    -0.2243     0.0124      0.001     -0.557     -0.808         25 9.6201e+02 0.0000e+00
     -0.568    26.6588     8.1094    102.235   0.825540      0.844      6.420 -1240.7455    -0.1941    -0.1706     0.0124      0.000     -0.557     -0.807         26 1.7823e+03 0.0000e+00
     -0.568    26.6852     8.1439    102.676   0.958668      0.844      6.417 -1240.7455    -0.1779    -0.1974     0.0124      0.000     -0.553     -0.801         27 5.2965e+02 0.0000e+00
     -0.556    26.8175     8.1695    103.012   0.724835      0.844      6.390 -1240.7455    -0.1738    -0.1572     0.0124      0.003     -0.535     -0.776         28 5.8223e+02 0.0000e+00
     -0.510    26.9499     8.1907    103.282   1.738286      1.411      7.056  -510.1763    -0.1658    -0.3452     0.0124      0.018     -0.501     -0.727         29 1.1389e+03 0.0000e+00
     -0.473    27.0309     8.2106    103.530  15.009054     14.197      7.281  -460.5833    -1.1403     2.4747     0.0161      0.038     -0.460     -0.667         30 7.3830e+02 0.0000e+00
     -0.423    27.0965     8.2266    103.714  32.648849     32.012      7.596   442.1986    -1.1605     2.5553     0.0230      0.065     -0.406     -0.590         31 5.7891e+02 0.0000e+00
     -0.341    27.1449     8.2224    103.641  37.783744     36.096      7.801   382.8006    -1.1322     2.4747     0.0246      0.104     -0.346     -0.502         32 9.5553e+02 0.0000e+00
     -0.299    27.1832     8.1873    103.187  37.404795     36.025      7.822   362.0548    -1.1484     2.4613     0.0246      0.139     -0.299     -0.435         33 1.1433e+03 0.0000e+00
     -0.276    27.2153     8.1308    102.466  37.628314     35.990      7.890   348.8805     1.4274   194.2525     0.0246      0.163     -0.269     -0.390         34 1.0308e+03 0.0000e+00
     -0.247    27.2379     8.0712    101.708  37.564874     36.045      7.948   344.7162     1.4355   194.2123     0.0246      0.175     -0.237     -0.345         35 1.5798e+03 0.0000e+00
     -0.204    27.2462     8.0027    100.848  37.661686     36.022      7.981   334.3812     1.4113   194.3197     0.0246      0.178     -0.195     -0.284         36 6.4826e+02 0.0000e+00
     -0.144    27.2506     7.8980     99.529  37.596798     36.007      7.995   326.0526     1.4315   194.2660     0.0246      0.176     -0.151     -0.219         37 1.7194e+02 0.0000e+00
     -0.117    27.2567     7.7738     97.951  37.645617     36.001      7.981   318.8218     3.3967     2.0719     0.0246      0.169     -0.126     -0.183         38 4.5775e+02 0.0000e+00
     -0.128    27.2592     7.6776     96.727  37.660249     36.052      7.969   307.1239     3.4210     2.1659     0.0247      0.146     -0.122     -0.177         39 2.7901e+02 0.0000e+00
     -0.125    27.2565     7.6117     95.888  37.637906     35.994      7.945   307.7297     3.4452     2.1659     0.0246      0.118     -0.118     -0.171         40 3.8592e+02 0.0000e+00
     -0.106    27.2475     7.5926     95.642  37.614097     35.993      7.914   302.9975     3.4048     2.1122     0.0246      0.101     -0.103     -0.150         41 3.2649e+02 0.0000e+00
     -0.085    27.2368     7.5833     95.517  37.630557     35.994      7.869   302.1646     3.9143     2.5016     0.0246      0.089     -0.086     -0.125         42 3.6123e+02 0.0000e+00
     -0.075    27.2305     7.5539     95.140  37.617426     36.001      7.845   295.2746     3.9102     2.4613     0.0246      0.073     -0.068     -0.099         43 3.4846e+02 0.0000e+00
     -0.047    27.2254     7.5042     94.511  37.541462     35.928      7.831   295.3125     3.9143     2.4344     0.0246      0.060     -0.040     -0.059         44 3.4717e+02 0.0000e+00
     -0.001    27.2222     7.4517     93.850  37.547133     35.932      7.801   293.7603     3.9345     2.4747     0.0246      0.061     -0.005     -0.007         45 2.3960e+02 0.0000e+00
      0.032    27.2241     7.4001     93.199  37.610371     36.016      7.772   291.7160     4.2135     2.2062     0.0246      0.076      0.027      0.040         46 2.3199e+02 0.0000e+00
      0.054    27.2238     7.3320     92.338  37.551749     35.938      7.767   289.8610     4.2014     2.1927     0.0246      0.095      0.051      0.074         47 2.4210e+02 0.0000e+00
      0.071    27.2170     7.2447     91.232  37.620089     36.017      7.769   286.9839     4.1812     2.2733     0.0246      0.103      0.069      0.100         48 2.2505e+02 0.0000e+00
      0.087    27.2100     7.1426     89.932  37.732946     36.124      7.780   286.2646     4.2054     2.2196     0.0247      0.103      0.085      0.124         49 2.1837e+02 0.0000e+00
      0.103    27.2047     7.0308     88.508  37.678246     36.075      7.789   286.5674     4.1852     2.2867     0.0247      0.100      0.101      0.147         50 2.2371e+02 0.0000e+00
      0.119    27.2011     6.9702     87.732  37.628844     36.026      7.799   286.7189     4.3510     2.7433     0.0246      0.094      0.117      0.171         51 2.1860e+02 0.0000e+00
      0.138    27.1969     6.9232     87.133  37.616468     36.030      7.807   285.6210     4.3267     2.6896     0.0246      0.083      0.136      0.197         52 2.0726e+02 0.0000e+00
      0.158    27.1928     6.8988     86.818  37.634330     36.033      7.806   284.4474     4.3389     2.6224     0.0246      0.073      0.156      0.226         53 2.0655e+02 0.0000e+00
      0.181    27.1915     6.9236     87.123  37.665937     36.089      7.804   282.5546     4.3227     2.5956     0.0247      0.070      0.178      0.259         54 1.9853e+02 0.0000e+00
      0.207    27.1913     6.9567     87.536  37.636458     36.038      7.802   280.1317     4.4157     2.2867     0.0246      0.073      0.203      0.295         55 1.9242e+02 0.0000e+00
      0.234    27.1904     6.9893     87.949  37.611698     36.039      7.802   278.3146     4.3874     2.3539     0.0246      0.079      0.229      0.332         56 1.8857e+02 0.0000e+00
      0.261    27.1886     7.0093     88.209  37.548448     35.959      7.797   279.4881     4.3753     2.2733     0.0246      0.085      0.253      0.367         57 1.8488e+02 0.0000e+00
      0.279    27.1845     6.9984     88.084  37.537209     35.960      7.789   280.2453     4.3874     2.3136     0.0246      0.089      0.271      0.394         58 1.8099e+02 0.0000e+00
      0.292    27.1759     6.9775     87.837  37.566364     35.988      7.791   279.0339     4.2499     2.4613     0.0246      0.089      0.286      0.415         59 1.7904e+02 0.0000e+00
      0.305    27.1657     6.9746     87.818  37.541827     35.964      7.796   279.2610     4.2742     2.4479     0.0246      0.086      0.296      0.430         60 1.7694e+02 0.0000e+00
      0.311    27.1573     6.9984     88.128  37.538087     35.970      7.750   279.6774     4.2661     2.5150     0.0246      0.078      0.298      0.433         61 1.7835e+02 0.0000e+00
      0.297    27.1520     7.0666     89.005  37.541362     35.977      7.743   273.9988     4.2742     2.4747     0.0246      0.062      0.285      0.413         62 1.8396e+02 0.0000e+00
      0.265    27.1472     7.1528     90.128  37.537756     35.983      7.781   271.3867     4.4036     2.1927     0.0246      0.036      0.257      0.372         63 1.9237e+02 0.0000e+00
      0.224    27.1422     7.2386     91.241  37.542579     35.986      7.816   271.0460     4.4116     2.1524     0.0246      0.002      0.219      0.317         64 1.9955e+02 0.0000e+00
      0.180    27.1401     7.2989     92.000  37.535363     35.990      7.845   268.6988     4.4036     2.1659     0.0246     -0.036      0.177      0.256         65 2.2107e+02 0.0000e+00
      0.134    27.1421     7.3298     92.381  37.487419     35.939      7.869   268.3960     4.3672     2.1927     0.0246     -0.073      0.132      0.191         66 2.2681e+02 0.0000e+00
      0.089    27.1475     7.3219     92.277  37.483606     35.941      7.885   267.8660     4.3914     2.1793     0.0246     -0.108      0.088      0.127         67 2.4417e+02 0.0000e+00
      0.044    27.1553     7.2839     91.796  37.480785     35.940      7.893   268.3203     4.4036     2.1793     0.0246     -0.138      0.043      0.063         68 2.9545e+02 0.0000e+00
     -0.001    27.1659     7.2109     90.872  37.490925     35.936      7.903   268.3581     4.3955     2.1659     0.0246     -0.160      0.002      0.004         69 2.9062e+02 0.0000e+00
     -0.035    27.1762     7.1162     89.676  37.559966     36.011      7.914   266.8060     4.3995     2.1524     0.0246     -0.168     -0.028     -0.040         70 2.8450e+02 0.0000e+00
     -0.047    27.1831     7.0177     88.432  37.543164     35.977      7.928   266.1624     4.3672     2.0584     0.0246     -0.162     -0.045     -0.065         71 2.9316e+02 0.0000e+00
     -0.056    27.1949     6.9197     87.195  37.541491     35.969      7.939   265.4431     4.2742     2.1390     0.0246     -0.146     -0.056     -0.082         72 2.8567e+02 0.0000e+00
     -0.071    27.2176     6.8267     86.018  37.621365     36.045      7.933   264.9888     4.2782     2.1390     0.0246     -0.126     -0.068     -0.099         73 2.8593e+02 0.0000e+00
     -0.081    27.2364     6.7358     84.871  37.681040     36.091      7.937   265.2917     4.2418     2.1793     0.0247     -0.104     -0.078     -0.114         74 2.8734e+02 0.0000e+00
     -0.089    27.2369     6.6423     83.689  37.674842     36.075      7.939   263.3610     4.2782     2.1122     0.0247     -0.082     -0.085     -0.124         75 2.8538e+02 0.0000e+00
     -0.092    27.2311     6.5588     82.634  37.629069     36.008      7.950   261.3167     4.2984     1.9107     0.0246     -0.060     -0.088     -0.128         76 2.8585e+02 0.0000e+00
     -0.089    27.2289     6.4837     81.684  37.619354     36.008      7.956   261.1274     4.2661     1.9107     0.0246     -0.041     -0.087     -0.127         77 2.8686e+02 0.0000e+00
     -0.089    27.2273     6.4227     80.912  37.627608     36.012      7.948   259.9159     4.2620     2.0182     0.0246     -0.028     -0.087     -0.126         78 2.8464e+02 0.0000e+00
     -0.088    27.2251     6.3565     80.077  37.618797     36.013      7.939   258.9695     4.2661     1.9913     0.0246     -0.020     -0.086     -0.125         79 2.8597e+02 0.0000e+00
     -0.087    27.2232     6.2917     79.259  37.630320     36.015      7.932   258.9695     4.2701     1.9107     0.0246     -0.012     -0.086     -0.125         80 2.8475e+02 0.0000e+00
     -0.089    27.2217     6.2294     78.473  37.672591     36.070      7.936   259.9538     4.2822     1.9242     0.0247     -0.006     -0.087     -0.126         81 2.8590e+02 0.0000e+00
     -0.089    27.2196     6.1700     77.722  37.684835     36.071      7.948   258.8559     4.2701     1.9376     0.0247     -0.002     -0.088     -0.127         82 2.8724e+02 0.0000e+00
     -0.090    27.2172     6.1163     77.042  37.674404     36.072      7.960   258.8181     4.2782     1.9107     0.0247      0.000     -0.088     -0.128         83 2.8751e+02 0.0000e+00
     -0.090    27.2154     6.0630     76.368  37.685572     36.073      7.971   258.2881     4.2903     1.9376     0.0247     -0.000     -0.089     -0.129         84 2.9063e+02 0.0000e+00
     -0.091    27.2133     6.0099     75.698  37.670938     36.075      7.977   256.3952     4.2863     1.8705     0.0247     -0.001     -0.089     -0.130         85 2.9143e+02 0.0000e+00
     -0.091    27.2110     5.9596     75.061  37.692619     36.076      7.979   256.3574     4.2620     1.9376     0.0247     -0.002     -0.089     -0.130         86 2.9152e+02 0.0000e+00
     -0.091    27.2087     5.9069     74.395  37.717912     36.131      7.985   259.8781     4.2661     1.8705     0.0247     -0.002     -0.089     -0.130         87 2.9410e+02 0.0000e+00
     -0.091    27.2065     5.8648     73.862  37.698781     36.079      7.986   258.8559     4.2095     2.1256     0.0247     -0.002     -0.089     -0.129         88 2.9477e+02 0.0000e+00
     -0.091    27.2054     5.8187     73.279  37.716428     36.134      7.989   258.0609     4.2014     2.1793     0.0247     -0.001     -0.089     -0.129         89 2.9583e+02 0.0000e+00
     -0.090    27.2045     5.7806     72.797  37.695954     36.083      7.987   256.5466     4.2216     2.1659     0.0247     -0.001     -0.089     -0.129         90 2.9874e+02 0.0000e+00
     -0.091    27.2032     5.7362     72.235  37.724263     36.137      7.994   256.7738     4.2054     2.0987     0.0247     -0.000     -0.090     -0.130         91 2.9952e+02 0.0000e+00
     -0.091    27.2012     5.6977     71.748  37.740520     36.137      7.996   259.1209     4.2054     2.1524     0.0247     -0.000     -0.090     -0.130         92 3.0021e+02 0.0000e+00
     -0.091    27.1989     5.6642     71.324  37.735044     36.138      7.995   258.7424     4.1569     1.9376     0.0247     -0.000     -0.089     -0.130         93 3.0098e+02 0.0000e+00
     -0.091    27.1972     5.6292     70.882  37.731078     36.140      8.000   258.7802     4.1448     1.9779     0.0247     -0.000     -0.089     -0.130         94 2.9980e+02 0.0000e+00
     -0.091    27.1956     5.6024     70.543  37.686136     36.088      7.999   257.6824     4.1609     1.8705     0.0247      0.000     -0.089     -0.130         95 2.9919e+02 0.0000e+00
     -0.091    27.1937     5.5721     70.159  37.672332     36.089      8.000   256.4331     4.1367     1.9107     0.0247     -0.000     -0.090     -0.130         96 2.9885e+02 0.0000e+00
     -0.092    27.1918     5.5393     69.744  37.688935     36.090      8.004   257.1902     4.2742     1.9107     0.0247     -0.000     -0.090     -0.131         97 2.9659e+02 0.0000e+00
     -0.092    27.1899     5.5135     69.418  37.724795     36.145      8.005   255.6381     4.2903     1.9376     0.0247     -0.000     -0.090     -0.131         98 2.9548e+02 0.0000e+00
     -0.092    27.1880     5.4889     69.107  37.687030     36.093      8.008   257.1145     4.2580     1.9376     0.0247     -0.000     -0.090     -0.131         99 2.9508e+02 0.0000e+00
     -0.091    27.1860     5.4723     68.896  37.676615     36.094      8.010   257.5688     4.3025     1.9913     0.0247     -0.000     -0.089     -0.130        100 2.9375e+02 0.0000e+00
     -0.091    27.1840     5.4508     68.623  37.678435     36.095      8.012   257.1524     4.3914     1.9242     0.0247     -0.000     -0.089     -0.129        101 2.9312e+02 0.0000e+00
     -0.089    27.1822     5.4280     68.334  37.684764     36.097      8.011   256.6224     4.4399     1.9645     0.0247      0.000     -0.088     -0.127        102 2.9146e+02 0.0000e+00
     -0.089    27.1809     5.4049     68.041  37.728060     36.152      8.012   253.3666     4.3995     2.0719     0.0247      0.001     -0.088     -0.127        103 2.9011e+02 0.0000e+00
     -0.090    27.1798     5.3884     67.831  37.743198     36.153      8.013   253.5938     4.4278     2.0047     0.0247      0.001     -0.088     -0.128        104 2.8924e+02 0.0000e+00
     -0.090    27.1780     5.3696     67.593  37.725246     36.154      8.015   253.3666     4.2378     2.1659     0.0247      0.001     -0.088     -0.128        105 2.8794e+02 0.0000e+00
     -0.089    27.1761     5.3485     67.326  37.691079     36.101      8.016   253.0638     4.2216     2.1122     0.0247      0.001     -0.088     -0.128        106 2.8800e+02 0.0000e+00
     -0.090    27.1748     5.3254     67.032  37.667077     36.102      8.016   254.2752     4.2256     2.1390     0.0247      0.001     -0.087     -0.127        107 2.8689e+02 0.0000e+00
     -0.088    27.1738     5.3033     66.752  37.695797     36.103      8.015   254.5024     4.2054     2.1659     0.0247      0.001     -0.087     -0.126        108 2.8482e+02 0.0000e+00
     -0.088    27.1730     5.2843     66.512  37.714660     36.158      8.015   250.7923     4.2822     1.9376     0.0247      0.001     -0.087     -0.126        109 2.8464e+02 0.0000e+00
     -0.089    27.1715     5.2643     66.259  37.702923     36.105      8.016   250.6788     4.2580     1.8167     0.0247      0.001     -0.087     -0.126        110 2.8427e+02 0.0000e+00
     -0.088    27.1697     5.2496     66.072  37.769725     36.213      8.014   249.9595     4.2742     1.9779     0.0247      0.001     -0.086     -0.125        111 2.8368e+02 0.0000e+00
     -0.087    27.1677     5.2331     65.864  37.750171     36.160      8.016   251.0952     4.2944     1.9107     0.0247      0.001     -0.085     -0.124        112 2.8373e+02 0.0000e+00
     -0.087    27.1658     5.2174     65.664  37.667937     36.108      8.020   250.9438     4.2782     1.8705     0.0247      0.001     -0.085     -0.124        113 2.8318e+02 0.0000e+00
     -0.087    27.1644     5.1971     65.407  37.694101     36.109      8.020   249.6566     4.4804     1.9510     0.0247      0.001     -0.085     -0.124        114 2.8215e+02 0.0000e+00
     -0.088    27.1629     5.1847     65.251  37.717612     36.164      8.021   248.7859     4.4844     1.8973     0.0247      0.001     -0.086     -0.125        115 2.8240e+02 0.0000e+00
     -0.089    27.1612     5.1873     65.282  37.697999     36.112      8.025   248.5966     4.4399     1.8705     0.0247      0.000     -0.087     -0.127        116 2.8261e+02 0.0000e+00
     -0.089    27.1596     5.1969     65.431  37.718509     36.166      8.025   247.9152     4.4885     2.0316     0.0247     -0.000     -0.087     -0.127        117 2.8268e+02 0.0000e+00
     -0.089    27.1580     5.2245     65.812  37.692090     36.114      8.029   247.7638     4.4197     2.0450     0.0247     -0.001     -0.087     -0.126        118 2.8258e+02 0.0000e+00
     -0.088    27.1566     5.2654     66.322  37.730880     36.169      8.029   247.7638     4.4076     1.8705     0.0247     -0.001     -0.086     -0.126        119 2.8246e+02 0.0000e+00
     -0.088    27.1559     5.3434     67.302  37.788879     36.223      8.026   251.0952     4.3914     1.9242     0.0247     -0.001     -0.086     -0.126        120 2.8203e+02 0.0000e+00
     -0.089    27.1546     5.4636     68.829  37.738552     36.170      8.028   249.3159     4.3874     1.9376     0.0247     -0.001     -0.086     -0.126        121 2.8254e+02 0.0000e+00
     -0.089    27.1534     5.5994     70.550  37.734190     36.171      8.028   248.5966     4.3429     2.1256     0.0247     -0.001     -0.086     -0.125        122 2.8119e+02 0.0000e+00
     -0.084    27.1520     5.7213     72.092  37.675667     36.118      8.027   247.8395     4.3672     2.1122     0.0247      0.001     -0.081     -0.117        123 2.8481e+02 0.0000e+00
     -0.073    27.1513     5.8256     73.407  37.633419     36.066      8.028   246.2116     4.3267     2.0987     0.0246      0.005     -0.069     -0.100        124 2.8318e+02 0.0000e+00
     -0.055    27.1495     5.8956     74.293  37.608803     36.066      8.028   249.5809     4.3348     2.0987     0.0246      0.012     -0.049     -0.070        125 2.9436e+02 0.0000e+00
     -0.018    27.1497     5.9618     75.129  37.558000     35.987      8.013   248.8238     4.4238     2.1122     0.0246      0.027     -0.020     -0.029        126 2.8257e+02 0.0000e+00
      0.012    27.1740     6.0433     76.159  37.607663     36.068      7.985   248.9373     4.4197     2.1256     0.0246      0.045      0.007      0.010        127 2.4334e+02 0.0000e+00
      0.025    27.2003     6.1452     77.446  37.635981     36.069      7.970   248.4831     4.3833     2.1524     0.0246      0.061      0.024      0.035        128 2.5405e+02 0.0000e+00
      0.039    27.1981     6.2585     78.873  37.611737     36.052      7.975   246.5902     4.3753     2.1390     0.0246      0.072      0.039      0.057        129 2.5564e+02 0.0000e+00
      0.056    27.1958     6.4159     80.852  37.548843     35.952      7.981   246.0602     4.5774     2.1659     0.0246      0.079      0.057      0.082        130 2.4029e+02 0.0000e+00
      0.078    27.2053     6.6236     83.468  37.565940     35.982      7.990   247.3095     4.5855     2.1122     0.0246      0.083      0.079      0.113        131 2.2584e+02 0.0000e+00
      0.106    27.2140     6.8738     86.622  37.679440     36.090      7.984   247.6123     4.6098     2.1390     0.0247      0.084      0.104      0.151        132 2.0958e+02 0.0000e+00
      0.134    27.2186     7.0772     89.185  37.733860     36.137      7.977   247.2716     4.6017     2.1390     0.0247      0.084      0.130      0.188        133 2.0768e+02 0.0000e+00
      0.157    27.2199     7.2470     91.323  37.735496     36.131      7.971   247.4609     4.5774     2.1524     0.0247      0.083      0.150      0.217        134 2.0640e+02 0.0000e+00
      0.168    27.2218     7.3760     92.946  37.736720     36.127      7.961   246.2873     4.6340     2.1793     0.0247      0.082      0.164      0.237        135 2.0505e+02 0.0000e+00
      0.177    27.2237     7.4402     93.755  37.732335     36.127      7.974   245.1516     4.6624     2.1390     0.0247      0.082      0.175      0.254        136 1.9715e+02 0.0000e+00
      0.192    27.2255     7.4600     94.010  37.740953     36.125      7.983   244.8109     4.6624     2.1659     0.0247      0.079      0.187      0.272        137 1.9205e+02 0.0000e+00
      0.202    27.2279     7.4490     93.890  37.725993     36.124      7.990   244.4323     4.6826     2.1659     0.0247      0.072      0.198      0.287        138 1.9788e+02 0.0000e+00
      0.211    27.2272     7.4235     93.589  37.691631     36.069      7.998   244.8109     4.7917     2.1390     0.0247      0.063      0.212      0.307        139 1.9240e+02 0.0000e+00
      0.236    27.2239     7.3876     93.141  37.665075     36.068      8.007   245.1516     4.7594     2.1659     0.0247      0.057      0.233      0.338        140 1.8298e+02 0.0000e+00
      0.264    27.2227     7.3688     92.898  37.640398     36.015      8.006   246.0223     4.7917     2.1390     0.0246      0.057      0.257      0.373        141 1.8296e+02 0.0000e+00
      0.285    27.2233     7.3469     92.613  37.663020     36.070      8.009   241.6309     4.8120     2.1524     0.0247      0.061      0.280      0.405        142 1.7773e+02 0.0000e+00
      0.307    27.2234     7.3186     92.255  37.636924     36.018      8.013   243.2209     4.8120     2.0450     0.0246      0.069      0.301      0.435        143 1.7417e+02 0.0000e+00
      0.327    27.2223     7.2816     91.812  37.672873     36.071      8.016   242.7287     4.7998     2.0719     0.0247      0.076      0.324      0.470        144 1.7128e+02 0.0000e+00
      0.357    27.2209     7.2406     91.334  37.677602     36.071      8.021   244.8488     4.8201     2.1659     0.0247      0.083      0.358      0.519        145 1.6323e+02 0.0000e+00
      0.411    27.2206     7.1978     90.843  37.631041     36.018      8.022   246.0223     4.8403     2.1524     0.0246      0.098      0.404      0.587        146 1.5525e+02 0.0000e+00
      0.469    27.2241     7.1615     90.403  37.671499     36.073      8.030   244.3945     4.9131     2.3270     0.0247      0.117      0.454      0.659        147 1.4881e+02 0.0000e+00
      0.510    27.2350     7.1269     89.958  37.627254     36.019      8.039   244.7730     4.8726     2.2733     0.0246      0.132      0.493      0.715        148 1.4637e+02 0.0000e+00
      0.530    27.2470     7.0764     89.300  37.626784     36.017      8.038   245.2273     4.8848     2.3002     0.0246      0.140      0.517      0.749        149 1.4655e+02 0.0000e+00
      0.540    27.2499     7.0158     88.501  37.672083     36.063      8.045   244.6595     4.8969     2.3404     0.0247      0.142      0.533      0.773        150 1.4393e+02 0.0000e+00
      0.562    27.2467     6.9501     87.633  37.630196     36.001      8.050   245.4923     5.0950     3.6027     0.0246      0.138      0.557      0.808        151 1.4044e+02 0.0000e+00
      0.604    27.2414     6.8775     86.694  37.619586     35.999      8.055   246.4009     5.0788     3.4684     0.0246      0.133      0.592      0.859        152 1.3701e+02 0.0000e+00
      0.647    27.2413     6.8264     86.041  37.625966     36.001      8.052   246.2116     5.0708     3.5892     0.0246      0.128      0.631      0.915        153 1.3324e+02 0.0000e+00
      0.680    27.2547     6.7876     85.552  37.622258     36.005      8.049   245.8330     5.0829     3.5490     0.0246      0.120      0.665      0.964        154 1.3054e+02 0.0000e+00
      0.709    27.2792     6.7408     84.964  37.624201     36.006      8.047   246.0980     5.0788     2.5150     0.0246      0.116      0.693      1.004        155 1.2922e+02 0.0000e+00
      0.731    27.3077     6.6946     84.377  37.623546     35.995      8.047   245.6438     5.0869     2.4613     0.0246      0.117      0.713      1.034        156 1.2879e+02 0.0000e+00
      0.741    27.3200     6.6413     83.701  37.623067     35.979      8.038   245.7952     5.0748     2.4747     0.0246      0.117      0.726      1.053        157 1.2757e+02 0.0000e+00
      0.751    27.3149     6.5910     83.075  37.624786     35.959      8.044   249.2023     5.0869     2.5284     0.0246      0.111      0.739      1.073        158 1.2638e+02 0.0000e+00
      0.772    27.3026     6.5200     82.210  37.621394     35.951      8.050   248.8616     5.0748     2.5419     0.0246      0.099      0.759      1.102        159 1.2585e+02 0.0000e+00
      0.798    27.2801     6.4552     81.402  37.627281     35.954      8.056   248.4831     5.0344     2.2464     0.0246      0.087      0.791      1.147        160 1.2204e+02 0.0000e+00
      0.852    27.2555     6.4152     80.887  37.617461     35.963      8.053   249.2023     5.0263     2.1927     0.0246      0.086      0.836      1.213        161 1.1767e+02 0.0000e+00
      0.907    27.2403     6.4355     81.124  37.544642     35.898      8.056   247.2716     5.0101     2.2599     0.0246      0.098      0.884      1.283        162 1.1641e+02 0.0000e+00
      0.946    27.2344     6.4959     81.876  37.539953     35.915      8.056   246.7038     4.9939     2.1659     0.0246      0.114      0.928      1.346        163 1.1393e+02 0.0000e+00
      0.990    27.2346     6.5534     82.630  37.623309     36.006      8.061   250.0352     5.0182     2.2196     0.0246      0.134      0.967      1.403        164 1.1198e+02 0.0000e+00
      1.021    27.2354     6.6000     83.245  37.618877     36.010      8.064   250.5652     5.0263     2.1927     0.0246      0.150      1.002      1.454        165 1.1093e+02 0.0000e+00
      1.056    27.2330     6.6424     83.794  37.545471     35.929      8.065   250.1866     5.0263     2.3002     0.0246      0.160      1.039      1.507        166 1.0820e+02 0.0000e+00
      1.103    27.2293     6.6706     84.148  37.536700     35.929      8.061   249.6566     5.0505     2.2464     0.0246      0.165      1.077      1.562        167 1.0686e+02 0.0000e+00
      1.132    27.2363     6.7198     84.749  37.540814     35.930      8.062   249.6945     5.2810     2.1390     0.0246      0.161      1.108      1.607        168 1.0617e+02 0.0000e+00
      1.156    27.2551     6.7433     85.028  37.570015     35.960      8.059   249.3538     5.2527     2.1390     0.0246      0.149      1.130      1.640        169 1.0553e+02 0.0000e+00
      1.170    27.2616     6.7413     84.998  37.619002     36.009      8.056   249.6566     5.2810     2.1524     0.0246      0.134      1.149      1.668        170 1.0529e+02 0.0000e+00
      1.192    27.2544     6.7759     85.138  37.539166     35.915      8.055   249.3159     5.2689     2.1793     0.0246      0.122      1.174      1.703        171 1.0362e+02 0.0000e+00
      1.231    27.2409     6.9645     86.654  37.550720     35.911      8.040   250.7545     5.5762     1.8705     0.0246      0.115      1.208      1.752        172 1.0214e+02 0.0000e+00
      1.271    27.2358     7.3242     90.431  37.604622     35.996      8.028   251.5116     5.6166     1.8436     0.0246      0.114      1.243      1.802        173 1.0176e+02 0.0000e+00
      1.299    27.2541     7.7333     95.057  37.561071     35.925      8.015   251.5873     5.6247     1.9645     0.0246      0.112      1.272      1.845        174 1.0096e+02 0.0000e+00
      1.322    27.2730     8.0300     98.446  37.604922     36.009      8.007   248.4452     5.5681     1.9107     0.0246      0.109      1.296      1.880        175 1.0036e+02 0.0000e+00
      1.344    27.2823     8.2708    101.240  37.550051     35.916      7.995   250.4895     5.9037     2.2330     0.0246      0.110      1.317      1.910        176 1.0042e+02 0.0000e+00
      1.361    27.2803     8.4825    103.770  37.540371     35.903      7.989   250.4138     5.9037     2.1390     0.0246      0.109      1.337      1.939        177 9.9915e+01 0.0000e+00
      1.384    27.2695     8.6812    106.199  37.616962     35.977      7.983   250.0352     5.9037     2.1659     0.0246      0.107      1.360      1.973        178 9.8429e+01 0.0000e+00
      1.417    27.2560     8.8124    107.798  37.543711     35.897      7.967   252.6473     5.9078     2.1927     0.0246      0.104      1.386      2.011        179 9.8324e+01 0.0000e+00
      1.439    27.2561     8.8749    108.474  37.572210     35.933      7.955   249.5431     5.8714     2.1927     0.0246      0.097      1.409      2.043        180 9.8511e+01 0.0000e+00
      1.455    27.0447     8.8545    108.102  37.611162     35.994      7.952   249.8081     5.9037     2.1256     0.0246      0.091      1.426      2.068        181 9.7295e+01 0.0000e+00
      1.469    26.5253     8.8059    107.418  37.139321     35.542      7.950   250.0731     5.9037     2.0719     0.0245      0.087      1.441      2.090        182 9.6815e+01 0.0000e+00
      1.485    26.0869     8.7598    106.799  36.557803     35.083      7.949   250.3002     5.8916     2.1390     0.0242      0.083      1.456      2.111        183 9.7012e+01 0.0000e+00
      1.498    25.8479     8.6938    105.922  36.407099     35.347      7.948   251.2466     5.9037     2.1390     0.0242      0.078      1.472      2.136        184 9.6002e+01 0.0000e+00
      1.523    25.6986     8.6115    104.835  36.259356     35.477      7.942   251.4738     5.9644     2.1256     0.0241      0.076      1.493      2.166        185 9.4576e+01 0.0000e+00
      1.548    25.6168     8.5039    103.431  36.119039     35.511      7.925   251.3223     5.9806     2.1659     0.0241      0.073      1.513      2.195        186 9.4399e+01 0.0000e+00
      1.558    25.5814     8.3825    101.873  36.107316     35.612      7.918   250.9438     5.9401     2.1122     0.0241      0.069      1.526      2.213        187 9.4008e+01 0.0000e+00
      1.564    25.5823     8.2411    100.112  36.125729     35.672      7.908   251.4359     5.9604     2.1927     0.0241      0.066      1.533      2.223        188 9.3522e+01 0.0000e+00
      1.567    25.5767     8.1184     98.565  36.185143     35.778      7.905   250.7923     5.9199     2.1659     0.0241      0.061      1.539      2.232        189 9.3336e+01 0.0000e+00
      1.577    25.5338     7.9997     97.046  36.122372     35.695      7.901   251.6631     5.9159     2.1524     0.0241      0.055      1.548      2.245        190 9.2474e+01 0.0000e+00
      1.591    25.4716     7.8885     95.634  36.114876     35.697      7.895   252.1931     5.8957     2.0450     0.0241      0.050      1.559      2.261        191 9.1960e+01 0.0000e+00
      1.600    25.4264     7.8070     94.639  36.164819     35.784      7.887   254.2752     5.8714     2.1793     0.0241      0.045      1.570      2.276        192 9.1671e+01 0.0000e+00
      1.612    25.3957     7.7309     93.710  36.119555     35.773      7.885   253.9724     5.5075     2.2733     0.0241      0.039      1.582      2.295        193 9.0720e+01 0.0000e+00
      1.629    25.3592     7.6836     93.084  36.111917     35.805      7.877   253.9345     5.5236     2.2062     0.0241      0.038      1.596      2.316        194 8.9971e+01 0.0000e+00
      1.642    25.3154     7.6517     92.655  36.115031     35.826      7.869   252.4959     5.5439     2.2464     0.0241      0.042      1.611      2.338        195 8.9407e+01 0.0000e+00
      1.661    25.2657     7.6349     92.420  36.115698     35.853      7.863   253.0638     5.4913     2.2464     0.0241      0.048      1.629      2.364        196 8.8282e+01 0.0000e+00
      1.684    25.2231     7.6211     92.150  36.111105     35.884      7.854   256.3195     5.5236     2.1390     0.0241      0.055      1.649      2.392        197 8.7259e+01 0.0000e+00
      1.701    25.1986     7.5954     91.729  36.061452     35.864      7.840   256.3952     5.5560     2.0182     0.0241      0.060      1.666      2.416        198 8.6902e+01 0.0000e+00
      1.711    25.1682     7.5504     91.169  35.999565     35.839      7.830   256.4709     5.5479     2.1659     0.0241      0.063      1.679      2.436        199 8.6649e+01 0.0000e+00
      1.726    25.1240     7.4849     90.410  36.010192     35.856      7.825   255.9409     5.5358     2.1122     0.0241      0.065      1.693      2.456        200 8.5993e+01 0.0000e+00
      1.743    25.0895     7.4189     89.596  36.048240     35.933      7.816   256.4331     5.5156     2.0853     0.0241      0.065      1.707      2.477        201 8.5176e+01 0.0000e+00
      1.754    25.0842     7.3373     88.562  36.011548     35.909      7.802   256.5466     5.8390     1.9107     0.0241      0.063      1.718      2.492        202 8.5075e+01 0.0000e+00
      1.760    25.0798     7.2698     87.717  36.055876     35.991      7.789   256.8495     5.8188     1.9242     0.0241      0.058      1.727      2.504        203 8.4855e+01 0.0000e+00
      1.769    25.0502     7.2112     86.848  36.052406     35.994      7.784   257.8338     5.8633     1.9107     0.0241      0.052      1.735      2.516        204 8.4334e+01 0.0000e+00
      1.777    25.0261     7.1555     85.920  36.015870     35.940      7.780   257.2281     5.8714     1.8973     0.0241      0.046      1.744      2.529        205 8.4084e+01 0.0000e+00
      1.787    25.0053     7.0802     84.815  36.042033     36.018      7.776   257.1145     6.2677     1.8302     0.0241      0.042      1.758      2.549        206 8.3476e+01 0.0000e+00
      1.814    24.9457     6.9680     83.281  36.019859     35.980      7.775   257.7581     6.2758     2.0047     0.0241      0.044      1.778      2.579        207 8.2280e+01 0.0000e+00
      1.837    24.8825     6.7514     80.508  36.043477     36.049      7.762   257.0009     6.3041     1.8705     0.0241      0.048      1.798      2.607        208 8.1148e+01 0.0000e+00
      1.849    24.8717     6.4912     77.285  36.012656     36.037      7.751   257.6824     6.2879     1.9107     0.0241      0.052      1.809      2.624        209 8.0947e+01 0.0000e+00
      1.849    24.8896     6.1954     73.714  35.998924     36.084      7.739   257.6445     6.8864     1.9645     0.0241      0.054      1.813      2.629        210 8.1246e+01 0.0000e+00
      1.849    24.8790     5.8966     70.050  36.001275     36.091      7.734   258.0609     6.8378     1.9107     0.0241      0.052      1.816      2.634        211 8.0832e+01 0.0000e+00
      1.858    24.8528     5.6125     66.513  36.009740     36.078      7.732   258.2502     6.8500     1.9107     0.0241      0.048      1.824      2.644        212 8.0050e+01 0.0000e+00
      1.869    24.8296     5.3406     63.177  36.047704     36.141      7.727   258.7424     6.8621     2.0450     0.0241      0.043      1.838      2.665        213 7.9658e+01 0.0000e+00
      1.894    24.7292     5.1173     60.458  36.013349     36.106      7.723   258.2502     6.4820     1.9376     0.0241      0.042      1.865      2.705        214 7.7732e+01 0.0000e+00
      1.945    24.5712     4.9135     57.947  35.993188     36.120      7.702   259.2345     6.4779     1.9107     0.0241      0.049      1.905      2.763        215 7.5011e+01 0.0000e+00
      1.986    24.4409     4.7501     55.844  36.013499     36.193      7.676   259.6131     6.4941     1.8167     0.0241      0.065      1.942      2.817        216 7.4106e+01 0.0000e+00
      2.006    24.3196     4.6092     53.969  36.047437     36.368      7.660   260.2945     6.4375     1.9376     0.0241      0.083      1.972      2.860        217 7.2754e+01 0.0000e+00
      2.042    24.1967     4.4808     52.314  36.010338     36.405      7.643   261.0138     6.1504     2.2196     0.0241      0.103      2.004      2.906        218 7.0154e+01 0.0000e+00
      2.082    24.1153     4.3305     50.433  36.000420     36.496      7.625   262.1117     6.1504     2.0719     0.0241      0.121      2.034      2.951        219 6.9185e+01 0.0000e+00
      2.097    24.0759     4.1862     48.602  36.000526     36.586      7.601   262.3767     6.1342     2.1390     0.0241      0.128      2.055      2.981        220 6.8935e+01 0.0000e+00
      2.110    23.9937     4.0539     46.936  35.950946     36.592      7.587   262.7931     6.1464     2.0987     0.0241      0.124      2.071      3.005        221 6.7744e+01 0.0000e+00
      2.133    23.8654     3.9285     45.313  35.943529     36.618      7.576   263.2095     6.1181     2.1122     0.0241      0.114      2.090      3.032        222 6.6879e+01 0.0000e+00
      2.151    23.7697     3.8188     43.882  35.891152     36.623      7.563   263.0581     6.2151     1.9645     0.0241      0.099      2.111      3.062        223 6.6272e+01 0.0000e+00
      2.174    23.7002     3.7064     42.505  35.838219     36.664      7.552   263.8152     6.2111     1.9645     0.0240      0.091      2.137      3.100        224 6.4307e+01 0.0000e+00
      2.215    23.6042     3.5580     40.750  35.861166     36.764      7.530   264.7238     6.2232     1.8436     0.0240      0.092      2.170      3.148        225 6.2500e+01 0.0000e+00
      2.248    23.4364     3.4094     38.975  35.773669     36.729      7.517   264.7617     6.2272     1.8705     0.0240      0.093      2.202      3.194        226 6.1330e+01 0.0000e+00
      2.273    23.2270     3.2538     37.100  35.591252     36.601      7.502   265.2160     5.9684     2.1390     0.0239      0.096      2.227      3.230        227 6.0383e+01 0.0000e+00
      2.291    23.0729     3.1045     35.273  35.524732     36.669      7.491   265.2538     5.9563     2.0987     0.0239      0.102      2.248      3.260        228 5.9830e+01 0.0000e+00
      2.312    22.9377     2.9444     33.289  35.530295     36.832      7.477   266.4274     5.9563     2.0316     0.0239      0.105      2.272      3.294        229 5.8532e+01 0.0000e+00
      2.345    22.7798     2.7806     31.293  35.525105     36.948      7.458   267.2602     5.9684     2.1122     0.0239      0.106      2.302      3.338        230 5.6831e+01 0.0000e+00
      2.385    22.6295     2.5736     28.861  35.531270     37.050      7.436   267.9038     5.7501     2.0853     0.0239      0.110      2.337      3.389        231 5.5152e+01 0.0000e+00
      2.419    22.4347     2.3592     26.390  35.522694     37.176      7.414   267.2602     5.7824     2.1659     0.0239      0.112      2.368      3.434        232 5.4013e+01 0.0000e+00
      2.441    22.2406     2.1349     23.828  35.417222     37.172      7.399   268.1688     5.7622     2.2196     0.0239      0.110      2.392      3.469        233 5.3277e+01 0.0000e+00
      2.459    22.1338     1.9096     21.260  35.425346     37.327      7.382   268.1688     5.7582     2.0182     0.0239      0.109      2.409      3.494        234 5.2751e+01 0.0000e+00
      2.470    22.0650     1.6997     18.865  35.453356     37.542      7.365   268.6231     5.7582     2.1390     0.0239      0.106      2.422      3.513        235 5.2387e+01 0.0000e+00
      2.482    21.9674     1.4889     16.456  35.382448     37.506      7.353   268.8881     5.7986     2.1659     0.0239      0.099      2.437      3.533        236 5.1788e+01 0.0000e+00
      2.501    21.8339     1.3093     14.423  35.395018     37.620      7.336   268.6988     5.7986     2.1793     0.0239      0.090      2.457      3.563        237 5.0638e+01 0.0000e+00
      2.532    21.6480     1.1598     12.757  35.437755     37.697      7.319   269.4560     5.7986     2.1122     0.0239      0.082      2.486      3.606        238 4.8944e+01 0.0000e+00
      2.571    21.3983     1.0286     11.272  35.714864     38.135      7.300   270.5160     5.3053     2.1256     0.0241      0.080      2.521      3.656        239 4.7305e+01 0.0000e+00
      2.608    21.1600     0.9203     10.040  36.058606     38.643      7.275   271.1974     5.3134     2.1390     0.0242      0.087      2.553      3.703        240 4.6180e+01 0.0000e+00
      2.631    20.9800     0.8359      9.078  36.107428     38.916      7.256   271.7274     5.3296     2.3807     0.0243      0.096      2.577      3.738        241 4.5667e+01 0.0000e+00
      2.644    20.8489     0.7498      8.107  36.128760     39.115      7.239   272.4088     5.3417     2.3136     0.0243      0.101      2.594      3.762        242 4.5079e+01 0.0000e+00
      2.660    20.7360     0.6732      7.238  36.269444     39.452      7.226   274.0367     5.3134     2.1524     0.0244      0.104      2.610      3.785        243 4.4393e+01 0.0000e+00
      2.678    20.6100     0.5923      6.330  36.377325     39.654      7.211   274.1124     5.2851     2.3002     0.0244      0.101      2.628      3.811        244 4.3654e+01 0.0000e+00
      2.701    20.4532     0.5159      5.489  36.528439     39.936      7.194   274.1503     5.2487     2.2330     0.0245      0.095      2.651      3.845        245 4.2205e+01 0.0000e+00
      2.732    20.2391     0.4540      4.819  36.674636     40.199      7.173   273.5067     5.2891     2.2599     0.0246      0.089      2.679      3.887        246 4.0715e+01 0.0000e+00
      2.764    20.0807     0.3940      4.179  36.788644     40.461      7.151   274.3396     5.2649     2.3270     0.0246      0.086      2.709      3.929        247 3.9838e+01 0.0000e+00
      2.790    19.9907     0.3528      3.740  36.920517     40.806      7.130   276.6867     5.1435     2.1122     0.0247      0.088      2.735      3.967        248 3.8882e+01 0.0000e+00
      2.814    19.8142     0.3193      3.374  37.074159     41.112      7.114   277.0653     5.1274     2.0719     0.0248      0.093      2.759      4.001        249 3.7802e+01 0.0000e+00
      2.837    19.5831     0.2951      3.106  37.250046     41.398      7.096   277.4817     5.1435     2.1122     0.0249      0.099      2.783      4.036        250 3.7059e+01 0.0000e+00
      2.863    19.3588     0.2892      3.036  37.383885     41.697      7.082   279.0339     5.1597     2.1927     0.0250      0.103      2.810      4.075        251 3.6113e+01 0.0000e+00
      2.896    19.1357     0.2942      3.083  37.471240     42.032      7.060   279.1096     5.0910     1.9242     0.0250      0.106      2.841      4.120        252 3.4772e+01 0.0000e+00
      2.931    18.8651     0.2841      2.972  37.497379     42.250      7.042   281.4567     5.0708     1.9242     0.0250      0.108      2.875      4.170        253 3.3536e+01 0.0000e+00
      2.969    18.5636     0.2800      2.924  37.618422     42.617      7.020   283.0089     5.0708     1.8436     0.0251      0.112      2.909      4.219        254 3.2694e+01 0.0000e+00
      2.999    18.3448     0.2745      2.860  37.735983     43.010      6.998   284.1824     5.0667     1.9107     0.0252      0.116      2.937      4.259        255 3.2250e+01 0.0000e+00
      3.015    18.2294     0.2600      2.702  37.736813     43.309      6.984   284.4474     4.4157     1.7630     0.0252      0.117      2.955      4.286        256 3.1887e+01 0.0000e+00
      3.025    18.1984     0.2407      2.495  37.736177     43.529      6.966   284.4474     4.4076     1.5750     0.0253      0.113      2.967      4.304        257 3.1678e+01 0.0000e+00
      3.036    18.1628     0.2210      2.285  37.736885     43.643      6.956   285.0910     4.3955     1.6288     0.0253      0.104      2.982      4.325        258 3.1213e+01 0.0000e+00
      3.061    18.0105     0.1997      2.060  37.854641     43.805      6.942   283.7660     4.3874     1.6690     0.0253      0.095      3.004      4.356        259 3.0364e+01 0.0000e+00
      3.091    17.8190     0.1899      1.955  38.093910     44.125      6.929   284.7503     4.1771     1.5348     0.0255      0.087      3.029      4.393        260 2.9845e+01 0.0000e+00
      3.113    17.6938     0.1858      1.909  38.269688     44.483      6.915   284.7503     4.1973     1.4273     0.0256      0.081      3.053      4.428        261 2.9571e+01 0.0000e+00
      3.136    17.6121     0.1744      1.789  38.377514     44.812      6.902   285.2046     4.2014     1.3871     0.0256      0.078      3.076      4.461        262 2.9065e+01 0.0000e+00
      3.162    17.5235     0.1699      1.739  38.523396     45.108      6.886   286.7189     4.2135     1.4542     0.0257      0.081      3.099      4.494        263 2.8626e+01 0.0000e+00
      3.181    17.4303     0.1709      1.747  38.622136     45.323      6.872   286.6432     4.1973     1.4945     0.0258      0.087      3.118      4.521        264 2.8513e+01 0.0000e+00
      3.194    17.3297     0.1714      1.748  38.669962     45.452      6.860   282.8574     4.0962     1.7362     0.0258      0.089      3.133      4.544        265 2.8298e+01 0.0000e+00
      3.211    17.2041     0.1761      1.793  38.612238     45.519      6.852   283.7660     4.1003     1.7630     0.0258      0.087      3.149      4.568        266 2.7985e+01 0.0000e+00
      3.228    17.0782     0.1758      1.787  38.456719     45.394      6.842   283.8039     4.0679     1.6288     0.0257      0.081      3.168      4.595        267 2.7613e+01 0.0000e+00
      3.253    16.9584     0.1769      1.796  38.566931     45.697      6.830   285.3939     4.0882     1.7362     0.0258      0.077      3.191      4.629        268 2.7174e+01 0.0000e+00
      3.281    16.8447     0.1741      1.765  38.742112     46.032      6.817   285.2803     3.7566     1.9779     0.0259      0.077      3.216      4.665        269 2.6788e+01 0.0000e+00
      3.306    16.7492     0.1839      1.861  38.772709     46.198      6.802   284.2960     3.7485     1.8973     0.0259      0.079      3.239      4.698        270 2.6569e+01 0.0000e+00
      3.323    16.6701     0.1887      1.907  38.736559     46.289      6.789   284.8639     3.7485     1.9510     0.0259      0.081      3.258      4.726        271 2.6450e+01 0.0000e+00
      3.340    16.5874     0.1965      1.983  38.638844     46.262      6.779   284.8639     3.7606     1.9107     0.0259      0.083      3.278      4.754        272 2.6099e+01 0.0000e+00
      3.367    16.4886     0.2041      2.060  38.568073     46.282      6.771   285.0910     3.8051     1.8570     0.0259      0.086      3.301      4.787        273 2.5756e+01 0.0000e+00
      3.389    16.3927     0.2032      2.053  38.646700     46.441      6.760   285.6967     3.8132     1.9107     0.0259      0.088      3.323      4.818        274 2.5553e+01 0.0000e+00
      3.406    16.3089     0.2031      2.048  38.748681     46.721      6.749   288.8389     3.8294     1.9376     0.0260      0.087      3.341      4.845        275 2.5321e+01 0.0000e+00
      3.425    16.2332     0.2113      2.122  38.826831     46.863      6.743   288.3089     3.8294     1.8436     0.0260      0.083      3.359      4.871        276 2.5112e+01 0.0000e+00
      3.443    16.1653     0.2153      2.155  38.964781     47.194      6.734   288.1575     3.5018     1.9376     0.0261      0.080      3.376      4.897        277 2.4841e+01 0.0000e+00
      3.461    16.1022     0.2191      2.191  39.022001     47.282      6.728   286.8703     3.4978     1.9510     0.0262      0.078      3.394      4.923        278 2.4632e+01 0.0000e+00
      3.480    16.0310     0.2178      2.175  39.081961     47.495      6.719   286.9839     3.4776     1.8973     0.0262      0.077      3.413      4.950        279 2.4356e+01 0.0000e+00
      3.498    15.9408     0.2195      2.190  39.127509     47.568      6.715   286.8703     3.5261     1.9376     0.0262      0.075      3.431      4.975        280 2.4029e+01 0.0000e+00
      3.516    15.8591     0.2137      2.126  39.172999     47.751      6.706   291.4510     3.4573     1.9242     0.0263      0.072      3.447      4.999        281 2.3897e+01 0.0000e+00
      3.529    15.8084     0.2105      2.086  39.292365     47.961      6.698   290.8453     3.4371     1.9376     0.0263      0.070      3.460      5.018        282 2.3754e+01 0.0000e+00
      3.539    15.8120     0.1990      1.967  39.512960     48.364      6.691   291.3753     3.4129     1.9376     0.0265      0.067      3.471      5.034        283 2.3593e+01 0.0000e+00
      3.551    15.8412     0.1941      1.914  39.521461     48.425      6.684   290.4667     3.4210     2.0316     0.0265      0.063      3.484      5.054        284 2.3320e+01 0.0000e+00
      3.570    15.7655     0.1839      1.809  39.400466     48.251      6.680   290.5803     3.4331     1.9107     0.0264      0.061      3.502      5.080        285 2.2904e+01 0.0000e+00
      3.593    15.5823     0.1835      1.803  39.574546     48.450      6.671   293.6468     3.2592     2.1524     0.0265      0.061      3.522      5.110        286 2.2482e+01 0.0000e+00
      3.613    15.4380     0.1761      1.728  39.749790     48.747      6.662   293.5710     3.2309     2.1659     0.0266      0.062      3.541      5.137        287 2.2164e+01 0.0000e+00
      3.627    15.3631     0.1734      1.700  39.805376     49.040      6.657   293.3818     3.2390     2.0987     0.0267      0.063      3.557      5.159        288 2.1933e+01 0.0000e+00
      3.642    15.3197     0.1716      1.679  39.861428     49.285      6.649   293.4953     3.2228     2.0987     0.0267      0.065      3.572      5.180        289 2.1644e+01 0.0000e+00
      3.657    15.2672     0.1711      1.671  39.947094     49.477      6.643   292.7382     2.8508     2.3136     0.0268      0.067      3.588      5.204        290 2.1277e+01 0.0000e+00
      3.678    15.1396     0.1681      1.639  40.025129     49.638      6.633   291.5267     2.8589     2.3002     0.0268      0.069      3.608      5.233        291 2.0895e+01 0.0000e+00
      3.702    14.9774     0.1603      1.561  40.120326     49.799      6.626   292.6246     2.8589     2.1927     0.0269      0.071      3.630      5.265        292 2.0585e+01 0.0000e+00
      3.723    14.8365     0.1578      1.537  40.214309     50.103      6.616   292.5868     2.8589     2.3136     0.0270      0.072      3.652      5.297        293 2.0167e+01 0.0000e+00
      3.747    14.7214     0.1565      1.523  40.175222     50.235      6.608   292.4732     2.5920     2.6896     0.0270      0.074      3.673      5.327        294 1.9712e+01 0.0000e+00
      3.765    14.6341     0.1568      1.523  40.109721     50.344      6.598   293.9496     2.6122     2.6627     0.0270      0.077      3.690      5.352        295 1.9598e+01 0.0000e+00
      3.775    14.5699     0.1598      1.550  39.999247     50.348      6.592   294.1010     2.5920     2.6761     0.0269      0.077      3.703      5.371        296 1.9482e+01 0.0000e+00
      3.789    14.5141     0.1722      1.668  39.867789     50.283      6.578   290.7317     2.6082     2.6761     0.0269      0.076      3.717      5.391        297 1.9171e+01 0.0000e+00
      3.806    14.4481     0.1955      1.892  39.739395     50.223      6.572   291.2996     2.7821     2.4344     0.0268      0.073      3.732      5.413        298 1.8961e+01 0.0000e+00
      3.821    14.3708     0.2146      2.076  39.654765     50.152      6.566   291.5267     2.7821     2.4881     0.0268      0.068      3.747      5.434        299 1.8773e+01 0.0000e+00
      3.835    14.2921     0.2464      2.383  39.557836     50.165      6.560   293.8360     2.8104     2.5419     0.0268      0.063      3.762      5.456        300 1.8578e+01 0.0000e+00
      3.852    14.2169     0.2818      2.723  39.415089     50.015      6.555   294.3660     2.7497     2.4747     0.0267      0.060      3.777      5.479        301 1.8443e+01 0.0000e+00
      3.867    14.1662     0.3199      3.089  39.268827     50.010      6.546   292.5110     2.4383     2.4479     0.0266      0.058      3.795      5.505        302 1.8211e+01 0.0000e+00
      3.891    14.1531     0.3532      3.411  39.146613     49.855      6.541   292.7003     2.4707     2.4881     0.0265      0.061      3.816      5.535        303 1.7879e+01 0.0000e+00
      3.916    14.1185     0.3775      3.644  39.122259     49.994      6.532   292.9275     2.4586     2.5284     0.0266      0.067      3.838      5.566        304 1.7665e+01 0.0000e+00
      3.934    14.0432     0.3978      3.838  38.943195     49.685      6.525   293.5710     2.4828     2.4881     0.0264      0.071      3.857      5.593        305 1.7615e+01 0.0000e+00
      3.948    13.9705     0.4147      3.999  38.835521     49.658      6.518   293.9118     2.4586     2.5150     0.0264      0.072      3.873      5.617        306 1.7448e+01 0.0000e+00
      3.966    13.9092     0.4344      4.185  38.781657     49.648      6.512   296.0318     1.9491     2.4076     0.0264      0.074      3.890      5.642        307 1.7212e+01 0.0000e+00
      3.986    13.8696     0.4476      4.310  38.683963     49.633      6.504   295.0853     1.9329     2.3941     0.0263      0.075      3.905      5.663        308 1.7206e+01 0.0000e+00
      3.990    13.8580     0.4630      4.459  38.690168     49.711      6.493   295.4260     1.9410     2.4881     0.0264      0.071      3.913      5.675        309 1.7247e+01 0.0000e+00
      3.993    13.8401     0.4834      4.653  38.684978     49.763      6.492   295.9182     1.9652     2.4613     0.0264      0.064      3.918      5.683        310 1.7131e+01 0.0000e+00
      4.005    13.8016     0.5260      5.059  38.571789     49.632      6.483   294.9718     1.9288     2.7164     0.0263      0.055      3.928      5.696        311 1.6991e+01 0.0000e+00
      4.016    13.7748     0.5886      5.658  38.445417     49.475      6.479   295.6153     1.9572     2.7298     0.0262      0.048      3.938      5.710        312 1.6974e+01 0.0000e+00
      4.023    13.7750     0.6548      6.291  38.426972     49.524      6.477   298.7575     1.9491     2.7030     0.0262      0.042      3.948      5.725        313 1.6896e+01 0.0000e+00
      4.036    13.7615     0.7255      6.960  38.327793     49.416      6.474   298.2653     1.9572     2.6761     0.0262      0.039      3.958      5.740        314 1.6776e+01 0.0000e+00
      4.047    13.7364     0.8079      7.738  38.212902     49.269      6.472   298.9089     2.0016     2.6761     0.0261      0.037      3.969      5.757        315 1.6680e+01 0.0000e+00
      4.061    13.7161     0.8995      8.605  38.214004     49.287      6.468   297.4703     2.0016     2.6761     0.0261      0.037      3.984      5.779        316 1.6473e+01 0.0000e+00
      4.082    13.6698     0.9792      9.361  38.207776     49.321      6.464   297.9246     2.0097     2.7164     0.0261      0.044      4.003      5.805        317 1.6192e+01 0.0000e+00
      4.101    13.6442     1.0335      9.877  38.191000     49.307      6.457   299.7039     1.9976     2.7970     0.0261      0.051      4.018      5.828        318 1.6104e+01 0.0000e+00
      4.106    13.6525     1.0623     10.142  38.264560     49.477      6.448   299.7039     1.9248     3.4147     0.0262      0.052      4.029      5.843        319 1.6032e+01 0.0000e+00
      4.119    13.6319     1.0755     10.255  38.264566     49.511      6.443   300.3475     1.9652     3.3207     0.0262      0.054      4.041      5.861        320 1.5735e+01 0.0000e+00
      4.139    13.5952     1.0882     10.358  38.042693     49.207      6.436   300.1582     1.9652     3.3475     0.0260      0.057      4.056      5.882        321 1.5627e+01 0.0000e+00
      4.149    13.5752     1.1074     10.523  37.977092     49.128      6.431   300.1203     1.9491     3.3744     0.0260      0.057      4.070      5.902        322 1.5588e+01 0.0000e+00
      4.163    13.5463     1.1197     10.628  38.019926     49.282      6.430   300.8775     1.7550     3.7235     0.0260      0.056      4.085      5.924        323 1.5318e+01 0.0000e+00
      4.186    13.4770     1.1469     10.874  38.345352     49.635      6.426   299.8175     1.7590     3.7504     0.0262      0.057      4.104      5.951        324 1.5066e+01 0.0000e+00
      4.204    13.4033     1.1863     11.237  39.173928     50.866      6.423   300.1961     1.7388     3.7772     0.0267      0.058      4.122      5.978        325 1.4922e+01 0.0000e+00
      4.220    13.3510     1.2352     11.692  39.539862     51.360      6.420   300.5368     1.7428     3.7504     0.0269      0.060      4.138      6.003        326 1.4716e+01 0.0000e+00
      4.238    13.3212     1.3104     12.392  39.313849     51.204      6.416   300.8775     1.7550     5.0932     0.0268      0.065      4.156      6.029        327 1.4484e+01 0.0000e+00
      4.257    13.3027     1.4128     13.349  39.247582     51.126      6.414   301.1046     1.7550     5.1066     0.0268      0.068      4.175      6.054        328 1.4306e+01 0.0000e+00
      4.274    13.2624     1.5010     14.171  38.999408     50.950      6.411   300.1582     1.7388     5.0126     0.0267      0.069      4.193      6.081        329 1.4128e+01 0.0000e+00
      4.294    13.2017     1.5878     14.981  38.999770     50.788      6.405   300.7261     1.7469     5.0529     0.0266      0.071      4.214      6.111        330 1.3789e+01 0.0000e+00
      4.323    13.1232     1.6573     15.629  39.158155     51.320      6.397   300.9532     1.7671     4.9320     0.0268      0.075      4.237      6.145        331 1.3467e+01 0.0000e+00
      4.343    13.0515     1.7115     16.131  38.683675     50.484      6.387   300.9153     1.6175     6.5971     0.0264      0.077      4.256      6.172        332 1.3384e+01 0.0000e+00
      4.351    12.9991     1.7482     16.464  38.433403     50.517      6.378   301.8618     1.6094     6.5165     0.0264      0.076      4.268      6.190        333 1.3250e+01 0.0000e+00
      4.365    12.9481     1.7619     16.579  38.134800     50.024      6.374   301.8618     1.6013     6.5165     0.0262      0.074      4.280      6.208        334 1.3121e+01 0.0000e+00
      4.378    12.9094     1.7586     16.536  37.868803     49.871      6.372   301.6725     1.6175     6.4225     0.0261      0.071      4.293      6.227        335 1.3053e+01 0.0000e+00
      4.389    12.8761     1.7656     16.589  38.082216     50.124      6.370   301.8618     1.4800     6.9194     0.0262      0.066      4.307      6.246        336 1.2808e+01 0.0000e+00
      4.407    12.8351     1.7894     16.802  38.492155     50.801      6.370   302.5432     1.4800     6.9999     0.0264      0.062      4.322      6.268        337 1.2609e+01 0.0000e+00
      4.424    12.7953     1.8215     17.098  39.019795     51.472      6.366   302.5811     1.5204     7.0536     0.0267      0.058      4.339      6.293        338 1.2477e+01 0.0000e+00
      4.440    12.7605     1.8608     17.467  38.997756     51.603      6.362   303.2246     1.4800     6.8791     0.0268      0.056      4.358      6.320        339 1.2197e+01 0.0000e+00
      4.469    12.7315     1.8989     17.817  38.786573     51.213      6.360   303.1868     1.6175     7.1611     0.0266      0.060      4.380      6.352        340 1.1948e+01 0.0000e+00
      4.490    12.7096     1.9214     18.019  38.985992     51.705      6.356   302.8839     1.6094     7.1611     0.0268      0.067      4.401      6.382        341 1.1734e+01 0.0000e+00
      4.504    12.6848     1.9297     18.092  38.660612     51.189      6.356   303.3761     1.6337     7.1745     0.0265      0.071      4.417      6.406        342 1.1586e+01 0.0000e+00
      4.519    12.6487     1.9296     18.085  37.945663     50.329      6.355   303.4518     1.6418     7.0939     0.0261      0.073      4.432      6.428        343 1.1430e+01 0.0000e+00
      4.535    12.6130     1.9177     17.966  37.651027     49.916      6.353   303.8682     1.7145     7.9399     0.0260      0.074      4.448      6.451        344 1.1214e+01 0.0000e+00
      4.552    12.5798     1.8972     17.769  37.662818     50.040      6.354   303.4896     1.7307     7.9399     0.0260      0.072      4.467      6.478        345 1.0942e+01 0.0000e+00
      4.579    12.5449     1.8656     17.471  37.753032     50.161      6.349   304.4361     1.7469     8.0205     0.0260      0.073      4.490      6.512        346 1.0611e+01 0.0000e+00
      4.605    12.5161     1.8554     17.362  37.835396     50.354      6.344   304.4739     1.7590     7.9802     0.0261      0.075      4.512      6.544        347 1.0463e+01 0.0000e+00
      4.617    12.5037     1.8398     17.198  37.856957     50.402      6.338   304.7768     1.5609     9.6318     0.0261      0.073      4.527      6.567        348 1.0401e+01 0.0000e+00
      4.628    12.5018     1.8346     17.140  37.844867     50.439      6.331   305.0796     1.5487     9.6721     0.0261      0.072      4.541      6.587        349 1.0186e+01 0.0000e+00
      4.650    12.4846     1.8425     17.211  37.850456     50.457      6.330   305.5339     1.5487     9.7124     0.0261      0.074      4.561      6.616        350 9.8237e+00 0.0000e+00
      4.677    12.4622     1.8571     17.333  37.790684     50.383      6.328   305.1932     1.5487     9.6318     0.0261      0.076      4.583      6.647        351 9.7017e+00 0.0000e+00
      4.690    12.4500     1.8850     17.579  37.741283     50.333      6.326   304.8525     1.5568     9.6452     0.0261      0.076      4.599      6.671        352 9.6593e+00 0.0000e+00
      4.703    12.4361     1.9136     17.834  37.674644     50.289      6.324   304.9282     1.4072    11.6191     0.0260      0.073      4.614      6.692        353 9.4087e+00 0.0000e+00
      4.722    12.4174     1.9544     18.201  37.695652     50.304      6.323   305.3825     1.4274    11.6191     0.0260      0.069      4.630      6.715        354 9.2637e+00 0.0000e+00
      4.737    12.4068     2.0033     18.648  37.715149     50.399      6.318   305.3068     1.4072    11.5520     0.0261      0.067      4.645      6.736        355 9.1504e+00 0.0000e+00
      4.750    12.3984     2.0626     19.196  37.709713     50.348      6.319   306.6318     1.4194    11.6460     0.0260      0.067      4.660      6.759        356 8.8721e+00 0.0000e+00
      4.772    12.3652     2.1112     19.646  37.702425     50.439      6.317   306.3668     1.1808    12.2771     0.0261      0.067      4.679      6.787        357 8.6418e+00 0.0000e+00
      4.791    12.3179     2.1621     20.112  37.516592     50.111      6.314   306.1018     1.1646    12.0891     0.0259      0.066      4.697      6.813        358 8.4922e+00 0.0000e+00
      4.806    12.2956     2.1990     20.443  37.347750     50.008      6.315   306.4046     1.1403    12.2234     0.0259      0.065      4.714      6.838        359 8.2754e+00 0.0000e+00
      4.827    12.2852     2.2100     20.537  37.348988     49.996      6.312   305.6475     1.1525    12.1965     0.0258      0.067      4.733      6.866        360 8.0609e+00 0.0000e+00
      4.848    12.2516     2.1771     20.228  37.277777     50.028      6.310   305.7611     1.1080    12.6262     0.0258      0.070      4.753      6.895        361 7.8198e+00 0.0000e+00
      4.867    12.2163     2.1158     19.656  37.080448     49.662      6.307   308.3354     1.0999    12.5994     0.0257      0.072      4.773      6.924        362 7.5526e+00 0.0000e+00
      4.889    12.1865     2.0243     18.812  36.971684     49.674      6.309   308.2218     1.0837    12.6397     0.0257      0.075      4.793      6.953        363 7.3696e+00 0.0000e+00
      4.909    12.1548     1.9194     17.841  36.997889     49.643      6.304   308.6382     1.0918    12.5725     0.0256      0.077      4.813      6.980        364 7.2234e+00 0.0000e+00
      4.924    12.1326     1.8155     16.865  36.958870     49.760      6.303   308.6004     1.0999    12.1697     0.0257      0.076      4.830      7.004        365 7.0281e+00 0.0000e+00
      4.942    12.1235     1.7023     15.805  37.138904     49.877      6.301   307.6918     1.1080    12.3174     0.0257      0.076      4.845      7.028        366 6.8542e+00 0.0000e+00
      4.956    12.1196     1.6101     14.956  37.782352     50.961      6.300   309.4711     1.1161    12.2234     0.0262      0.075      4.859      7.048        367 6.7231e+00 0.0000e+00
      4.967    12.1039     1.5411     14.311  38.086138     51.237      6.297   309.8118     1.0797    12.2503     0.0263      0.070      4.873      7.067        368 6.5115e+00 0.0000e+00
      4.985    12.0773     1.4924     13.849  38.243957     51.543      6.299   310.2661     1.1039    11.7131     0.0264      0.066      4.889      7.092        369 6.2267e+00 0.0000e+00
      5.007    12.0610     1.4448     13.402  38.386847     51.715      6.296   310.2661     1.0676    11.7668     0.0265      0.065      4.908      7.118        370 5.9672e+00 0.0000e+00
      5.022    12.0521     1.4141     13.116  38.323603     51.678      6.295   310.5311     1.0999    11.7668     0.0265      0.063      4.922      7.138        371 5.8911e+00 0.0000e+00
      5.027    12.0466     1.3890     12.883  38.441325     51.852      6.292   311.0989     1.0999    11.7668     0.0265      0.060      4.931      7.152        372 5.8397e+00 0.0000e+00
      5.035    12.0596     1.3660     12.669  38.418331     51.863      6.293   309.0925     1.0878    11.8340     0.0265      0.057      4.943      7.169        373 5.6108e+00 0.0000e+00
      5.061    12.0693     1.3468     12.490  38.470877     51.873      6.287   310.1904     0.8815    11.1089     0.0265      0.057      4.963      7.197        374 5.4010e+00 0.0000e+00
      5.084    12.0421     1.3154     12.204  38.761559     52.343      6.286   309.9254     0.9179    11.2297     0.0268      0.060      4.983      7.227        375 5.2275e+00 0.0000e+00
      5.097    12.0226     1.2885     11.954  38.827828     52.329      6.280   311.4397     0.9260    11.1357     0.0268      0.062      5.000      7.252        376 5.0729e+00 0.0000e+00
      5.116    12.0388     1.2644     11.725  38.655376     52.215      6.278   312.0075     0.8937    11.0686     0.0267      0.062      5.021      7.282        377 4.8893e+00 0.0000e+00
      5.146    12.0271     1.2478     11.567  38.649883     52.136      6.274   307.9568     0.9665    11.0686     0.0267      0.067      5.050      7.324        378 4.6110e+00 0.0000e+00
      5.186    11.9948     1.2249     11.351  39.012655     52.708      6.265   308.6382     0.9867    11.1492     0.0269      0.079      5.082      7.371        379 4.3788e+00 0.0000e+00
      5.214    11.9789     1.2005     11.121  39.242146     52.957      6.256   309.0168     0.9624    11.1357     0.0270      0.092      5.106      7.406        380 4.3628e+00 0.0000e+00
      5.218    11.9751     1.1898     11.020  39.194881     53.001      6.248   311.2882     0.9665    11.1626     0.0270      0.094      5.117      7.421        381 4.3686e+00 0.0000e+00
      5.223    11.9768     1.1839     10.965  39.190145     52.950      6.246   310.9475     0.8896    10.5449     0.0270      0.088      5.125      7.433        382 4.2143e+00 0.0000e+00
      5.238    11.9704     1.1737     10.869  39.277713     53.143      6.244   309.0547     0.9018    10.5181     0.0271      0.083      5.138      7.451        383 4.0918e+00 0.0000e+00
      5.254    11.9701     1.1625     10.764  39.352886     53.179      6.248   309.0925     0.9058    10.4375     0.0271      0.077      5.153      7.474        384 4.0163e+00 0.0000e+00
      5.271    11.9850     1.1487     10.634  39.363576     53.263      6.247   308.7897     0.9260    10.4241     0.0271      0.069      5.170      7.499        385 3.8841e+00 0.0000e+00
      5.291    11.9836     1.1285     10.443  39.353406     53.190      6.247   309.2439     0.8532    10.4375     0.0271      0.061      5.187      7.524        386 3.7180e+00 0.0000e+00
      5.306    11.9655     1.1169     10.334  39.365542     53.241      6.246   309.8875     0.8452    10.4912     0.0271      0.055      5.203      7.547        387 3.6300e+00 0.0000e+00
      5.320    11.9512     1.1006     10.182  39.348470     53.169      6.244   309.9254     0.8371    10.5449     0.0271      0.056      5.219      7.569        388 3.5818e+00 0.0000e+00
      5.339    11.9370     1.0951     10.130  39.463647     53.384      6.242   311.2504     0.8452    10.4912     0.0272      0.062      5.237      7.595        389 3.4425e+00 0.0000e+00
      5.362    11.9229     1.0821     10.009  39.696849     53.707      6.242   310.3418     0.8371    12.2234     0.0273      0.067      5.257      7.624        390 3.2987e+00 0.0000e+00
      5.379    11.9142     1.0714      9.910  39.799884     53.879      6.241   310.8718     0.8532    12.2234     0.0274      0.069      5.274      7.649        391 3.2588e+00 0.0000e+00
      5.392    11.9100     1.0633      9.835  39.810070     53.900      6.238   309.4332     0.8654    12.1831     0.0274      0.069      5.288      7.669        392 3.2230e+00 0.0000e+00
      5.404    11.9064     1.0598      9.801  39.802839     53.913      6.235   309.4332     0.8411    12.2234     0.0274      0.067      5.303      7.692        393 3.0839e+00 0.0000e+00
      5.429    11.9000     1.0564      9.768  39.808887     53.919      6.233   315.0740     0.8411    14.2107     0.0274      0.067      5.325      7.723        394 2.9528e+00 0.0000e+00
      5.457    11.8884     1.0507      9.715  39.802547     53.924      6.232   313.5597     1.0554    14.9761     0.0274      0.071      5.350      7.760        395 2.8805e+00 0.0000e+00
      5.480    11.8759     1.0450      9.662  39.810733     53.933      6.229   314.1275     1.0554    14.9896     0.0274      0.075      5.373      7.793        396 2.7969e+00 0.0000e+00
      5.498    11.8666     1.0517      9.723  39.858035     54.026      6.224   312.0832     1.0352    14.9358     0.0274      0.077      5.393      7.823        397 2.7370e+00 0.0000e+00
      5.521    11.8607     1.0445      9.657  39.951343     54.158      6.222   312.7647     1.0433    14.9090     0.0275      0.080      5.418      7.858        398 2.6256e+00 0.0000e+00
      5.555    11.8566     1.0470      9.679  39.961607     54.210      6.219   315.7932     1.1080    15.6878     0.0275      0.087      5.446      7.899        399 2.4911e+00 0.0000e+00
      5.583    11.8540     1.0436      9.648  39.874933     54.067      6.213   316.0582     1.1080    15.7147     0.0274      0.095      5.470      7.934        400 2.4566e+00 0.0000e+00
      5.593    11.8535     1.0436      9.648  39.851555     54.073      6.208   316.1718     1.0959    15.7147     0.0274      0.095      5.485      7.956        401 2.4272e+00 0.0000e+00
      5.605    11.8519     1.0478      9.687  39.872043     54.077      6.206   315.1118     1.0999    15.7415     0.0274      0.090      5.500      7.977        402 2.3317e+00 0.0000e+00
      5.628    11.8475     1.0444      9.654  39.938435     54.191      6.206   315.4904     0.9139    15.1641     0.0275      0.085      5.519      8.005        403 2.2458e+00 0.0000e+00
      5.649    11.8430     1.0358      9.575  40.006254     54.269      6.207   315.1497     0.9422    15.1641     0.0275      0.083      5.540      8.036        404 2.2122e+00 0.0000e+00
      5.673    11.8399     1.0314      9.534  40.024966     54.314      6.209   313.2947     0.9139    15.2984     0.0275      0.082      5.563      8.069        405 2.1329e+00 0.0000e+00
      5.698    11.8369     1.0383      9.598  40.004148     54.283      6.207   314.3547     0.9139    15.1775     0.0275      0.080      5.585      8.100        406 2.0316e+00 0.0000e+00
      5.714    11.8345     1.0395      9.609  40.002499     54.287      6.204   315.4904     0.9139    17.8094     0.0275      0.077      5.601      8.124        407 2.0395e+00 0.0000e+00
      5.721    11.8339     1.0358      9.575  39.997354     54.291      6.203   315.2632     0.9139    17.8094     0.0275      0.075      5.612      8.139        408 2.0660e+00 0.0000e+00
      5.732    11.8330     1.0326      9.547  40.010552     54.295      6.204   315.6418     0.9179    17.8363     0.0275      0.073      5.625      8.158        409 1.9437e+00 0.0000e+00
      5.755    11.8321     1.0306      9.530  40.045407     54.372      6.201   311.5532     0.9139    17.7289     0.0276      0.072      5.644      8.185        410 1.8373e+00 0.0000e+00
      5.776    11.8308     1.0300      9.525  40.013310     54.297      6.200   312.5754     0.8977    19.8370     0.0275      0.069      5.664      8.215        411 1.8135e+00 0.0000e+00
      5.795    11.8290     1.0427      9.641  40.050495     54.374      6.195   312.9161     0.8209    19.8505     0.0276      0.067      5.685      8.245        412 1.7205e+00 0.0000e+00
      5.821    11.8278     1.0320      9.541  40.058462     54.376      6.197   313.1054     0.8452    19.9176     0.0276      0.068      5.705      8.275        413 1.6682e+00 0.0000e+00
      5.835    11.8267     1.0416      9.629  40.062729     54.379      6.196   314.0897     0.8371    19.8639     0.0276      0.069      5.720      8.297        414 1.6692e+00 0.0000e+00
      5.844    11.8257     1.0412      9.625  40.104519     54.457      6.192   311.9318     0.8492    20.6293     0.0276      0.071      5.734      8.316        415 1.6018e+00 0.0000e+00
      5.864    11.8265     1.0380      9.595  40.065786     54.383      6.194   311.8182     0.8411    20.4950     0.0276      0.073      5.751      8.341        416 1.5362e+00 0.0000e+00
      5.886    11.8256     1.0461      9.669  40.051600     54.384      6.192   312.0075     0.8249    20.5756     0.0276      0.073      5.771      8.370        417 1.4985e+00 0.0000e+00
      5.904    11.8256     1.0386      9.600  40.062843     54.383      6.192   312.2347     0.8371    20.5756     0.0276      0.071      5.791      8.399        418 1.4117e+00 0.0000e+00
      5.926    11.8348     1.0326      9.544  40.051795     54.383      6.192   312.5754     0.8411    20.4950     0.0276      0.071      5.810      8.427        419 1.3360e+00 0.0000e+00
      5.944    11.8439     1.0289      9.510  40.124681     54.461      6.190   312.3482     0.8290    20.2533     0.0276      0.071      5.827      8.451        420 1.3173e+00 0.0000e+00
      5.955    11.8439     1.0297      9.517  40.150132     54.522      6.190   313.1811     0.8573    20.3742     0.0276      0.070      5.840      8.471        421 1.3146e+00 0.0000e+00
      5.968    11.8388     1.0268      9.490  40.079449     54.357      6.189   313.0675     0.8330    20.2399     0.0275      0.070      5.855      8.493        422 1.2227e+00 0.0000e+00
      5.989    11.8328     1.0310      9.529  40.093977     54.432      6.185   313.2568     0.8290    20.3742     0.0276      0.070      5.875      8.521        423 1.1357e+00 0.0000e+00
      6.013    11.8291     1.0313      9.532  40.072720     54.365      6.187   312.8782     0.8452    21.1933     0.0275      0.070      5.896      8.552        424 1.1346e+00 0.0000e+00
      6.035    11.8280     1.0277      9.500  40.105905     54.449      6.186   313.1432     0.8290    21.2067     0.0276      0.070      5.917      8.583        425 1.0893e+00 0.0000e+00
      6.056    11.8256     1.0280      9.502  40.112014     54.455      6.183   314.9225     0.8330    21.2335     0.0276      0.072      5.935      8.609        426 1.0217e+00 0.0000e+00
      6.067    11.8234     1.0287      9.508  40.065121     54.380      6.181   314.5818     0.8492    21.1261     0.0276      0.072      5.947      8.626        427 1.0008e+00 0.0000e+00
      6.070    11.8232     1.0298      9.518  40.104933     54.460      6.180   314.2032     0.9058    21.8781     0.0276      0.069      5.957      8.640        428 9.8471e-01 0.0000e+00
      6.087    11.8228     1.0258      9.481  40.062470     54.387      6.179   314.1275     0.9220    21.8915     0.0276      0.068      5.974      8.665        429 9.3129e-01 0.0000e+00
      6.120    11.8212     1.0241      9.464  40.058636     54.388      6.180   314.3547     0.8896    21.7975     0.0276      0.068      6.001      8.703        430 8.7318e-01 0.0000e+00
      6.149    11.8198     1.0270      9.491  40.169037     54.540      6.173   315.5282     0.9260    21.8378     0.0276      0.071      6.026      8.741        431 8.1731e-01 0.0000e+00
      6.166    11.8197     1.0300      9.519  40.162403     54.543      6.171   315.2632     0.9179    21.3275     0.0276      0.072      6.046      8.769        432 7.8212e-01 0.0000e+00
      6.182    11.8213     1.0352      9.568  40.066892     54.393      6.170   315.1118     0.8977    21.4752     0.0276      0.074      6.063      8.794        433 7.5513e-01 0.0000e+00
      6.202    11.8243     1.0337      9.553  40.050574     54.393      6.169   314.7332     0.9058    21.4484     0.0276      0.077      6.079      8.818        434 7.1832e-01 0.0000e+00
      6.215    11.8251     1.0334      9.550  40.064048     54.391      6.167   314.6575     0.9341    21.4081     0.0276      0.080      6.094      8.839        435 7.1511e-01 0.0000e+00
      6.227    11.8237     1.0327      9.543  40.050123     54.386      6.167   314.8847     0.9665    21.8109     0.0276      0.079      6.109      8.862        436 7.4031e-01 0.0000e+00
      6.249    11.8214     1.0352      9.566  40.067904     54.385      6.169   314.7332     0.9543    21.7975     0.0276      0.074      6.130      8.892        437 7.0377e-01 0.0000e+00
      6.279    11.8195     1.0350      9.564  40.101252     54.463      6.167   314.9982     0.9867    21.8781     0.0276      0.072      6.158      8.932        438 6.1931e-01 0.0000e+00
      6.312    11.8183     1.0313      9.530  40.127284     54.466      6.161   314.9604     0.9948    21.8244     0.0276      0.075      6.185      8.971        439 5.9328e-01 0.0000e+00
      6.329    11.8177     1.0295      9.513  40.154171     54.545      6.159   315.2632     0.9948    21.7572     0.0276      0.081      6.205      9.000        440 5.9627e-01 0.0000e+00
      6.342    11.8178     1.0268      9.489  40.127125     54.471      6.157   314.8468     1.1161    22.6569     0.0276      0.083      6.223      9.027        441 5.6771e-01 0.0000e+00
      6.371    11.8175     1.0257      9.478  40.160944     54.548      6.157   315.7175     1.0999    22.6435     0.0276      0.087      6.248      9.062        442 5.2002e-01 0.0000e+00
      6.401    11.8171     1.0255      9.477  40.171416     54.547      6.152   315.5282     1.0999    22.7509     0.0276      0.093      6.274      9.100        443 5.0027e-01 0.0000e+00
      6.418    11.8162     1.0238      9.461  40.114093     54.472      6.152   315.4525     1.1120    22.7778     0.0276      0.094      6.296      9.131        444 4.9674e-01 0.0000e+00
      6.441    11.8147     1.0151      9.381  40.113618     54.473      6.151   315.0740     1.0433    22.6032     0.0276      0.092      6.319      9.163        445 4.7367e-01 0.0000e+00
      6.470    11.8134     1.0221      9.446  40.112674     54.474      6.150   315.0740     1.0473    22.7509     0.0276      0.091      6.342      9.198        446 4.5870e-01 0.0000e+00
      6.488    11.8124     1.0210      9.435  40.115269     54.476      6.149   316.4747     1.0109    22.5629     0.0276      0.090      6.361      9.226        447 4.2164e-01 0.0000e+00
      6.501    11.8119     1.0209      9.434  40.110392     54.478      6.148   316.1718     1.0271    22.6166     0.0276      0.089      6.377      9.250        448 4.2977e-01 0.0000e+00
      6.521    11.8121     1.0220      9.444  40.118745     54.480      6.147   316.2854     1.0392    22.9792     0.0276      0.087      6.397      9.278        449 4.1836e-01 0.0000e+00
      6.547    11.8124     1.0202      9.427  40.104874     54.480      6.147   315.9068     1.0514    22.8046     0.0276      0.083      6.420      9.311        450 3.7669e-01 0.0000e+00
      6.569    11.8125     1.0296      9.513  40.068325     54.404      6.147   316.2097     1.0352    22.9389     0.0276      0.082      6.440      9.341        451 3.7652e-01 0.0000e+00
      6.586    11.8124     1.0241      9.463  40.104899     54.480      6.145   316.1340     1.0312    22.8852     0.0276      0.081      6.457      9.366        452 3.5122e-01 0.0000e+00
      6.600    11.8125     1.0202      9.427  40.118687     54.479      6.145   316.2475     1.0392    22.7106     0.0276      0.078      6.472      9.386        453 3.4542e-01 0.0000e+00
      6.611    11.8131     1.0206      9.431  40.110498     54.480      6.145   316.2097     1.0190    22.6166     0.0276      0.073      6.484      9.404        454 3.4021e-01 0.0000e+00
      6.624    11.8145     1.0255      9.476  40.115093     54.479      6.146   316.8532     1.0554    22.6166     0.0276      0.070      6.497      9.424        455 3.5110e-01 0.0000e+00
      6.642    11.8148     1.0196      9.422  40.112969     54.478      6.145   316.6261     1.0312    22.6301     0.0276      0.067      6.516      9.450        456 3.4192e-01 0.0000e+00
      6.667    11.8141     1.0192      9.418  40.113141     54.476      6.146   314.5818     1.0473    23.0195     0.0276      0.065      6.540      9.485        457 3.2114e-01 0.0000e+00
      6.697    11.8129     1.0152      9.380  40.114878     54.476      6.145   314.3925     1.0635    23.0866     0.0276      0.067      6.565      9.521        458 2.9642e-01 0.0000e+00
      6.716    11.8112     1.0062      9.297  40.170139     54.553      6.144   315.9068     1.0433    23.1806     0.0276      0.071      6.585      9.551        459 2.7811e-01 0.0000e+00
      6.729    11.8101     1.0134      9.364  40.163033     54.555      6.142   315.8311     1.0190    23.1135     0.0276      0.074      6.602      9.576        460 3.1615e-01 0.0000e+00
      6.754    11.8100     1.0085      9.319  40.123721     54.481      6.141   317.3075     1.0514    23.0463     0.0276      0.079      6.624      9.607        461 2.8352e-01 0.0000e+00
      6.782    11.8103     0.9995      9.236  40.159731     54.559      6.137   316.7397     1.1161    23.1135     0.0276      0.085      6.646      9.640        462 2.5743e-01 0.0000e+00
      6.796    11.8106     1.0025      9.264  40.177551     54.559      6.137   313.5975     1.0999    23.1403     0.0276      0.086      6.662      9.662        463 2.7318e-01 0.0000e+00
      6.801    11.8108     1.0015      9.255  40.160876     54.558      6.136   314.0518     1.0878    23.0597     0.0276      0.080      6.674      9.679        464 2.4636e-01 0.0000e+00
      6.820    11.8108     1.0037      9.275  40.121152     54.482      6.133   314.1275     1.0918    23.0866     0.0276      0.074      6.691      9.705        465 2.1517e-01 0.0000e+00
      6.849    11.8112     1.0007      9.247  40.108325     54.482      6.137   315.7175     1.0918    23.0866     0.0276      0.072      6.715      9.739        466 2.1896e-01 0.0000e+00
      6.871    11.8109     1.0037      9.275  40.117509     54.482      6.132   315.3390     1.1080    23.1537     0.0276      0.074      6.736      9.769        467 2.2818e-01 0.0000e+00
      6.884    11.8097     1.0019      9.258  40.109723     54.481      6.131   314.2790     1.0878    23.1135     0.0276      0.074      6.753      9.794        468 2.1876e-01 0.0000e+00
      6.905    11.8094     1.0056      9.292  40.177345     54.558      6.132   313.3704     1.0918    23.1269     0.0276      0.073      6.769      9.818        469 2.0805e-01 0.0000e+00
      6.917    11.8091     1.0069      9.304  40.211348     54.635      6.132   313.4461     1.0433    23.1269     0.0277      0.071      6.780      9.834        470 1.9366e-01 0.0000e+00
      6.919    11.8087     1.0076      9.311  40.126739     54.484      6.131   313.5218     1.0352    23.0195     0.0276      0.068      6.787      9.844        471 2.0122e-01 0.0000e+00
      6.929    11.8098     1.0100      9.332  40.163978     54.560      6.130   313.4461     1.0514    23.1403     0.0276      0.064      6.801      9.864        472 1.9143e-01 0.0000e+00
      6.959    11.8113     1.0124      9.355  40.165006     54.561      6.132   316.2097     1.0473    23.1403     0.0276      0.061      6.825      9.898        473 1.7585e-01 0.0000e+00
      6.988    11.8114     1.0063      9.298  40.125460     54.483      6.128   315.4147     1.1161    23.1672     0.0276      0.060      6.850      9.935        474 1.8661e-01 0.0000e+00
      7.008    11.8111     1.0102      9.334  40.153860     54.557      6.129   315.6418     1.0878    23.0597     0.0276      0.064      6.872      9.966        475 2.0218e-01 0.0000e+00
      7.027    11.8109     1.0096      9.329  40.129662     54.481      6.127   313.8247     1.0918    23.0329     0.0276      0.070      6.892      9.996        476 1.8606e-01 0.0000e+00
      7.050    11.8102     1.0092      9.325  40.155575     54.557      6.129   314.2032     1.0999    23.0866     0.0276      0.075      6.915     10.030        477 1.6389e-01 0.0000e+00
      7.079    11.8098     1.0097      9.330  40.121612     54.482      6.125   318.5190     1.1201    23.2612     0.0276      0.084      6.938     10.062        478 1.9031e-01 0.0000e+00
      7.093    11.8094     1.0102      9.335  40.112598     54.483      6.125   318.1025     1.0999    23.2477     0.0276      0.089      6.954     10.085        479 2.0540e-01 0.0000e+00
      7.099    11.8090     1.0058      9.294  40.107464     54.483      6.124   318.5568     1.0797    23.2612     0.0276      0.085      6.968     10.105        480 1.8237e-01 0.0000e+00
      7.123    11.8095     1.0119      9.350  40.068670     54.408      6.122   316.9668     1.0999    23.2880     0.0276      0.079      6.989     10.135        481 1.6363e-01 0.0000e+00
      7.155    11.8102     1.0119      9.350  40.101545     54.484      6.119   316.9668     1.0878    23.2209     0.0276      0.079      7.014     10.172        482 1.6513e-01 0.0000e+00
      7.175    11.8094     1.0131      9.361  40.066552     54.408      6.119   317.0047     1.1161    23.3014     0.0276      0.080      7.034     10.201        483 1.4566e-01 0.0000e+00
      7.187    11.8081     1.0103      9.335  40.112218     54.483      6.118   317.7997     1.0999    23.3149     0.0276      0.078      7.049     10.225        484 1.2975e-01 0.0000e+00
      7.206    11.8074     1.0060      9.296  40.104046     54.484      6.115   318.8218     1.0878    23.1940     0.0276      0.076      7.069     10.253        485 1.3640e-01 0.0000e+00
      7.236    11.8072     1.0052      9.288  40.076722     54.410      6.117   318.5190     1.0999    23.2880     0.0276      0.078      7.093     10.287        486 1.3070e-01 0.0000e+00
      7.256    11.8095     1.0029      9.267  40.146225     54.563      6.117   319.1625     1.0999    24.2414     0.0276      0.082      7.112     10.315        487 1.3370e-01 0.0000e+00
      7.265    11.8129     1.0036      9.273  40.136215     54.487      6.117   318.2918     1.1080    24.1071     0.0276      0.082      7.127     10.337        488 1.2831e-01 0.0000e+00
      7.284    11.8127     1.0035      9.272  40.148509     54.560      6.115   316.8154     1.1161    24.1608     0.0276      0.077      7.144     10.362        489 1.2387e-01 0.0000e+00
      7.307    11.8111     1.0038      9.275  40.130924     54.479      6.115   317.5725     1.0999    24.1608     0.0276      0.075      7.163     10.390        490 1.2684e-01 0.0000e+00
      7.322    11.8105     1.0023      9.262  40.158098     54.555      6.115   317.3075     1.0756    23.5029     0.0276      0.074      7.183     10.419        491 1.2479e-01 0.0000e+00
      7.348    11.8095     1.0050      9.287  40.174021     54.558      6.116   317.4590     1.0959    23.5163     0.0276      0.076      7.208     10.454        492 1.2600e-01 0.0000e+00
      7.381    11.8085     1.0029      9.267  40.111109     54.482      6.114   318.8218     1.1323    23.4894     0.0276      0.079      7.234     10.493        493 1.2537e-01 0.0000e+00
      7.401    11.8083     1.0026      9.264  40.117730     54.484      6.114   314.7711     1.0959    23.5834     0.0276      0.081      7.255     10.523        494 1.2562e-01 0.0000e+00
      7.412    11.8080     1.0062      9.297  40.106450     54.485      6.111   315.3768     1.1606    23.2075     0.0276      0.083      7.272     10.547        495 1.2547e-01 0.0000e+00
      7.435    11.8074     1.0071      9.305  40.065815     54.410      6.111   315.0361     1.1565    23.3149     0.0276      0.086      7.292     10.577        496 1.2557e-01 0.0000e+00
      7.461    11.8070     1.0047      9.282  40.108969     54.486      6.109   317.3454     1.1727    23.3954     0.0276      0.087      7.316     10.611        497 1.2547e-01 0.0000e+00
      7.482    11.8069     1.0020      9.257  40.171410     54.563      6.107   317.1182     1.1929    23.2880     0.0276      0.087      7.339     10.645        498 1.2543e-01 0.0000e+00
      7.511    11.8084     1.0054      9.289  40.166103     54.563      6.110   317.0047     1.1606    23.3417     0.0276      0.088      7.364     10.681        499 1.2538e-01 0.0000e+00
      7.536    11.8096     1.0035      9.271  40.174907     54.564      6.107   314.6575     1.1525    23.3149     0.0276      0.089      7.386     10.712        500 1.2537e-01 0.0000e+00
      7.546    11.8099     1.0052      9.287  40.160455     54.561      6.104   314.7711     1.1929    23.3149     0.0276      0.086      7.402     10.736        501 1.2576e-01 0.0000e+00
      7.565    11.8098     1.0047      9.282  40.124753     54.484      6.105   315.0740     1.1767    23.3149     0.0276      0.086      7.422     10.765        502 1.2520e-01 0.0000e+00
      7.594    11.8085     1.0036      9.272  40.160004     54.559      6.107   315.0361     1.1363    23.3149     0.0276      0.088      7.446     10.800        503 1.2590e-01 0.0000e+00
      7.619    11.8071     0.9996      9.235  40.175920     54.559      6.103   315.1497     1.0190    23.2880     0.0276      0.087      7.470     10.834        504 1.2474e-01 0.0000e+00
      7.637    11.8056     0.9937      9.180  40.164280     54.561      6.105   315.9825     1.0150    23.2343     0.0276      0.086      7.488     10.861        505 1.2663e-01 0.0000e+00
      7.651    11.8045     0.9918      9.163  40.115159     54.487      6.106   315.4904     1.0352    23.2746     0.0276      0.083      7.503     10.883        506 1.3166e-01 0.0000e+00
      7.665    11.8043     0.9889      9.136  40.118386     54.490      6.107   314.6575     1.0352    23.4223     0.0276      0.078      7.518     10.904        507 1.2673e-01 0.0000e+00
      7.681    11.8054     0.9816      9.068  40.160264     54.567      6.107   314.4682     1.0756    23.0195     0.0276      0.076      7.535     10.928        508 1.2479e-01 0.0000e+00
      7.703    11.8050     0.9781      9.036  40.122377     54.492      6.109   314.6197     1.0837    23.0866     0.0276      0.075      7.555     10.958        509 1.2592e-01 0.0000e+00
      7.727    11.8032     0.9796      9.050  40.106206     54.490      6.108   317.7618     1.1120    23.1135     0.0276      0.074      7.578     10.991        510 1.2526e-01 0.0000e+00
      7.751    11.8022     0.9859      9.107  40.121057     54.490      6.106   316.3611     1.0878    23.0597     0.0276      0.073      7.601     11.025        511 1.2562e-01 0.0000e+00
      7.776    11.8013     0.9853      9.102  40.163228     54.569      6.105   316.2854     1.0999    23.1000     0.0276      0.076      7.624     11.058        512 1.2531e-01 0.0000e+00
      7.796    11.8011     0.9842      9.092  40.113056     54.495      6.107   316.5882     1.1080    23.0195     0.0276      0.080      7.644     11.087        513 1.2553e-01 0.0000e+00
      7.812    11.8014     0.9784      9.038  40.064832     54.420      6.107   315.7932     1.1080    23.0866     0.0276      0.083      7.662     11.113        514 1.2534e-01 0.0000e+00
      7.833    11.8009     0.9732      8.990  40.163912     54.572      6.107   317.6861     1.0878    23.0732     0.0276      0.085      7.681     11.141        515 1.2558e-01 0.0000e+00
      7.854    11.8007     0.9696      8.956  40.167748     54.572      6.107   317.3454     1.1767    23.0463     0.0276      0.085      7.701     11.169        516 1.2558e-01 0.0000e+00
      7.871    11.8004     0.9619      8.885  40.119391     54.496      6.105   317.3075     1.1808    23.1135     0.0276      0.082      7.721     11.197        517 1.2551e-01 0.0000e+00
      7.892    11.7999     0.9466      8.744  40.105430     54.497      6.109   317.1182     1.1848    23.0195     0.0276      0.079      7.741     11.227        518 1.2544e-01 0.0000e+00
      7.917    11.7989     0.9465      8.743  40.125790     54.497      6.106   316.6261     1.1403    23.0866     0.0276      0.079      7.764     11.260        519 1.2541e-01 0.0000e+00
      7.940    11.7981     0.9410      8.692  40.153383     54.574      6.105   316.7018     1.0999    23.1806     0.0276      0.080      7.786     11.292        520 1.2548e-01 0.0000e+00
      7.960    11.7979     0.9422      8.703  40.130422     54.499      6.105   317.2697     1.0837    23.2880     0.0276      0.082      7.806     11.321        521 1.2559e-01 0.0000e+00
      7.980    11.7974     0.9377      8.661  40.154365     54.577      6.104   317.1561     1.1120    23.3686     0.0276      0.083      7.823     11.346        522 1.2562e-01 0.0000e+00
      7.990    11.7970     0.9384      8.668  40.123588     54.501      6.103   317.1940     1.1242    23.2880     0.0276      0.081      7.834     11.363        523 1.2555e-01 0.0000e+00
      7.997    11.7977     0.9383      8.667  40.109396     54.502      6.106   316.8154     1.0999    23.3149     0.0276      0.075      7.844     11.377        524 1.2560e-01 0.0000e+00
      8.010    11.7982     0.9390      8.674  40.112698     54.502      6.104   316.7397     1.1120    23.1000     0.0276      0.069      7.859     11.398        525 1.2559e-01 0.0000e+00
      8.035    11.7971     0.9429      8.709  40.119479     54.501      6.104   316.7775     1.1080    23.1403     0.0276      0.065      7.881     11.430        526 1.2557e-01 0.0000e+00
      8.063    11.7957     0.9389      8.672  40.160287     54.576      6.103   316.7018     1.0999    23.0866     0.0276      0.064      7.906     11.466        527 1.2563e-01 0.0000e+00
      8.085    11.7947     0.9408      8.690  40.121244     54.502      6.102   316.8911     1.0959    23.1000     0.0276      0.067      7.927     11.496        528 1.2550e-01 0.0000e+00
      8.098    11.7940     0.9460      8.738  40.108737     54.504      6.100   316.8154     1.1080    23.2880     0.0276      0.069      7.942     11.518        529 1.2544e-01 0.0000e+00
      8.111    11.7937     0.9476      8.753  40.175852     54.582      6.103   316.8154     1.1161    23.2075     0.0276      0.071      7.954     11.537        530 1.2544e-01 0.0000e+00
      8.124    11.7934     0.9491      8.766  40.156383     54.583      6.101   316.7775     1.0999    23.3417     0.0276      0.072      7.966     11.554        531 1.2552e-01 0.0000e+00
      8.135    11.7937     0.9443      8.723  40.132966     54.507      6.104   317.0425     1.1039    23.2746     0.0276      0.071      7.978     11.571        532 1.2561e-01 0.0000e+00
      8.146    11.7941     0.9485      8.761  40.145664     54.584      6.102   316.9668     1.1686    23.1135     0.0276      0.065      7.989     11.588        533 1.2558e-01 0.0000e+00
      8.159    11.7940     0.9504      8.779  40.140583     54.507      6.104   316.8911     1.1686    23.0732     0.0276      0.057      8.003     11.608        534 1.2553e-01 0.0000e+00
      8.179    11.7938     0.9532      8.805  40.198622     54.659      6.103   317.0425     1.1767    23.0060     0.0277      0.052      8.021     11.634        535 1.2553e-01 0.0000e+00
      8.202    11.7938     0.9514      8.788  40.192097     54.583      6.104   317.0425     1.1484    23.0597     0.0276      0.054      8.041     11.664        536 1.2557e-01 0.0000e+00
      8.221    11.7937     0.9543      8.814  40.148702     54.583      6.101   317.7618     1.1080    23.2343     0.0276      0.059      8.061     11.692        537 1.2568e-01 0.0000e+00
      8.237    11.7936     0.9486      8.762  40.133964     54.507      6.100   318.2161     1.0999    23.2612     0.0276      0.063      8.078     11.717        538 1.2558e-01 0.0000e+00
      8.256    11.7935     0.9528      8.801  40.151107     54.583      6.100   318.0647     1.0797    23.2343     0.0276      0.067      8.096     11.742        539 1.2540e-01 0.0000e+00
      8.273    11.7938     0.9462      8.740  40.127367     54.507      6.101   318.2540     1.0999    23.2075     0.0276      0.071      8.113     11.766        540 1.2546e-01 0.0000e+00
      8.289    11.7942     0.9505      8.779  40.163507     54.583      6.101   318.4054     1.1848    23.2075     0.0276      0.072      8.129     11.791        541 1.2554e-01 0.0000e+00
      8.308    11.7942     0.9471      8.748  40.165463     54.583      6.099   317.1182     1.1606    23.1403     0.0276      0.072      8.148     11.819        542 1.2549e-01 0.0000e+00
      8.331    11.7942     0.9455      8.733  40.124933     54.506      6.102   317.7240     1.2010    23.1135     0.0276      0.072      8.168     11.846        543 1.2555e-01 0.0000e+00
      8.345    11.7937     0.9458      8.736  40.154615     54.583      6.098   317.6861     1.1686    23.1269     0.0276      0.071      8.183     11.868        544 1.2551e-01 0.0000e+00
      8.355    11.7937     0.9388      8.671  40.128524     54.507      6.099   318.9733     1.1727    23.1269     0.0276      0.069      8.197     11.887        545 1.2531e-01 0.0000e+00
      8.374    11.7938     0.9410      8.692  40.157402     54.583      6.097   318.8218     1.1767    23.1269     0.0276      0.068      8.213     11.912        546 1.2561e-01 0.0000e+00
      8.397    11.7934     0.9354      8.640  40.178011     54.583      6.097   316.0204     1.1767    23.1537     0.0276      0.068      8.233     11.941        547 1.2555e-01 0.0000e+00
      8.413    11.7932     0.9377      8.661  40.162211     54.583      6.095   316.2854     1.1727    23.1806     0.0276      0.068      8.251     11.968        548 1.2538e-01 0.0000e+00
      8.432    11.7931     0.9392      8.674  40.177065     54.584      6.098   315.9068     1.1767    23.1269     0.0276      0.069      8.270     11.995        549 1.2550e-01 0.0000e+00
      8.454    11.7930     0.9388      8.670  40.159524     54.584      6.096   317.3075     1.3223    23.3417     0.0276      0.069      8.288     12.020        550 1.2545e-01 0.0000e+00
      8.466    11.7931     0.9363      8.647  40.124709     54.508      6.096   317.3454     1.3142    23.3417     0.0276      0.069      8.303     12.043        551 1.2550e-01 0.0000e+00
      8.482    11.7930     0.9330      8.617  40.161062     54.584      6.094   316.0961     1.3102    23.3283     0.0276      0.070      8.322     12.069        552 1.2556e-01 0.0000e+00
      8.510    11.7928     0.9302      8.591  40.173615     54.584      6.091   316.2097     1.3102    23.1940     0.0276      0.073      8.342     12.099        553 1.2569e-01 0.0000e+00
      8.526    11.7927     0.9245      8.538  40.109086     54.508      6.091   316.1340     1.0918    23.2612     0.0276      0.073      8.358     12.122        554 1.2557e-01 0.0000e+00
      8.531    11.7928     0.9190      8.488  40.122704     54.509      6.088   316.2854     1.0959    23.2880     0.0276      0.069      8.369     12.138        555 1.2539e-01 0.0000e+00
      8.548    11.7923     0.9095      8.400  40.156669     54.585      6.090   316.2097     1.1201    23.2746     0.0276      0.067      8.384     12.161        556 1.2542e-01 0.0000e+00
      8.572    11.7910     0.9087      8.392  40.126148     54.509      6.092   318.1025     1.0959    23.2746     0.0276      0.066      8.404     12.189        557 1.2551e-01 0.0000e+00
      8.588    11.7893     0.9093      8.397  40.160686     54.585      6.088   317.8375     1.0797    23.3283     0.0276      0.066      8.424     12.218        558 1.2551e-01 0.0000e+00
      8.611    11.7881     0.9045      8.353  40.173020     54.587      6.088   316.5504     1.0716    23.2880     0.0276      0.068      8.447     12.252        559 1.2538e-01 0.0000e+00
      8.643    11.7877     0.9013      8.324  40.170131     54.590      6.086   317.1940     1.1201    23.4492     0.0276      0.072      8.472     12.288        560 1.2550e-01 0.0000e+00
      8.662    11.7877     0.9001      8.313  40.164282     54.592      6.082   315.8311     1.0797    23.2880     0.0276      0.076      8.493     12.319        561 1.2544e-01 0.0000e+00
      8.677    11.7875     0.8946      8.262  40.180301     54.592      6.081   316.1718     1.1646    23.0463     0.0276      0.080      8.513     12.347        562 1.2536e-01 0.0000e+00
      8.704    11.7875     0.8898      8.217  40.209529     54.668      6.083   320.5254     1.1808    23.0329     0.0277      0.086      8.537     12.382        563 1.2547e-01 0.0000e+00
      8.733    11.7877     0.8910      8.228  40.187241     54.592      6.082   319.5033     1.1686    23.0732     0.0276      0.089      8.567     12.426        564 1.2543e-01 0.0000e+00
      8.773    11.7873     0.8874      8.195  40.208038     54.668      6.080   320.4497     1.1727    23.1135     0.0277      0.095      8.602     12.476        565 1.2556e-01 0.0000e+00
      8.810    11.7867     0.8832      8.156  40.183647     54.592      6.078   317.8375     1.0999    23.5700     0.0276      0.104      8.633     12.521        566 1.2558e-01 0.0000e+00
      8.824    11.7862     0.8855      8.177  40.158264     54.593      6.075   318.2540     1.1080    23.4626     0.0276      0.107      8.652     12.549        567 1.2557e-01 0.0000e+00
      8.833    11.7859     0.8784      8.113  40.180296     54.594      6.075   322.5697     1.0797    23.4626     0.0276      0.103      8.668     12.571        568 1.2554e-01 0.0000e+00
      8.859    11.7862     0.8833      8.157  40.156229     54.594      6.073   322.3804     1.0756    23.4894     0.0276      0.103      8.688     12.601        569 1.2556e-01 0.0000e+00
      8.885    11.7867     0.8800      8.127  40.128885     54.519      6.076   322.0775     1.0878    23.4894     0.0276      0.101      8.709     12.631        570 1.2551e-01 0.0000e+00
      8.897    11.7865     0.8706      8.041  40.154994     54.594      6.077   321.2447     1.1201    23.5163     0.0276      0.093      8.724     12.654        571 1.2551e-01 0.0000e+00
      8.909    11.7857     0.8804      8.131  40.183067     54.594      6.076   321.3204     1.0878    23.4626     0.0276      0.082      8.738     12.673        572 1.2566e-01 0.0000e+00
      8.925    11.7855     0.8844      8.168  40.153279     54.594      6.079   320.3361     1.0999    23.4894     0.0276      0.072      8.753     12.695        573 1.2560e-01 0.0000e+00
      8.941    11.7857     0.8775      8.105  40.132735     54.519      6.078   321.3204     1.0756    23.4894     0.0276      0.067      8.770     12.720        574 1.2544e-01 0.0000e+00
      8.963    11.7854     0.8910      8.229  40.149305     54.595      6.077   321.5097     1.1161    23.2477     0.0276      0.068      8.791     12.750        575 1.2552e-01 0.0000e+00
      8.989    11.7848     0.8935      8.252  40.132658     54.519      6.078   322.5697     1.0999    23.3417     0.0276      0.070      8.813     12.782        576 1.2560e-01 0.0000e+00
      9.007    11.7846     0.9005      8.317  40.153451     54.595      6.079   322.1533     1.0959    23.2612     0.0276      0.070      8.832     12.809        577 1.2547e-01 0.0000e+00
      9.022    11.7854     0.9041      8.350  40.182760     54.596      6.078   322.0775     1.1080    23.2746     0.0276      0.070      8.849     12.833        578 1.2560e-01 0.0000e+00
      9.040    11.7868     0.8983      8.297  40.214848     54.673      6.078   317.2697     1.1686    23.5029     0.0277      0.073      8.864     12.857        579 1.2547e-01 0.0000e+00
      9.057    11.7882     0.9003      8.315  40.172850     54.596      6.082   318.1783     1.1565    23.5432     0.0276      0.075      8.879     12.878        580 1.2545e-01 0.0000e+00
      9.066    11.7892     0.9041      8.349  40.116362     54.517      6.078   320.4118     1.1646    23.5432     0.0276      0.072      8.893     12.897        581 1.2564e-01 0.0000e+00
      9.082    11.7895     0.9034      8.343  40.166483     54.592      6.080   320.0711     1.1606    23.4894     0.0276      0.068      8.909     12.921        582 1.2540e-01 0.0000e+00
      9.107    11.7897     0.9027      8.337  40.229137     54.666      6.081   320.1090     1.2900    23.3283     0.0277      0.066      8.931     12.953        583 1.2534e-01 0.0000e+00
      9.133    11.7903     0.9065      8.371  40.216385     54.665      6.080   315.6418     1.2778    23.2880     0.0277      0.067      8.954     12.987        584 1.2557e-01 0.0000e+00
      9.153    11.7911     0.8990      8.303  40.182354     54.589      6.080   316.2854     1.2900    23.2746     0.0276      0.070      8.974     13.015        585 1.2549e-01 0.0000e+00
      9.166    11.7909     0.9075      8.381  40.212157     54.664      6.079   316.4747     1.2738    23.2880     0.0277      0.072      8.989     13.038        586 1.2541e-01 0.0000e+00
      9.182    11.7895     0.8999      8.312  40.179295     54.587      6.079   316.2854     1.1646    23.4357     0.0276      0.073      9.004     13.060        587 1.2542e-01 0.0000e+00
      9.198    11.7885     0.8941      8.258  40.163918     54.587      6.078   318.4811     1.1686    23.4357     0.0276      0.074      9.020     13.082        588 1.2547e-01 0.0000e+00
      9.213    11.7879     0.8935      8.252  40.171961     54.590      6.081   315.8311     1.1848    23.4760     0.0276      0.073      9.035     13.104        589 1.2565e-01 0.0000e+00
      9.228    11.7872     0.8962      8.278  40.169285     54.591      6.079   315.3768     1.1848    23.4894     0.0276      0.070      9.050     13.126        590 1.2548e-01 0.0000e+00
      9.245    11.7859     0.8965      8.280  40.167250     54.592      6.080   315.4904     1.1565    23.5566     0.0276      0.065      9.066     13.150        591 1.2548e-01 0.0000e+00
      9.264    11.7855     0.8921      8.240  40.174497     54.593      6.080   315.6040     1.0918    23.5163     0.0276      0.062      9.085     13.177        592 1.2558e-01 0.0000e+00
      9.285    11.7857     0.9040      8.350  40.219599     54.671      6.082   315.6040     1.1120    23.5297     0.0277      0.064      9.105     13.205        593 1.2545e-01 0.0000e+00
      9.304    11.7859     0.9136      8.438  40.170453     54.595      6.080   318.1783     1.0878    23.4223     0.0276      0.067      9.124     13.233        594 1.2545e-01 0.0000e+00
      9.323    11.7870     0.9187      8.485  40.176327     54.595      6.080   317.1182     1.1080    23.5163     0.0276      0.069      9.143     13.261        595 1.2556e-01 0.0000e+00
      9.343    11.7885     0.9239      8.534  40.212289     54.671      6.078   317.0804     1.1080    23.5163     0.0277      0.072      9.160     13.286        596 1.2558e-01 0.0000e+00
      9.356    11.7902     0.9325      8.614  40.185031     54.593      6.080   315.6418     1.1080    23.4626     0.0276      0.073      9.174     13.306        597 1.2565e-01 0.0000e+00
      9.366    11.7909     0.9322      8.611  40.210249     54.667      6.077   315.1875     1.0878    23.5297     0.0277      0.071      9.188     13.325        598 1.2564e-01 0.0000e+00
      9.386    11.7916     0.9348      8.636  40.240236     54.664      6.078   315.3768     1.0999    23.5834     0.0277      0.069      9.207     13.352        599 1.2547e-01 0.0000e+00
      9.412    11.7923     0.9348      8.636  40.266374     54.739      6.077   318.7461     1.1080    23.5969     0.0277      0.069      9.229     13.385        600 1.2549e-01 0.0000e+00
      9.434    11.7925     0.9357      8.645  40.177721     54.586      6.078   318.0647     1.1201    23.4894     0.0276      0.070      9.251     13.417        601 1.2548e-01 0.0000e+00
      9.455    11.7930     0.9301      8.593  40.231901     54.661      6.077   316.2854     1.0797    23.5163     0.0277      0.072      9.271     13.446        602 1.2555e-01 0.0000e+00
      9.473    11.7932     0.9170      8.472  40.198949     54.661      6.077   316.3990     1.0999    23.5163     0.0277      0.074      9.288     13.471        603 1.2549e-01 0.0000e+00
      9.484    11.7926     0.8896      8.220  40.337393     54.736      6.075   316.3611     1.2010    23.7043     0.0277      0.075      9.302     13.491        604 1.2551e-01 0.0000e+00
      9.501    11.7923     0.8484      7.840  40.356269     54.964      6.075   317.1940     1.1686    23.7849     0.0278      0.075      9.317     13.513        605 1.2563e-01 0.0000e+00
      9.518    11.7930     0.8095      7.481  40.412785     54.737      6.075   316.7018     1.1403    23.7714     0.0277      0.074      9.332     13.535        606 1.2546e-01 0.0000e+00
      9.529    11.7936     0.7544      6.971  40.029731     54.661      6.072   316.6640     1.1767    23.6506     0.0277      0.069      9.343     13.551        607 1.2536e-01 0.0000e+00
      9.534    11.7941     0.6995      6.464  41.248305     55.572      6.075   316.3232     1.2212    23.4894     0.0281      0.061      9.349     13.560        608 1.2538e-01 0.0000e+00
      9.538    11.7948     0.6445      5.955  46.640261     63.740      6.072   316.3611     1.2212    23.5566     0.0317      0.052      9.353     13.566        609 1.2561e-01 0.0000e+00
      9.541    11.7960     0.6033      5.574  52.162134     70.618      6.073   314.8847     1.2212    23.4894     0.0347      0.044      9.357     13.572        610 1.2560e-01 0.0000e+00
      9.546    11.7970     0.5670      5.240  57.318362     78.068      6.073   315.6797     1.2293    23.5163     0.0380      0.036      9.361     13.577        611 1.2558e-01 0.0000e+00
      9.548    11.7981     0.5464      5.051  61.330517     83.313      6.075   315.6797     1.2374    23.5834     0.0404      0.029      9.364     13.582        612 1.2570e-01 0.0000e+00
      9.553    11.7990     0.5432      5.022  63.767075     86.618      6.075   316.2475     1.2414    23.4626     0.0419      0.022      9.368     13.588        613 1.2553e-01 0.0000e+00
      9.557    11.8012     0.5498      5.085  67.977254     92.283      6.076   313.2947     1.2455    23.4357     0.0444      0.017      9.373     13.594        614 1.2544e-01 0.0000e+00
      9.563    11.8060     0.5631      5.209  70.972669     96.693      6.076   313.8625     1.2293    23.5163     0.0464      0.016      9.378     13.601        615 1.2547e-01 0.0000e+00
      9.567    11.8101     0.5852      5.414  69.456176     94.253      6.075   315.3011     1.2455    23.4894     0.0453      0.016      9.382     13.607        616 1.2544e-01 0.0000e+00
      9.570    11.8108     0.6211      5.747  68.141300     92.491      6.075   312.0454     0.9382    23.5834     0.0445      0.016      9.385     13.611        617 1.2546e-01 0.0000e+00
      9.572    11.8080     0.6542      6.053  66.667398     90.808      6.078   311.8561     0.9179    23.5834     0.0438      0.016      9.387     13.614        618 1.2558e-01 0.0000e+00
      9.573    11.8039     0.6899      6.386  62.943562     85.217      6.074   311.0989     0.9260    23.5163     0.0413      0.014      9.387     13.615        619 1.2567e-01 0.0000e+00
      9.573    11.8046     0.7264      6.725  60.954260     82.943      6.076   311.3261     0.8896    23.5297     0.0402      0.013      9.388     13.616        620 1.2552e-01 0.0000e+00
      9.574    11.8119     0.7595      7.033  60.470746     82.002      6.077   309.2439     1.0999    23.6774     0.0398      0.010      9.389     13.618        621 1.2538e-01 0.0000e+00
      9.576    11.8227     0.7857      7.277  59.209621     80.633      6.076   308.1839     1.0918    23.7983     0.0392      0.008      9.390     13.620        622 1.2539e-01 0.0000e+00
      9.576    11.8347     0.8233      7.627  56.525653     76.625      6.075   307.3511     1.1242    23.6640     0.0374      0.006      9.391     13.621        623 1.2549e-01 0.0000e+00
      9.577    11.8444     0.8528      7.901  53.923763     73.299      6.077   306.2911     1.1161    23.6506     0.0359      0.004      9.392     13.622        624 1.2551e-01 0.0000e+00
      9.578    11.8526     0.8767      8.122  52.501940     71.147      6.078   307.8054     1.0190    23.2612     0.0350      0.004      9.393     13.624        625 1.2558e-01 0.0000e+00
      9.580    11.8632     0.8997      8.333  50.576895     68.814      6.077   305.8746     1.0312    23.2612     0.0339      0.004      9.394     13.626        626 1.2554e-01 0.0000e+00
      9.580    11.8694     0.9071      8.400  47.415016     64.169      6.076   306.0639     1.0554    23.3417     0.0319      0.004      9.395     13.627        627 1.2536e-01 0.0000e+00
      9.580    11.8722     0.9071      8.401  44.743569     60.776      6.080   305.8368     1.0433    23.2880     0.0304      0.004      9.395     13.627        628 1.2549e-01 0.0000e+00
      9.580    11.8862     0.9064      8.395  43.752395     59.171      6.082   304.9661     0.9745    23.2746     0.0297      0.003      9.394     13.626        629 1.2558e-01 0.0000e+00
      9.579    11.8977     0.9035      8.365  42.417273     57.766      6.080   308.8275     0.9584    23.2075     0.0291      0.002      9.393     13.625        630 1.2546e-01 0.0000e+00
      9.578    11.9029     0.8868      8.211  41.509556     55.886      6.080   308.3732     0.9543    23.3149     0.0282      0.001      9.392     13.623        631 1.2553e-01 0.0000e+00
      9.576    11.9108     0.8844      8.190  40.135068     54.921      6.078   308.9411     0.9665    23.4089     0.0278     -0.001      9.392     13.622        632 1.2554e-01 0.0000e+00
      9.577    11.9171     0.8733      8.089  41.250038     54.991      6.080   309.5089     0.9584    23.4894     0.0278     -0.001      9.392     13.622        633 1.2545e-01 0.0000e+00
      9.578    11.9228     0.8662      8.025  48.014925     65.847      6.078   307.9568     0.8977    23.4894     0.0326     -0.002      9.393     13.623        634 1.2545e-01 0.0000e+00
      9.580    11.9216     0.8602      7.970  49.222991     66.369      6.076   310.5311     0.9058    23.5700     0.0329     -0.001      9.394     13.625        635 1.2547e-01 0.0000e+00
      9.579    11.9122     0.8565      7.936  45.205991     61.395      6.077   310.9475     0.8977    23.5163     0.0307     -0.000      9.394     13.625        636 1.2552e-01 0.0000e+00
      9.579    11.9046     0.8526      7.900  44.081754     59.393      6.074   311.0611     0.9220    23.5297     0.0298      0.000      9.395     13.626        637 1.2562e-01 0.0000e+00
      9.581    11.9075     0.8509      7.883  46.170811     62.701      6.074   310.6447     0.9745    23.3417     0.0312      0.001      9.396     13.627        638 1.2559e-01 0.0000e+00
      9.583    11.9078     0.8497      7.872  47.977223     64.990      6.074   310.4554     0.9665    23.3014     0.0323      0.003      9.397     13.629        639 1.2545e-01 0.0000e+00
      9.583    11.8999     0.8533      7.904  47.501545     64.376      6.069   310.4932     0.9665    23.2477     0.0320      0.003      9.397     13.630        640 1.2553e-01 0.0000e+00
      9.583    11.8977     0.8587      7.953  45.902186     62.217      6.072   310.5689     0.9584    23.2343     0.0310      0.003      9.397     13.630        641 1.2551e-01 0.0000e+00
      9.583    11.9038     0.8578      7.943  44.359067     59.995      6.069   311.1747     1.0473    23.5566     0.0300      0.003      9.398     13.631        642 1.2542e-01 0.0000e+00
      9.586    11.9156     0.8600      7.962  45.623642     61.780      6.073   311.5154     1.0352    23.5969     0.0308      0.003      9.400     13.634        643 1.2538e-01 0.0000e+00
      9.587    11.9259     0.8618      7.978  47.266180     64.193      6.073   310.9475     1.0271    23.4894     0.0319      0.004      9.401     13.636        644 1.2544e-01 0.0000e+00
      9.587    11.9308     0.8751      8.100  46.677057     63.113      6.071   309.3197     1.0352    23.4894     0.0314      0.004      9.402     13.637        645 1.2544e-01 0.0000e+00
      9.588    11.9328     0.8754      8.102  45.822606     62.110      6.070   309.8875     1.0878    23.5432     0.0310      0.003      9.403     13.638        646 1.2546e-01 0.0000e+00
      9.589    11.9309     0.8773      8.120  44.946622     60.816      6.070   310.8718     1.1080    23.4626     0.0304      0.004      9.403     13.638        647 1.2559e-01 0.0000e+00
      9.588    11.9258     0.8844      8.185  43.909674     59.448      6.071   310.9097     1.1039    23.5163     0.0298      0.003      9.403     13.638        648 1.2541e-01 0.0000e+00
      9.589    11.9205     0.8908      8.245  43.730417     59.150      6.072   307.9568     1.1161    23.5432     0.0297      0.003      9.403     13.638        649 1.2542e-01 0.0000e+00
      9.588    11.9166     0.8950      8.284  43.567433     59.082      6.071   309.0168     1.1606    24.5905     0.0297      0.002      9.403     13.638        650 1.2544e-01 0.0000e+00
      9.588    11.9107     0.8942      8.277  42.866350     57.955      6.072   308.9789     1.1727    24.5905     0.0292      0.001      9.403     13.638        651 1.2547e-01 0.0000e+00
      9.589    11.9011     0.8919      8.258  42.555667     57.695      6.073   308.8275     1.1767    24.5771     0.0290      0.001      9.403     13.638        652 1.2543e-01 0.0000e+00
      9.588    11.8919     0.8946      8.285  42.648597     57.705      6.072   310.5689     1.1808    24.6442     0.0290      0.000      9.403     13.638        653 1.2536e-01 0.0000e+00
      9.588    11.8870     0.8948      8.287  42.780371     58.023      6.073   308.2218     1.2293    23.4357     0.0292     -0.000      9.403     13.638        654 1.2556e-01 0.0000e+00
      9.589    11.8839     0.8923      8.263  42.777382     57.924      6.071   308.1839     1.2333    23.4089     0.0291     -0.000      9.403     13.638        655 1.2557e-01 0.0000e+00
      9.589    11.8800     0.8955      8.292  42.949017     58.235      6.074   308.1839     1.2455    23.4894     0.0293      0.000      9.403     13.638        656 1.2557e-01 0.0000e+00
      9.589    11.8793     0.8897      8.238  43.071166     58.391      6.071   308.2597     1.2293    23.5163     0.0293      0.000      9.403     13.638        657 1.2551e-01 0.0000e+00
      9.588    11.8811     0.8906      8.246  42.922071     58.170      6.073   308.8654     1.2495    23.4223     0.0292      0.000      9.403     13.638        658 1.2550e-01 0.0000e+00
      9.589    11.8825     0.8892      8.235  42.748857     57.981      6.071   309.4332     1.2374    23.3417     0.0292      0.000      9.403     13.638        659 1.2556e-01 0.0000e+00
      9.589    11.8841     0.8875      8.220  42.901021     58.092      6.074   309.0925     1.2010    23.3149     0.0292      0.000      9.403     13.638        660 1.2559e-01 0.0000e+00
      9.589    11.8883 -9.990e-29 -9.990e-29  43.326106     58.810      6.075   308.9789     1.2374    23.3686     0.0295      0.000      9.403     13.638        661 1.2562e-01 0.0000e+00
      9.589    11.8971 -9.990e-29 -9.990e-29  43.050605     58.315      6.075   308.1082     1.2293    23.2343     0.0293      0.000      9.404     13.639        662 1.2544e-01 0.0000e+00
      9.589    11.9074 -9.990e-29 -9.990e-29  42.739485     57.929      6.074   306.8968     1.2980    23.4894     0.0291      0.000      9.404     13.639        663 1.2543e-01 0.0000e+00
      9.589    11.9092 -9.990e-29 -9.990e-29  42.526493     57.651      6.074   309.1682     1.3021    23.5297     0.0290      0.000      9.404     13.639        664 1.2565e-01 0.0000e+00
      9.589    11.9040 -9.990e-29 -9.990e-29  42.158561     57.066      6.075   307.1618     1.2940    23.5834     0.0288      0.000      9.404     13.639        665 1.2550e-01 0.0000e+00
      9.589    11.9011 -9.990e-29 -9.990e-29  42.099611     57.063      6.075   306.7075     1.2940    23.4492     0.0288      0.000      9.404     13.639        666 1.2553e-01 0.0000e+00
      9.589    11.9003 -9.990e-29 -9.990e-29  42.154821     57.071      6.075   304.9282     1.3587    23.2612     0.0288      0.000      9.404     13.639        667 1.2553e-01 0.0000e+00
      9.589    11.9012 -9.990e-29 -9.990e-29  42.297537     57.341      6.076   304.5875     1.3668    23.2880     0.0289      0.000      9.403     13.638        668 1.2555e-01 0.0000e+00
      9.589    11.9085 -9.990e-29 -9.990e-29  42.456043     57.494      6.076   304.3604     1.3466    23.3014     0.0289     -0.000      9.403     13.638        669 1.2559e-01 0.0000e+00
      9.589    11.9144 -9.990e-29 -9.990e-29  42.521273     57.644      6.078   306.7454     1.3506    23.2746     0.0290     -0.000      9.403     13.638        670 1.2548e-01 0.0000e+00
      9.589 -9.990e-29 -9.990e-29 -9.990e-29  42.394372     57.405      6.075   306.3289     1.4153    23.6774     0.0289     -0.000      9.404     13.639        671 1.2554e-01 0.0000e+00
      9.590 -9.990e-29 -9.990e-29 -9.990e-29  42.257937     57.244      6.077   305.2689     1.4355    23.7043     0.0288      0.000      9.404     13.639        672 1.2549e-01 0.0000e+00
