* Sea-Bird SBE19plus  Data File:
* FileName = C:\R\Reservoirs\Data\DataNotYetUploadedToEDI\Raw_CTD\RawDownloads\080425_fcr50_S7809_0011.hex
* Software version 2.8.0.119
* Temperature SN = 7809
* Conductivity SN = 7809
* System UpLoad Time = Aug 11 2025 16:43:08
* <ApplicationData>
* <Seaterm232>
* <SoftwareVersion>2.8.0.119</SoftwareVersion>
* <BuildDate>07-Nov-2018</BuildDate>
* </Seaterm232>
* </ApplicationData>
* <InstrumentState>
* <HardwareData DeviceType='SBE19plus' SerialNumber='01907809'>
*
*    <Manufacturer>Sea-Bird Electronics, Inc.</Manufacturer>
*
*    <FirmwareVersion>3.1.8</FirmwareVersion>
*
*    <FirmwareDate>Mar  9 2016 16:22:29</FirmwareDate>
*
*    <CommandSetVersion>1.4</CommandSetVersion>
*
*    <PCBAssembly PCBSerialNum='120721' AssemblyNum='41054J'/>
*
*    <PCBAssembly PCBSerialNum='120715' AssemblyNum='41967A'/>
*
*    <PCBAssembly PCBSerialNum='116699' AssemblyNum='41606'/>
*
*    <PCBAssembly PCBSerialNum='120719' AssemblyNum='41059D'/>
*
*    <MfgDate>28-Apr-2017</MfgDate>
*
*    <InternalSensors>
*
*       <Sensor id='Main Temperature'>
*
*          <type>temperature0</type>
*
*          <SerialNumber>01907809</SerialNumber>
*
*       </Sensor>
*
*       <Sensor id='Main Conductivity'>
*
*          <type>conductivity-0</type>
*
*          <SerialNumber>01907809</SerialNumber>
*
*       </Sensor>
*
*       <Sensor id='Main Pressure'>
*
*          <type>strain-0</type>
*
*          <SerialNumber>10586018</SerialNumber>
*
*       </Sensor>
*
*    </InternalSensors>
*
*    <ExternalSensors>
*
*       <Sensor id='volt 0'>
*
*          <type>pH</type>
*
*          <SerialNumber>27-0363</SerialNumber>
*
*       </Sensor>
*
*       <Sensor id='volt 1'>
*
*          <type>ORP</type>
*
*          <SerialNumber>27-0363</SerialNumber>
*
*       </Sensor>
*
*       <Sensor id='volt 2'>
*
*          <type>OXY</type>
*
*          <SerialNumber>43-0434</SerialNumber>
*
*       </Sensor>
*
*       <Sensor id='volt 3'>
*
*          <type>PAR</type>
*
*          <SerialNumber>1122</SerialNumber>
*
*       </Sensor>
*
*       <Sensor id='volt 4'>
*
*          <type>ECO AFL/FL</type>
*
*          <SerialNumber>FLNTURT-2496</SerialNumber>
*
*       </Sensor>
*
*       <Sensor id='volt 5'>
*
*          <type>ECO-NTU</type>
*
*          <SerialNumber>FLNTURT-2496</SerialNumber>
*
*       </Sensor>
*
*       <Sensor id='serial'>
*
*          <type>not assigned</type>
*
*          <SerialNumber>not assigned</SerialNumber>
*
*       </Sensor>
*
*    </ExternalSensors>
*
* </HardwareData>
* <StatusData DeviceType='SBE19plus' SerialNumber='01907809'>
*
*    <DateTime>2025-08-11T16:35:39</DateTime>
*
*    <LoggingState>not logging</LoggingState>
*
*    <EventSummary numEvents='0'/>
*
*    <Power>
*
*       <vMain>12.1</vMain>
*
*       <vLith>8.3</vLith>
*
*       <iMain>63.0</iMain>
*
*       <iPump>53.8</iPump>
*
*       <iExt01>21.1</iExt01>
*
*       <iExt2345>40.6</iExt2345>
*
*    </Power>
*
*    <MemorySummary>
*
*       <Bytes>373198</Bytes>
*
*       <Samples>16226</Samples>
*
*       <SamplesFree>2844562</SamplesFree>
*
*       <SampleLength>23</SampleLength>
*
*       <Profiles>11</Profiles>
*
*    </MemorySummary>
*
* </StatusData>
* <ConfigurationData DeviceType='SBE19plus' SerialNumber='01907809'>
*
*    <ProfileMode>
*
*       <ScansToAverage>1</ScansToAverage>
*
*       <MinimumCondFreq>0</MinimumCondFreq>
*
*       <PumpDelay>45</PumpDelay>
*
*       <AutoRun>no</AutoRun>
*
*       <IgnoreSwitch>no</IgnoreSwitch>
*
*    </ProfileMode>
*
*    <Battery>
*
*       <Type>alkaline</Type>
*
*       <CutOff>7.5</CutOff>
*
*    </Battery>
*
*    <DataChannels>
*
*       <ExtVolt0>yes</ExtVolt0>
*
*       <ExtVolt1>yes</ExtVolt1>
*
*       <ExtVolt2>yes</ExtVolt2>
*
*       <ExtVolt3>yes</ExtVolt3>
*
*       <ExtVolt4>yes</ExtVolt4>
*
*       <ExtVolt5>yes</ExtVolt5>
*
*       <SBE38>no</SBE38>
*
*       <WETLABS>no</WETLABS>
*
*       <OPTODE>no</OPTODE>
*
*       <SBE63>no</SBE63>
*
*       <SeaFET>no</SeaFET>
*
*       <GTD>no</GTD>
*
*    </DataChannels>
*
*    <EchoCharacters>yes</EchoCharacters>
*
*    <OutputExecutedTag>yes</OutputExecutedTag>
*
*    <OutputFormat>raw HEX</OutputFormat>
*
* </ConfigurationData>
* <CalibrationCoefficients DeviceType='SBE19plus' SerialNumber='01907809'>
*
*    <Calibration format='TEMP1' id='Main Temperature'>
*
*       <SerialNum>01907809</SerialNum>
*
*       <CalDate>31-Jan-23</CalDate>
*
*       <TA0>1.218232e-03</TA0>
*
*       <TA1>2.815090e-04</TA1>
*
*       <TA2>-1.578887e-06</TA2>
*
*       <TA3>1.972343e-07</TA3>
*
*       <TOFFSET>0.000000e+00</TOFFSET>
*
*    </Calibration>
*
*    <Calibration format='WBCOND0' id='Main Conductivity'>
*
*       <SerialNum>01907809</SerialNum>
*
*       <CalDate>31-Jan-23</CalDate>
*
*       <G>-1.005652e+00</G>
*
*       <H>1.267963e-01</H>
*
*       <I>-1.561708e-04</I>
*
*       <J>2.645944e-05</J>
*
*       <CPCOR>-9.570000e-08</CPCOR>
*
*       <CTCOR>3.250000e-06</CTCOR>
*
*       <CSLOPE>1.000000e+00</CSLOPE>
*
*    </Calibration>
*
*    <Calibration format='STRAIN0' id='Main Pressure'>
*
*       <SerialNum>10586018</SerialNum>
*
*       <CalDate>20-Jan-23</CalDate>
*
*       <PA0>4.416439e-02</PA0>
*
*       <PA1>4.850502e-04</PA1>
*
*       <PA2>-3.090426e-12</PA2>
*
*       <PTCA0>5.254757e+05</PTCA0>
*
*       <PTCA1>1.050255e+01</PTCA1>
*
*       <PTCA2>-2.922435e-01</PTCA2>
*
*       <PTCB0>2.516687e+01</PTCB0>
*
*       <PTCB1>3.750000e-04</PTCB1>
*
*       <PTCB2>0.000000e+00</PTCB2>
*
*       <PTEMPA0>-5.470820e+01</PTEMPA0>
*
*       <PTEMPA1>5.485421e+01</PTEMPA1>
*
*       <PTEMPA2>-3.446578e-01</PTEMPA2>
*
*       <POFFSET>8.500000e-01</POFFSET>
*
*       <PRANGE>1.600000e+02</PRANGE>
*
*    </Calibration>
*
*    <Calibration format='VOLT0' id='Volt 0'>
*
*       <OFFSET>-4.920000e-02</OFFSET>
*
*       <SLOPE>1.248122e+00</SLOPE>
*
*    </Calibration>
*
*    <Calibration format='VOLT0' id='Volt 1'>
*
*       <OFFSET>-4.784000e-02</OFFSET>
*
*       <SLOPE>1.248871e+00</SLOPE>
*
*    </Calibration>
*
*    <Calibration format='VOLT0' id='Volt 2'>
*
*       <OFFSET>-4.864632e-02</OFFSET>
*
*       <SLOPE>1.248714e+00</SLOPE>
*
*    </Calibration>
*
*    <Calibration format='VOLT0' id='Volt 3'>
*
*       <OFFSET>-4.743790e-02</OFFSET>
*
*       <SLOPE>1.248571e+00</SLOPE>
*
*    </Calibration>
*
*    <Calibration format='VOLT0' id='Volt 4'>
*
*       <OFFSET>-4.671263e-02</OFFSET>
*
*       <SLOPE>1.248951e+00</SLOPE>
*
*    </Calibration>
*
*    <Calibration format='VOLT0' id='Volt 5'>
*
*       <OFFSET>-4.871053e-02</OFFSET>
*
*       <SLOPE>1.249136e+00</SLOPE>
*
*    </Calibration>
*
*    <Calibration format='FREQ0' id='external frequency channel'>
*
*       <EXTFREQSF>1.000014e+00</EXTFREQSF>
*
*    </Calibration>
*
* </CalibrationCoefficients>
* <EventCounters DeviceType='SBE19plus' SerialNumber='01907809'>
*
*    <EventSummary numEvents='0'/>
*
* </EventCounters></InstrumentState>
* <Headers>
*
* cast  11 11 Aug 2025 12:50:21 samples 15163 to 16226, avg = 1, stop = mag switch
*
# nquan = 15
# nvalues = 1064                        
# units = specified
# name 0 = depFM: Depth [fresh water, m]
# name 1 = dz/dtM: Descent Rate [m/s]
# name 2 = sbeox0Mg/L: Oxygen, SBE 43 [mg/l]
# name 3 = sbeox0PS: Oxygen, SBE 43 [% saturation]
# name 4 = specc: Specific Conductance [uS/cm]
# name 5 = c0uS/cm: Conductivity [uS/cm]
# name 6 = flECO-AFL: Fluorescence, WET Labs ECO-AFL/FL [mg/m^3]
# name 7 = ph: pH
# name 8 = orp: Oxidation Reduction Potential [mV]
# name 9 = par/sat/log: PAR/Logarithmic, Satlantic
# name 10 = turbWETntu0: Turbidity, WET Labs ECO [NTU]
# name 11 = prdM: Pressure, Strain Gauge [db]
# name 12 = prdE: Pressure, Strain Gauge [psi]
# name 13 = tv290C: Temperature [ITS-90, deg C]
# name 14 = flag:  0.000e+00
# span 0 =     -0.584,      5.820       
# span 1 =     -0.342,      0.226       
# span 2 =     0.0309,     9.2651       
# span 3 =      0.318,    108.375       
# span 4 =   -436.421,     55.814       
# span 5 =-399.468452,  43.132856       
# span 6 =    -0.1051,    25.7538       
# span 7 =      7.940,      9.138       
# span 8 =   178.9531,   249.6581       
# span 9 = 1.2359e-01, 5.9446e+02       
# span 10 =    -0.0056,   363.7134      
# span 11 =     -0.573,      5.707      
# span 12 =     -0.831,      8.278      
# span 13 =    11.8805,    23.6575      
# span 14 = 0.0000e+00, 0.0000e+00      
# interval = seconds: 0.25
# start_time = Aug 11 2025 12:50:21 [Instrument's time stamp, header]
# bad_flag = -9.990e-29
# <Sensors count="9" >
#   <sensor Channel="1" >
#     <!-- Count, Temperature -->
#     <TemperatureSensor SensorID="58" >
#       <SerialNumber>7809</SerialNumber>
#       <CalibrationDate>31-Jan-23</CalibrationDate>
#       <A0>1.21823180e-003</A0>
#       <A1>2.81508993e-004</A1>
#       <A2>-1.57888696e-006</A2>
#       <A3>1.97234302e-007</A3>
#       <Slope>1.00000000</Slope>
#       <Offset>0.0000</Offset>
#     </TemperatureSensor>
#   </sensor>
#   <sensor Channel="2" >
#     <!-- Frequency 0, Conductivity -->
#     <ConductivitySensor SensorID="3" >
#       <SerialNumber>7809</SerialNumber>
#       <CalibrationDate>31-Jan-23</CalibrationDate>
#       <UseG_J>1</UseG_J>
#       <!-- Cell const and series R are applicable only for wide range sensors. -->
#       <SeriesR>0.0000</SeriesR>
#       <CellConst>2000.0000</CellConst>
#       <ConductivityType>0</ConductivityType>
#       <Coefficients equation="0" >
#         <A>0.00000000e+000</A>
#         <B>0.00000000e+000</B>
#         <C>0.00000000e+000</C>
#         <D>0.00000000e+000</D>
#         <M>0.0</M>
#         <CPcor>-9.57000000e-008</CPcor>
#       </Coefficients>
#       <Coefficients equation="1" >
#         <G>-1.00565232e+000</G>
#         <H>1.26796307e-001</H>
#         <I>-1.56170788e-004</I>
#         <J>2.64594368e-005</J>
#         <CPcor>-9.57000000e-008</CPcor>
#         <CTcor>3.2500e-006</CTcor>
#         <!-- WBOTC not applicable unless ConductivityType = 1. -->
#         <WBOTC>0.00000000e+000</WBOTC>
#       </Coefficients>
#       <Slope>1.00000000</Slope>
#       <Offset>0.00000</Offset>
#     </ConductivitySensor>
#   </sensor>
#   <sensor Channel="3" >
#     <!-- Count, Pressure, Strain Gauge -->
#     <PressureSensor SensorID="46" >
#       <SerialNumber>7809</SerialNumber>
#       <CalibrationDate>20-Jan-23</CalibrationDate>
#       <PA0>4.41643944e-002</PA0>
#       <PA1>4.85050239e-004</PA1>
#       <PA2>-3.09042623e-012</PA2>
#       <PTEMPA0>-5.47081996e+001</PTEMPA0>
#       <PTEMPA1>5.48542136e+001</PTEMPA1>
#       <PTEMPA2>-3.44657813e-001</PTEMPA2>
#       <PTCA0>5.25475731e+005</PTCA0>
#       <PTCA1>1.05025484e+001</PTCA1>
#       <PTCA2>-2.92243463e-001</PTCA2>
#       <PTCB0>2.51668750e+001</PTCB0>
#       <PTCB1>3.75000000e-004</PTCB1>
#       <PTCB2>0.00000000e+000</PTCB2>
#       <Offset>0.000000</Offset>
#     </PressureSensor>
#   </sensor>
#   <sensor Channel="4" >
#     <!-- A/D voltage 0, Oxygen, SBE 43 -->
#     <OxygenSensor SensorID="38" >
#       <SerialNumber>0434</SerialNumber>
#       <CalibrationDate>18-Feb-23</CalibrationDate>
#       <Use2007Equation>1</Use2007Equation>
#       <CalibrationCoefficients equation="0" >
#         <!-- Coefficients for Owens-Millard equation. -->
#         <Boc>0.0000</Boc>
#         <Soc>0.0000e+000</Soc>
#         <offset>0.0000</offset>
#         <Pcor>0.00e+000</Pcor>
#         <Tcor>0.0000</Tcor>
#         <Tau>0.0</Tau>
#       </CalibrationCoefficients>
#       <CalibrationCoefficients equation="1" >
#         <!-- Coefficients for Sea-Bird equation - SBE calibration in 2007 and later. -->
#         <Soc>5.1878e-001</Soc>
#         <offset>-0.5046</offset>
#         <A>-4.2788e-003</A>
#         <B> 1.5372e-004</B>
#         <C>-2.1853e-006</C>
#         <D0> 2.5826e+000</D0>
#         <D1> 1.92634e-004</D1>
#         <D2>-4.64803e-002</D2>
#         <E> 3.6000e-002</E>
#         <Tau20> 0.9900</Tau20>
#         <H1>-3.3000e-002</H1>
#         <H2> 5.0000e+003</H2>
#         <H3> 1.4500e+003</H3>
#       </CalibrationCoefficients>
#     </OxygenSensor>
#   </sensor>
#   <sensor Channel="5" >
#     <!-- A/D voltage 1, PAR/Logarithmic, Satlantic -->
#     <PARLog_SatlanticSensor SensorID="76" >
#       <SerialNumber>1122</SerialNumber>
#       <CalibrationDate>08-Sep-2021</CalibrationDate>
#       <a0>9.6751e-001</a0>
#       <a1>8.0992e-001</a1>
#       <Im>1.3589e+000</Im>
#       <Multiplier>1.0000e+000</Multiplier>
#     </PARLog_SatlanticSensor>
#   </sensor>
#   <sensor Channel="6" >
#     <!-- A/D voltage 2, pH -->
#     <pH_Sensor SensorID="43" >
#       <SerialNumber>0363</SerialNumber>
#       <CalibrationDate>28-Feb-23</CalibrationDate>
#       <Slope>4.7364</Slope>
#       <Offset>2.5433</Offset>
#     </pH_Sensor>
#   </sensor>
#   <sensor Channel="7" >
#     <!-- A/D voltage 3, Oxidation Reduction Potential -->
#     <OxidationReductionPotentialSensor SensorID="41" >
#       <SerialNumber>0363</SerialNumber>
#       <CalibrationDate>28-Feb-23</CalibrationDate>
#       <B>2.499480</B>
#       <M>-0.496195</M>
#       <Offset>0.0</Offset>
#     </OxidationReductionPotentialSensor>
#   </sensor>
#   <sensor Channel="8" >
#     <!-- A/D voltage 4, Fluorometer, WET Labs ECO-AFL/FL -->
#     <FluoroWetlabECO_AFL_FL_Sensor SensorID="20" >
#       <SerialNumber>FLNTURT-2496</SerialNumber>
#       <CalibrationDate>02-Sep-2021</CalibrationDate>
#       <ScaleFactor>4.80000000e+001</ScaleFactor>
#       <!-- Dark output -->
#       <Vblank>0.0550</Vblank>
#     </FluoroWetlabECO_AFL_FL_Sensor>
#   </sensor>
#   <sensor Channel="9" >
#     <!-- A/D voltage 5, Turbidity Meter, WET Labs, ECO-NTU -->
#     <TurbidityMeter SensorID="67" >
#       <SerialNumber>FLNTURT--2496</SerialNumber>
#       <CalibrationDate>02-Sep-2021</CalibrationDate>
#       <ScaleFactor>197.000000</ScaleFactor>
#       <!-- Dark output -->
#       <DarkVoltage>0.070000</DarkVoltage>
#     </TurbidityMeter>
#   </sensor>
# </Sensors>
# datcnv_date = Aug 11 2025 17:43:22, 7.26.7.129 [datcnv_vars = 14]
# datcnv_in = C:\R\Reservoirs\Data\DataNotYetUploadedToEDI\Raw_CTD\RawDownloads\081125_fcr40_S7809011.hex C:\R\Reservoirs\Data\DataNotYetUploadedToEDI\Raw_CTD\RawDownloads\SBE19plusV2_7809_start20230701.xmlcon
# datcnv_skipover = 0
# datcnv_ox_hysteresis_correction = yes
# datcnv_ox_tau_correction = yes
# filter_date = Aug 11 2025 17:43:44, 7.26.7.129
# filter_in = C:\R\Reservoirs\Data\DataNotYetUploadedToEDI\Raw_CTD\RawDownloads\081125_fcr40_S7809011.cnv
# filter_low_pass_tc_A = 0.030
# filter_low_pass_tc_B = 0.150
# filter_low_pass_A_vars = sbeox0Mg/L prdM prdE tv290C
# filter_low_pass_B_vars = depFM dz/dtM sbeox0PS specc c0uS/cm flECO-AFL ph orp par/sat/log turbWETntu0
# alignctd_date = Aug 11 2025 17:44:05, 7.26.7.129
# alignctd_in = C:\R\Reservoirs\Data\DataNotYetUploadedToEDI\Raw_CTD\RawDownloads\081125_fcr40_S7809011.cnv
# alignctd_adv = dz/dtM 1.000, sbeox0PS 1.000, specc 1.000, c0uS/cm 1.000, flECO-AFL 1.000, ph 1.000, orp 1.000, turbWETntu0 1.000                                                                                                   
# file_type = ascii
*END*
     -0.580 6.0264e-45     8.1873     91.431      1.757   1.606943     0.1029      8.305   189.1429 5.8527e+02     7.7788     -0.569     -0.825    20.7435 0.0000e+00
     -0.581 6.6290e-44     8.1878     91.463      1.715   1.568828     0.1024      8.306   189.1784 5.8534e+02     7.7631     -0.569     -0.826    20.7441 0.0000e+00
     -0.581 7.2919e-43     8.1902     91.506      1.686   1.542329     0.1219      8.307   189.3742 5.8603e+02     7.8150     -0.570     -0.826    20.7445 0.0000e+00
     -0.581 8.0211e-42     8.1915     91.500      1.683   1.539920     0.1054      8.307   189.7031 5.8702e+02     7.7565     -0.569     -0.826    20.7449 0.0000e+00
     -0.581 8.8232e-41     8.1901     91.475      1.683   1.539701     0.0862      8.308   189.9721 5.8799e+02     7.7393     -0.569     -0.826    20.7453 0.0000e+00
     -0.581 9.7055e-40     8.1928     91.475      1.683   1.539680     0.1064      8.308   189.9591 5.8858e+02     7.8453     -0.569     -0.826    20.7456 0.0000e+00
     -0.581 1.0676e-38     8.2008     91.472      1.683   1.539667     0.1409      8.309   189.8047 5.8892e+02     7.9121     -0.569     -0.825    20.7458 0.0000e+00
     -0.581 1.1744e-37     8.1985     91.492      1.683   1.539552     0.1378      8.310   189.7396 5.8913e+02     7.7960     -0.570     -0.826    20.7462 0.0000e+00
     -0.581 1.2918e-36     8.1920     91.511      1.681   1.538277     0.1178      8.310   189.6890 5.8909e+02     7.6707     -0.569     -0.825    20.7465 0.0000e+00
     -0.581 1.4210e-35     8.1973     91.474      1.666   1.524260     0.1324      8.310   189.6234 5.8935e+02     7.6953     -0.570     -0.826    20.7465 0.0000e+00
     -0.581 1.5631e-34     8.1928     91.465      1.636   1.496753     0.1404      8.311   189.6344 5.8960e+02     7.6838     -0.570     -0.827    20.7470 0.0000e+00
     -0.581 1.7194e-33     8.1950     91.493      1.595   1.459062     0.1225      8.312   189.5639 5.8926e+02     7.6339     -0.570     -0.826    20.7472 0.0000e+00
     -0.581 1.8913e-32     8.2029     91.470      1.583   1.448597     0.1244      8.312   189.4591 5.8922e+02     7.6724     -0.569     -0.826    20.7475 0.0000e+00
     -0.581 2.0805e-31     8.1924     91.468      1.636   1.496895     0.1379      8.312   189.5715 5.8951e+02     7.6364     -0.570     -0.827    20.7478 0.0000e+00
     -0.581 2.2885e-30     8.1902     91.496      1.679   1.536292     0.1191      8.314   189.5465 5.8840e+02     7.5409     -0.569     -0.826    20.7480 0.0000e+00
     -0.581 2.5174e-29     8.2019     91.504      1.689   1.544896     0.1141      8.315   189.3287 5.8211e+02     7.7469     -0.569     -0.825    20.7484 0.0000e+00
     -0.581 2.7691e-28     8.1920     91.560      1.681   1.537589     0.1764      8.315   189.5198 5.7123e+02     8.2475     -0.570     -0.826    20.7489 0.0000e+00
     -0.581 3.0460e-27     8.1906     91.583      1.652   1.511284     0.2405      8.315   190.0493 5.6288e+02     8.5732     -0.570     -0.826    20.7492 0.0000e+00
     -0.581 3.3506e-26     8.2023     91.569      1.687   1.543555     0.2483      8.316   190.4826 5.5794e+02     8.4742     -0.570     -0.826    20.7495 0.0000e+00
     -0.581 3.6857e-25     8.1895     91.572      1.899   1.737748     0.2120      8.316   190.8013 5.5134e+02     7.3236     -0.569     -0.826    20.7500 0.0000e+00
     -0.581 4.0542e-24     8.2065     91.557      2.210   2.022318     0.1430      8.317   190.8058 5.3705e+02     5.3879     -0.570     -0.826    20.7504 0.0000e+00
     -0.581 4.4597e-23     8.2060     91.594      2.401   2.197178     0.0632      8.316   187.6975 5.0986e+02     4.2674     -0.570     -0.826    20.7507 0.0000e+00
     -0.581 4.9056e-22     8.1986     91.662      2.479   2.268380     0.0043      8.315   182.7307 4.7225e+02     3.9885     -0.570     -0.826    20.7509 0.0000e+00
     -0.581 5.3962e-21     8.2081     91.689      2.528   2.313123    -0.0202      8.320   183.2366 4.3271e+02     3.9634     -0.570     -0.826    20.7512 0.0000e+00
     -0.581 5.9358e-20     8.1963     91.683      2.508   2.294763    -0.0076      8.326   187.8770 3.9797e+02     3.9300     -0.569     -0.826    20.7513 0.0000e+00
     -0.581 6.5294e-19     8.2047     91.673      2.444   2.236417     0.0068      8.327   190.3980 3.6712e+02     3.5510     -0.570     -0.826    20.7513 0.0000e+00
     -0.581 7.1823e-18     8.2123     91.600      2.380   2.177766    -0.0041      8.326   190.8308 3.3602e+02     3.1718     -0.570     -0.826    20.7516 0.0000e+00
     -0.581 7.9005e-17     8.2155     91.471      2.286   2.092364     0.0027      8.325   190.7865 3.0904e+02     3.1027     -0.570     -0.826    20.7518 0.0000e+00
     -0.581 8.6906e-16     8.2106     91.401      2.146   1.963949     0.0219      8.324   190.3792 2.8903e+02     2.9207     -0.569     -0.826    20.7519 0.0000e+00
     -0.581 9.5597e-15     8.2146     91.411      1.998   1.828638     0.0198      8.324   189.6054 2.6743e+02     2.4056     -0.570     -0.827    20.7521 0.0000e+00
     -0.581 1.0516e-13     8.2092     91.478      1.883   1.723188     0.0106      8.324   188.8307 2.4114e+02     2.0675     -0.570     -0.826    20.7522 0.0000e+00
     -0.581 1.1567e-12     8.1890     91.541      1.791   1.639110    -0.0054      8.325   187.8085 2.1748e+02     2.1113     -0.569     -0.826    20.7523 0.0000e+00
     -0.581 1.2724e-11     8.1858     91.516      1.717   1.572168    -0.0078      8.326   185.9358 2.0072e+02     2.2180     -0.570     -0.826    20.7523 0.0000e+00
     -0.581 1.3996e-10     8.1862     91.470      1.690   1.547215    -0.0015      8.328   183.9120 1.8790e+02     2.1281     -0.569     -0.825    20.7526 0.0000e+00
     -0.581 1.5396e-09     8.1934     91.473      1.738   1.590774    -0.0209      8.331   182.8709 1.7795e+02     1.9463     -0.569     -0.826    20.7527 0.0000e+00
     -0.581 1.6936e-08     8.2045     91.438      1.878   1.718776    -0.0344      8.332   183.3287 1.7436e+02     1.9329     -0.569     -0.826    20.7528 0.0000e+00
     -0.580 1.8629e-07     8.1997     91.394      2.067   1.891372    -0.0400      8.331   184.7143 1.7602e+02     2.0005     -0.569     -0.825    20.7529 0.0000e+00
     -0.580 1.8645e-07     8.1870     91.365      2.219   2.030713    -0.0719      8.330   185.4288 1.7557e+02     1.9435     -0.569     -0.825    20.7529 0.0000e+00
     -0.580 1.8832e-08     8.1996     91.383      2.266   2.073336    -0.0874      8.331   184.4820 1.7020e+02     1.9271     -0.569     -0.826    20.7532 0.0000e+00
     -0.580 2.2415e-08     8.1887     91.515      2.215   2.026660    -0.0600      8.333   182.9881 1.6455e+02     2.0754     -0.569     -0.825    20.7539 0.0000e+00
     -0.580 3.8436e-08     8.1854     91.632      2.156   1.973107    -0.0575      8.334   182.8541 1.6212e+02     2.1315     -0.569     -0.825    20.7544 0.0000e+00
     -0.580 2.1194e-08     8.1857     91.668      2.112   1.932579    -0.0984      8.334   183.4632 1.6305e+02     2.0590     -0.569     -0.825    20.7550 0.0000e+00
     -0.580 5.2831e-09     8.1758     91.654      1.956   1.790007    -0.1051      8.333   183.1259 1.6813e+02     2.0872     -0.569     -0.826    20.7559 0.0000e+00
     -0.580 3.7400e-08     8.2012     91.646      0.757   0.692689    -0.0643      8.333   182.8189 1.7847e+02     2.1644     -0.569     -0.825    20.7566 0.0000e+00
     -0.581 4.0952e-07     8.2095     91.676    -11.968 -10.954944    -0.0298      8.333   183.8818 1.8994e+02     2.1389     -0.569     -0.826    20.7572 0.0000e+00
     -0.581      0.000     8.2123     91.660    -64.232 -58.792479    -0.0293      8.333   185.3946 1.9679e+02     1.9485     -0.569     -0.826    20.7579 0.0000e+00
     -0.581      0.000     8.2094     91.551   -236.409-216.390574    -0.0408      8.332   186.9132 1.9881e+02     1.7755     -0.569     -0.826    20.7584 0.0000e+00
     -0.581      0.001     8.2053     91.476   -436.421-399.468452    -0.0443      8.331   188.5637 2.0085e+02     1.7558     -0.569     -0.825    20.7591 0.0000e+00
     -0.581      0.001     8.2125     91.508   -407.416-372.921692    -0.0553      8.331   189.7772 2.0884e+02     1.7439     -0.570     -0.826    20.7598 0.0000e+00
     -0.581      0.001     8.2151     91.538   -245.971-225.148420    -0.0480      8.330   190.0548 2.2188e+02     1.7335     -0.569     -0.826    20.7604 0.0000e+00
     -0.580      0.000     8.1991     91.511   -226.358-207.198819    -0.0397      8.330   190.4579 2.3281e+02     1.6652     -0.569     -0.825    20.7608 0.0000e+00
     -0.579      0.000     8.1858     91.434   -327.724-299.988300    -0.0466      8.329   192.5009 2.3815e+02     1.6362     -0.568     -0.822    20.7614 0.0000e+00
     -0.579      0.001     8.1999     91.429   -334.320-306.027893    -0.0306      8.328   194.5373 2.4010e+02     1.7235     -0.567     -0.823    20.7619 0.0000e+00
     -0.580      0.001     8.1977     91.475   -186.522-170.737489     0.1112      8.328   194.2580 2.4271e+02     1.9008     -0.569     -0.825    20.7626 0.0000e+00
     -0.580      0.000     8.2019     91.487    -50.382 -46.118825     0.3945      8.329   192.0497 2.4908e+02     2.2774     -0.570     -0.826    20.7625 0.0000e+00
     -0.579      0.000     8.1838     91.508     -5.882  -5.384178     0.5895      8.329   187.2814 2.6030e+02     2.5184     -0.568     -0.823    20.7636 0.0000e+00
     -0.578      0.000     8.1857     91.524      1.468   1.348566     0.6628      8.330   181.3451 2.7676e+02     2.4587     -0.565     -0.819    20.7632 0.0000e+00
     -0.578      0.004     8.1978     91.544      6.600   6.090034     1.1978      8.332   178.9531 2.9892e+02     2.8193     -0.567     -0.823    20.7650 0.0000e+00
     -0.580      0.020     8.1895     91.539     18.214  16.907169     2.2145      8.329   184.1727 3.2496e+02     3.6669     -0.567     -0.824    20.7629 0.0000e+00
     -0.580      0.059     8.1985     91.541     31.404  29.323171     2.7590      8.311   194.3793 3.4990e+02     4.0311     -0.570     -0.827    20.7677 0.0000e+00
     -0.579      0.112     8.1940     91.616     36.861  34.666848     2.7716      8.292   200.3175 3.7038e+02     3.9087     -0.567     -0.823    20.7610 0.0000e+00
     -0.566      0.165     8.1898     91.748     37.165  35.224422     2.7826      8.287   203.4877 3.9371e+02     3.9633     -0.572     -0.830    20.8359 0.0000e+00
     -0.511      0.206     8.1360     91.940     37.080  35.367213     2.9176      8.297   219.4593 4.2342e+02     4.1443     -0.526     -0.763    21.1486 0.0000e+00
     -0.409      0.226     8.0637     92.227     36.977  35.441914     3.0972      8.314   234.2560 4.4757e+02     4.1172     -0.393     -0.570    21.5842 0.0000e+00
     -0.313      0.221     8.0049     92.577     36.892  35.493392     3.1641      8.330   223.1351 4.6829e+02     3.9770     -0.294     -0.426    22.0232 0.0000e+00
     -0.249      0.193     7.9558     92.891     36.776  35.482228     3.1685      8.345   208.8081 4.9274e+02     3.9519     -0.235     -0.341    22.4130 0.0000e+00
     -0.215      0.147     7.9261     93.123     36.651  35.433978     3.2252      8.357   205.8334 5.1344e+02     4.0183     -0.201     -0.291    22.7096 0.0000e+00
     -0.202      0.100     7.9163     93.293     36.585  35.417693     3.3338      8.374   203.9459 5.2770e+02     4.1312     -0.196     -0.284    22.9359 0.0000e+00
     -0.197      0.079     7.9256     93.425     36.547  35.412284     3.3916      8.397   202.5054 5.3670e+02     4.1202     -0.194     -0.281    23.1116 0.0000e+00
     -0.192      0.087     7.9320     93.553     36.479  35.368615     3.3736      8.420   201.8393 5.3949e+02     3.9548     -0.189     -0.275    23.2509 0.0000e+00
     -0.182      0.112     7.9368     93.743     36.430  35.333870     3.4079      8.440   201.7423 5.3446e+02     3.9427     -0.183     -0.266    23.3464 0.0000e+00
     -0.156      0.136     7.9415     94.053     36.413  35.309443     3.5234      8.455   201.7630 5.1303e+02     4.1437     -0.167     -0.243    23.4063 0.0000e+00
     -0.099      0.150     7.9459     94.470     36.394  35.263602     3.6134      8.467   201.6592 4.4785e+02     4.3016     -0.104     -0.151    23.4468 0.0000e+00
     -0.028      0.150     7.9503     94.903     36.386  35.223695     3.6309      8.478   201.4340 3.5025e+02     4.2802     -0.017     -0.025    23.4756 0.0000e+00
      0.026      0.135     7.9604     95.277     36.398  35.207571     3.6259      8.487   201.1906 2.8869e+02     4.1927      0.036      0.052    23.4998 0.0000e+00
      0.051      0.109     7.9881     95.556     36.403  35.195501     3.6373      8.496   201.1257 2.7791e+02     4.0973      0.055      0.078    23.4919 0.0000e+00
      0.060      0.076     8.0350     95.727     36.347  35.141182     3.6596      8.504   201.1650 2.8058e+02     4.0483      0.060      0.087    23.4422 0.0000e+00
      0.065      0.047     8.0814     95.818     36.247  35.058379     3.6956      8.513   201.2356 2.7678e+02     4.1129      0.064      0.092    23.3948 0.0000e+00
      0.071      0.031     8.1196     95.865     36.187  35.019175     3.7067      8.520   201.4633 2.7088e+02     4.0934      0.069      0.099    23.3554 0.0000e+00
      0.079      0.026     8.1489     95.850     36.201  35.047881     3.7031      8.528   202.1980 2.7178e+02     4.0174      0.076      0.112    23.3261 0.0000e+00
      0.087      0.026     8.1623     95.783     36.298  35.151695     3.7511      8.536   202.7200 2.7147e+02     4.0818      0.085      0.124    23.3278 0.0000e+00
      0.094      0.030     8.1637     95.727     36.468  35.322690     3.8046      8.544   202.1820 2.6787e+02     4.1546      0.093      0.134    23.3523 0.0000e+00
      0.099      0.038     8.1653     95.727     36.609  35.465731     3.8180      8.553   201.6287 2.6671e+02     4.1808      0.097      0.141    23.3829 0.0000e+00
      0.104      0.048     8.1597     95.757     36.686  35.548804     3.8048      8.561   201.4510 2.6411e+02     4.1929      0.102      0.148    23.4066 0.0000e+00
      0.114      0.061     8.1504     95.866     36.759  35.629190     3.7774      8.570   201.2387 2.5688e+02     4.2326      0.108      0.156    23.4165 0.0000e+00
      0.133      0.075     8.1423     96.146     36.797  35.676307     3.7700      8.579   201.1261 2.4773e+02     4.3536      0.128      0.186    23.4231 0.0000e+00
      0.157      0.085     8.1427     96.339     36.784  35.674358     3.7981      8.587   201.1220 2.4036e+02     4.4260      0.154      0.223    23.4337 0.0000e+00
      0.184      0.089     8.1443     95.907     36.769  35.669087     3.8507      8.593   201.1886 2.3374e+02     4.3569      0.178      0.257    23.4439 0.0000e+00
      0.216      0.084     8.1422     94.636     36.769  35.676042     3.8901      8.598   201.3296 2.2765e+02     4.2352      0.216      0.312    23.4578 0.0000e+00
      0.242      0.073     8.1721     92.754     36.784  35.695009     3.8831      8.604   201.4505 2.2432e+02     4.2528      0.244      0.355    23.4719 0.0000e+00
      0.257      0.059     8.2096     90.625     36.791  35.708078     3.8835      8.610   201.5322 2.2156e+02     4.3644      0.253      0.367    23.4853 0.0000e+00
      0.265      0.043     8.1774     88.586     36.784  35.707166     3.8941      8.615   201.6284 2.1851e+02     4.3206      0.260      0.377    23.4997 0.0000e+00
      0.271      0.028     8.0564     86.705     36.754  35.683993     3.8710      8.621   201.6674 2.1621e+02     4.1679      0.265      0.386    23.5084 0.0000e+00
      0.276      0.018     7.8868     84.915     36.684  35.618247     3.8450      8.628   201.6597 2.1448e+02     4.1231      0.271      0.393    23.5145 0.0000e+00
      0.280      0.013     7.6909     83.404     36.611  35.546725     3.8375      8.634   201.7939 2.1284e+02     4.2233      0.275      0.400    23.5223 0.0000e+00
      0.281      0.009     7.5147     82.347     36.584  35.517162     3.8814      8.638   202.0849 2.1184e+02     4.3547      0.276      0.401    23.5309 0.0000e+00
      0.282      0.007     7.3634     81.692     36.583  35.514588     3.9509      8.642   202.3393 2.1176e+02     4.3449      0.276      0.400    23.5395 0.0000e+00
      0.283      0.005     7.1991     81.317     36.584  35.515602     3.9614      8.645   202.4599 2.1098e+02     4.2076      0.278      0.402    23.5451 0.0000e+00
      0.284      0.004     7.0643     81.042     36.599  35.529422     3.9338      8.649   202.5111 2.1019e+02     4.1300      0.278      0.403    23.5421 0.0000e+00
      0.285      0.003     6.9807     80.722     36.626  35.554801     3.8996      8.655   202.5276 2.1060e+02     4.2261      0.279      0.406    23.5354 0.0000e+00
      0.287      0.000     6.9270     80.341     36.641  35.568654     3.8566      8.660   202.4878 2.1096e+02     4.4135      0.282      0.409    23.5328 0.0000e+00
      0.288     -0.002     6.9015     79.878     36.644  35.570016     3.8126      8.663   202.4598 2.1159e+02     4.4137      0.283      0.410    23.5331 0.0000e+00
      0.287     -0.004     6.8845     79.295     36.645  35.571274     3.7761      8.667   202.5334 2.1389e+02     4.2287      0.282      0.409    23.5335 0.0000e+00
      0.284     -0.004     6.8549     78.604     36.659  35.583859     3.7557      8.672   202.6897 2.1655e+02     4.1233      0.279      0.404    23.5326 0.0000e+00
      0.280     -0.003     6.8243     77.892     36.673  35.595282     3.7335      8.677   202.8009 2.1764e+02     4.1984      0.274      0.398    23.5311 0.0000e+00
      0.279      0.000     6.7864     77.267     36.663  35.582489     3.7069      8.680   202.8457 2.1741e+02     4.3523      0.273      0.395    23.5297 0.0000e+00
      0.280      0.004     6.7379     76.892     36.639  35.556071     3.6750      8.682   202.8864 2.1668e+02     4.3784      0.274      0.397    23.5289 0.0000e+00
      0.282      0.009     6.6749     76.905     36.615  35.529652     3.6392      8.686   202.9485 2.1484e+02     4.2746      0.277      0.402    23.5276 0.0000e+00
      0.285      0.014     6.6129     77.362     36.605  35.516850     3.7073      8.690   203.0800 2.1157e+02     4.2586      0.280      0.406    23.5248 0.0000e+00
      0.290      0.017     6.5551     78.226     36.620  35.528177     3.8656      8.693   203.2721 2.0730e+02     4.3561      0.284      0.411    23.5206 0.0000e+00
      0.295      0.018     6.5176     79.256     36.635  35.539702     3.9382      8.696   203.4641 2.0252e+02     4.3949      0.289      0.418    23.5159 0.0000e+00
      0.301      0.017     6.5211     80.241     36.626  35.529300     3.9202      8.700   203.5957 1.9882e+02     4.3176      0.295      0.428    23.5113 0.0000e+00
      0.307      0.013     6.5558     81.111     36.628  35.529310     3.9048      8.704   203.4869 1.9735e+02     4.2063      0.302      0.438    23.5074 0.0000e+00
      0.311      0.006     6.6424     81.807     36.642  35.539817     3.9277      8.706   203.1803 1.9715e+02     4.2451      0.306      0.444    23.5038 0.0000e+00
      0.312     -0.003     6.7367     82.284     36.635  35.529435     3.9808      8.708   202.9862 1.9756e+02     4.4106      0.307      0.445    23.4995 0.0000e+00
      0.311     -0.013     6.8203     82.534     36.640  35.530673     4.0143      8.711   202.8613 1.9950e+02     4.4658      0.306      0.443    23.4959 0.0000e+00
      0.306     -0.020     6.8982     82.619     36.668  35.554783     3.9578      8.714   202.7025 2.0360e+02     4.3657      0.302      0.437    23.4934 0.0000e+00
      0.297     -0.022     6.9576     82.642     36.683  35.567149     3.8387      8.717   202.7003 2.0910e+02     4.2587      0.293      0.424    23.4908 0.0000e+00
      0.285     -0.017     7.0006     82.655     36.671  35.553287     3.7887      8.719   202.8344 2.1419e+02     4.2998      0.279      0.404    23.4866 0.0000e+00
      0.276     -0.005     7.0199     82.701     36.634  35.514065     3.8202      8.722   202.9480 2.1756e+02     4.4182      0.268      0.388    23.4809 0.0000e+00
      0.273      0.012     7.0235     82.843     36.597  35.473606     3.9116      8.726   203.1265 2.1916e+02     4.4611      0.265      0.385    23.4766 0.0000e+00
      0.279      0.029     7.0252     83.071     36.572  35.444788     4.0279      8.730   203.3586 2.1739e+02     4.3746      0.270      0.391    23.4740 0.0000e+00
      0.293      0.044     7.0262     83.303     36.548  35.419409     4.0610      8.734   203.5179 2.1125e+02     4.2261      0.285      0.413    23.4707 0.0000e+00
      0.313      0.053     7.0267     83.430     36.548  35.420543     4.0615      8.737   203.6752 2.0424e+02     4.2365      0.308      0.448    23.4683 0.0000e+00
      0.334      0.053     7.0409     83.365     36.586  35.458495     4.1012      8.740   203.8832 1.9761e+02     4.3981      0.328      0.476    23.4606 0.0000e+00
      0.351      0.048     7.0643     83.110     36.623  35.497601     4.1837      8.745   204.0548 1.9101e+02     4.4721      0.346      0.501    23.4500 0.0000e+00
      0.361      0.038     7.0872     82.710     36.636  35.512691     4.2927      8.749   204.2011 1.8686e+02     4.4480      0.357      0.517    23.4499 0.0000e+00
      0.366      0.027     7.1011     82.139     36.634  35.514054     4.3455      8.752   204.4480 1.8404e+02     4.4144      0.358      0.520    23.4521 0.0000e+00
      0.369      0.016     7.0952     81.354     36.632  35.514074     4.3556      8.754   204.7162 1.8103e+02     4.4420      0.362      0.525    23.4537 0.0000e+00
      0.372      0.007     7.0699     80.377     36.631  35.512940     4.3323      8.756   204.7769 1.7864e+02     4.4399      0.365      0.529    23.4577 0.0000e+00
      0.374      0.000     7.0371     79.253     36.620  35.500347     4.2465      8.758   204.6657 1.7684e+02     4.2868      0.367      0.532    23.4618 0.0000e+00
      0.374     -0.007     6.9903     78.098     36.611  35.488706     4.1758      8.761   204.5766 1.7599e+02     4.1622      0.367      0.533    23.4666 0.0000e+00
      0.371     -0.014     6.9213     77.147     36.626  35.499076     4.1516      8.765   204.4735 1.7569e+02     4.1277      0.365      0.529    23.4692 0.0000e+00
      0.366     -0.019     6.8378     76.626     36.631  35.498838     4.0951      8.768   204.3665 1.7506e+02     4.1778      0.360      0.522    23.4685 0.0000e+00
      0.359     -0.020     6.7398     76.603     36.621  35.485821     3.9926      8.769   204.4865 1.7464e+02     4.2558      0.352      0.511    23.4659 0.0000e+00
      0.350     -0.017     6.6345     77.019     36.607  35.468580     3.9195      8.771   204.7203 1.7428e+02     4.2157      0.343      0.498    23.4618 0.0000e+00
      0.342     -0.011     6.5451     77.693     36.561  35.417260     3.8939      8.774   204.8707 1.7262e+02     4.2060      0.334      0.485    23.4554 0.0000e+00
      0.339     -0.003     6.5019     78.412     36.524  35.372890     3.9658      8.777   205.0139 1.6892e+02     4.3095      0.330      0.478    23.4495 0.0000e+00
      0.342      0.004     6.5008     79.021     36.535  35.376236     4.1469      8.779   205.1614 1.6358e+02     4.4087      0.333      0.484    23.4440 0.0000e+00
      0.349      0.009     6.5430     79.428     36.557  35.394255     4.2781      8.782   205.2773 1.5799e+02     4.3798      0.342      0.498    23.4401 0.0000e+00
      0.355      0.013     6.6092     79.683     36.564  35.400408     4.2880      8.786   205.3822 1.5398e+02     4.2339      0.349      0.506    23.4333 0.0000e+00
      0.358      0.014     6.6747     79.846     36.551  35.387186     4.2906      8.789   205.4840 1.5108e+02     4.2161      0.351      0.509    23.4171 0.0000e+00
      0.359      0.013     6.7344     79.882     36.526  35.361286     4.3514      8.791   205.4755 1.4745e+02     4.3355      0.352      0.510    23.4054 0.0000e+00
      0.361      0.012     6.7642     79.717     36.508  35.341041     4.3987      8.793   205.4513 1.4401e+02     4.4134      0.353      0.512    23.4037 0.0000e+00
      0.364      0.010     6.7842     79.303     36.503  35.332746     4.4048      8.795   205.5363 1.4235e+02     4.3719      0.356      0.518    23.4033 0.0000e+00
      0.369      0.010     6.7999     78.656     36.496  35.324433     4.3828      8.798   205.5558 1.4162e+02     4.2438      0.362      0.525    23.4030 0.0000e+00
      0.372      0.010     6.8054     77.805     36.476  35.303968     4.3412      8.800   205.5145 1.4090e+02     4.2312      0.366      0.531    23.4010 0.0000e+00
      0.373      0.009     6.7944     76.768     36.447  35.275658     4.3093      8.802   205.4679 1.4041e+02     4.3562      0.366      0.530    23.3955 0.0000e+00
      0.373      0.006     6.7584     75.587     36.407  35.235924     4.2808      8.804   205.3369 1.3983e+02     4.3546      0.365      0.529    23.3910 0.0000e+00
      0.375      0.002     6.7026     74.327     36.375  35.204236     4.2624      8.808   205.2204 1.3882e+02     4.2112      0.368      0.534    23.3897 0.0000e+00
      0.379     -0.003     6.6298     73.076     36.381  35.209751     4.2201      8.811   205.2646 1.3816e+02     4.1258      0.372      0.540    23.3889 0.0000e+00
      0.379     -0.007     6.5409     71.951     36.413  35.239152     4.1351      8.812   205.3549 1.3830e+02     4.1757      0.374      0.543    23.3878 0.0000e+00
      0.376     -0.008     6.4376     71.014     36.418  35.242487     4.1010      8.815   205.4512 1.3830e+02     4.3018      0.370      0.537    23.3863 0.0000e+00
      0.369     -0.007     6.3295     70.279     36.363  35.186626     4.1080      8.817   205.6557 1.3775e+02     4.3193      0.362      0.525    23.3849 0.0000e+00
      0.362     -0.005     6.2174     69.744     36.312  35.134766     4.1437      8.818   205.8480 1.3744e+02     4.2164      0.352      0.512    23.3845 0.0000e+00
      0.360     -0.001     6.1207     69.349     36.301  35.123027     4.2246      8.821   205.9690 1.3710e+02     4.1166      0.351      0.510    23.3829 0.0000e+00
      0.365      0.004     6.0416     69.003     36.287  35.108139     4.2876      8.824   206.0005 1.3643e+02     4.1372      0.358      0.519    23.3793 0.0000e+00
      0.370      0.008     5.9782     68.666     36.261  35.081644     4.3233      8.826   205.8847 1.3610e+02     4.2943      0.363      0.527    23.3754 0.0000e+00
      0.374      0.008     5.9357     68.345     36.237  35.056465     4.3236      8.828   205.7737 1.3591e+02     4.3761      0.367      0.533    23.3725 0.0000e+00
      0.377      0.005     5.9054     68.034     36.242  35.057494     4.2996      8.830   205.7764 1.3543e+02     4.3409      0.370      0.537    23.3713 0.0000e+00
      0.377      0.000     5.8772     67.702     36.283  35.094074     4.2899      8.832   205.8321 1.3495e+02     4.3127      0.370      0.537    23.3707 0.0000e+00
      0.376     -0.003     5.8476     67.366     36.312  35.118060     4.2985      8.834   205.9302 1.3498e+02     4.3771      0.369      0.535    23.3689 0.0000e+00
      0.373     -0.004     5.8210     67.077     36.291  35.093712     4.3375      8.836   206.0172 1.3597e+02     4.4704      0.365      0.530    23.3654 0.0000e+00
      0.369     -0.002     5.7963     66.842     36.254  35.053470     4.3692      8.837   206.0222 1.3759e+02     4.3814      0.361      0.524    23.3610 0.0000e+00
      0.367      0.001     5.7687     66.657     36.214  35.012170     4.3575      8.840   205.9911 1.3862e+02     4.1897      0.359      0.521    23.3564 0.0000e+00
      0.369      0.003     5.7370     66.493     36.178  34.975038     4.3550      8.842   205.9848 1.3884e+02     4.1686      0.362      0.525    23.3506 0.0000e+00
      0.372      0.003     5.7144     66.270     36.190  34.985192     4.3635      8.844   206.0324 1.3898e+02     4.2626      0.365      0.531    23.3445 0.0000e+00
      0.376      0.002     5.6947     65.962     36.215  35.008044     4.3768      8.847   206.1369 1.3825e+02     4.3015      0.369      0.536    23.3395 0.0000e+00
      0.378      0.001     5.6792     65.617     36.206  34.997546     4.4076      8.850   206.3018 1.3608e+02     4.2978      0.372      0.539    23.3349 0.0000e+00
      0.378     -0.001     5.6699     65.272     36.196  34.985160     4.4109      8.851   206.3919 1.3443e+02     4.2514      0.371      0.539    23.3311 0.0000e+00
      0.374     -0.002     5.6519     64.964     36.201  34.985168     4.4170      8.852   206.3651 1.3446e+02     4.2863      0.366      0.532    23.3290 0.0000e+00
      0.371     -0.002     5.6227     64.689     36.218  34.997640     4.4235      8.854   206.3226 1.3427e+02     4.4133      0.362      0.526    23.3287 0.0000e+00
      0.371      0.000     5.5937     64.426     36.233  35.009061     4.3893      8.856   206.2224 1.3347e+02     4.4552      0.363      0.527    23.3271 0.0000e+00
      0.372      0.003     5.5628     64.214     36.223  34.996359     4.3443      8.859   206.1002 1.3343e+02     4.3832      0.364      0.529    23.3215 0.0000e+00
      0.373      0.007     5.5369     64.075     36.200  34.970948     4.3040      8.861   206.0492 1.3359e+02     4.2589      0.365      0.530    23.3153 0.0000e+00
      0.375      0.008     5.5168     63.974     36.186  34.955594     4.3024      8.862   206.0362 1.3322e+02     4.3188      0.366      0.531    23.3102 0.0000e+00
      0.379      0.006     5.4915     63.851     36.299  35.064509     4.3325      8.865   206.0282 1.3252e+02     4.4927      0.370      0.538    23.3060 0.0000e+00
      0.384      0.003     5.4741     63.951     36.578  35.336118     4.3439      8.867   206.0386 1.3164e+02     4.5168      0.378      0.548    23.3009 0.0000e+00
      0.386     -0.002     5.4631     65.354     36.817  35.574796     4.3232      8.869   206.0771 1.3149e+02     4.4733      0.380      0.551    23.2961 0.0000e+00
      0.383     -0.006     5.4584     69.502     36.893  35.666232     4.2901      8.871   206.1494 1.3214e+02     4.4793      0.376      0.546    23.2928 0.0000e+00
      0.377     -0.008     5.4465     76.485     36.883  35.680313     4.2935      8.873   206.2237 1.3317e+02     4.5889      0.370      0.537    23.2944 0.0000e+00
      0.372     -0.008     5.4237     84.745     36.863  35.681632     4.3314      8.875   206.2876 1.3472e+02     4.6377      0.364      0.528    23.2951 0.0000e+00
      0.370     -0.006     5.4792     92.630     36.849  35.682214     4.3404      8.877   206.3191 1.3566e+02     4.5222      0.360      0.523    23.2993 0.0000e+00
      0.370     -0.002     5.8235     99.251     36.845  35.687363     4.3515      8.878   206.2601 1.3572e+02     4.3547      0.362      0.525    23.3295 0.0000e+00
      0.372      0.002     6.4801    104.181     36.832  35.680451     4.4167      8.880   206.1771 1.3581e+02     4.2512      0.365      0.529    23.3678 0.0000e+00
      0.374      0.004     7.2327    107.195     36.811  35.662103     4.4788      8.883   206.1751 1.3599e+02     4.2959      0.366      0.531    23.3949 0.0000e+00
      0.374      0.005     7.9230    108.375     36.804  35.655864     4.5116      8.885   206.2362 1.3645e+02     4.3479      0.367      0.532    23.4141 0.0000e+00
      0.375      0.005     8.4935    108.077     36.817  35.668470     4.5057      8.887   206.1422 1.3751e+02     4.2994      0.367      0.533    23.4256 0.0000e+00
      0.376     -0.000     8.9230    106.897     36.836  35.687630     4.4399      8.889   205.6405 1.3798e+02     4.2222      0.369      0.535    23.4320 0.0000e+00
      0.378     -0.015     9.1732    105.468     36.845  35.697178     4.3652      8.891   204.9890 1.3687e+02     4.2345      0.370      0.537    23.4345 0.0000e+00
      0.379     -0.040     9.2651    104.193     36.866  35.720470     4.3525      8.892   204.5450 1.3706e+02     4.3463      0.371      0.538    23.4346 0.0000e+00
      0.378     -0.072     9.2204    103.221     36.920  35.778909     4.3778      8.894   204.2309 1.4251e+02     4.3775      0.376      0.546    23.4341 0.0000e+00
      0.363     -0.110     9.0975    102.467     36.965  35.832714     4.2805      8.896   203.8584 1.5438e+02     4.2701      0.366      0.531    23.4348 0.0000e+00
      0.323     -0.153     8.9665    101.791     36.980  35.863445     4.0828      8.897   203.3099 1.7031e+02     4.2440      0.322      0.467    23.4357 0.0000e+00
      0.269     -0.196     8.8506    101.092     36.994  35.896701     3.9850      8.898   202.6757 1.8924e+02     4.3346      0.263      0.382    23.4385 0.0000e+00
      0.212     -0.226     8.7730    100.338     36.996  35.917599     3.9711      8.901   202.1263 2.1477e+02     4.3746      0.209      0.304    23.4469 0.0000e+00
      0.148     -0.234     8.7096     99.562     36.990  35.925800     3.8981      8.905   201.7436 2.5228e+02     4.2838      0.151      0.220    23.4605 0.0000e+00
      0.072     -0.218     8.6530     98.807     36.986  35.932430     3.7520      8.908   201.4901 2.9594e+02     4.0905      0.071      0.103    23.4810 0.0000e+00
     -0.003     -0.185     8.5893     98.129     36.980  35.934331     3.6782      8.911   201.2990 3.2723e+02     4.0531     -0.014     -0.020    23.5107 0.0000e+00
     -0.054     -0.143     8.5188     97.576     36.988  35.948799     3.6964      8.915   201.1533 3.4101e+02     4.1731     -0.064     -0.093    23.5408 0.0000e+00
     -0.076     -0.095     8.4494     97.137     37.016  35.980466     3.7224      8.918   201.0200 3.4492e+02     4.2434     -0.081     -0.116    23.5589 0.0000e+00
     -0.080     -0.048     8.3814     96.771     37.033  35.999975     3.7349      8.920   200.9770 3.4327e+02     4.2546     -0.080     -0.117    23.5696 0.0000e+00
     -0.078     -0.010     8.3205     96.491     37.025  35.994325     3.7148      8.923   201.0635 3.3855e+02     4.2058     -0.076     -0.110    23.5812 0.0000e+00
     -0.073      0.014     8.2717     96.326     37.001  35.975612     3.7114      8.927   201.1204 3.3364e+02     4.2344     -0.073     -0.105    23.5918 0.0000e+00
     -0.065      0.024     8.2368     96.294     36.983  35.964075     3.7769      8.929   201.0618 3.2979e+02     4.3604     -0.067     -0.096    23.5979 0.0000e+00
     -0.055      0.023     8.2035     96.359     36.997  35.981739     3.8580      8.932   200.9573 3.2758e+02     4.4322     -0.054     -0.078    23.6000 0.0000e+00
     -0.044      0.017     8.1791     96.444     37.014  35.998838     3.8849      8.935   200.8024 3.2821e+02     4.3847     -0.041     -0.059    23.6020 0.0000e+00
     -0.038      0.008     8.1630     96.547     36.996  35.980476     3.8603      8.937   200.5665 3.3141e+02     4.2303     -0.035     -0.050    23.6087 0.0000e+00
     -0.038     -0.002     8.1594     96.712     36.965  35.950076     3.8192      8.938   200.3425 3.3601e+02     4.1028     -0.036     -0.052    23.6180 0.0000e+00
     -0.043     -0.012     8.1683     96.907     36.964  35.948515     3.8122      8.941   200.2440 3.3954e+02     4.1413     -0.042     -0.060    23.6237 0.0000e+00
     -0.052     -0.018     8.1751     97.062     36.976  35.961602     3.8340      8.943   200.2369 3.3973e+02     4.2522     -0.051     -0.074    23.6241 0.0000e+00
     -0.061     -0.018     8.1807     97.138     36.993  35.981419     3.8323      8.944   200.1703 3.3794e+02     4.2129     -0.060     -0.088    23.6227 0.0000e+00
     -0.066     -0.015     8.1970     97.133     37.005  35.997769     3.8248      8.947   200.0418 3.3841e+02     4.1097     -0.066     -0.096    23.6210 0.0000e+00
     -0.069     -0.009     8.2167     97.139     36.972  35.968951     3.8276      8.949   199.9724 3.3905e+02     4.0972     -0.069     -0.100    23.6196 0.0000e+00
     -0.069     -0.003     8.2297     97.226     36.950  35.950242     3.8319      8.951   200.0197 3.3528e+02     4.1312     -0.068     -0.099    23.6213 0.0000e+00
     -0.068      0.003     8.2369     97.332     36.959  35.961907     3.8192      8.953   200.0979 3.3086e+02     4.1106     -0.067     -0.097    23.6278 0.0000e+00
     -0.066      0.009     8.2313     97.385     36.979  35.983101     3.7912      8.955   200.0571 3.2869e+02     4.0181     -0.065     -0.094    23.6349 0.0000e+00
     -0.064      0.017     8.2274     97.404     37.010  36.016141     3.7668      8.957   199.9570 3.2794e+02     3.9358     -0.063     -0.091    23.6387 0.0000e+00
     -0.061      0.026     8.2381     97.433     37.036  36.044151     3.7411      8.959   200.0064 3.2800e+02     3.9695     -0.060     -0.088    23.6415 0.0000e+00
     -0.055      0.039     8.2496     97.481     37.059  36.067962     3.7388      8.963   200.1369 3.2715e+02     4.1178     -0.056     -0.082    23.6448 0.0000e+00
     -0.045      0.055     8.2519     97.516     37.042  36.050242     3.7384      8.966   200.1585 3.2396e+02     4.1580     -0.046     -0.067    23.6482 0.0000e+00
     -0.029      0.070     8.2514     97.523     37.013  36.020254     3.7366      8.969   200.1825 3.0712e+02     4.1480     -0.030     -0.043    23.6517 0.0000e+00
     -0.009      0.083     8.2531     97.526     37.019  36.022624     3.7756      8.972   200.1686 2.7767e+02     4.2365     -0.011     -0.016    23.6550 0.0000e+00
      0.017      0.093     8.2580     97.525     37.017  36.015442     3.8268      8.974   199.9901 2.5505e+02     4.3061      0.015      0.021    23.6573 0.0000e+00
      0.047      0.097     8.2623     97.485     37.003  35.996858     3.8641      8.976   199.8318 2.3958e+02     4.3738      0.047      0.069    23.6575 0.0000e+00
      0.077      0.095     8.2613     97.386     37.001  35.988272     3.8521      8.978   199.8890 2.2899e+02     4.3717      0.078      0.114    23.6542 0.0000e+00
      0.102      0.086     8.2625     97.217     36.996  35.975064     3.7907      8.979   200.0789 2.2389e+02     4.3154      0.101      0.147    23.6484 0.0000e+00
      0.123      0.073     8.2651     96.969     36.993  35.964048     3.7703      8.980   200.1493 2.2217e+02     4.3767      0.122      0.177    23.6421 0.0000e+00
      0.141      0.057     8.2631     96.622     37.016  35.981965     3.8048      8.981   200.0519 2.2604e+02     4.4287      0.141      0.204    23.6363 0.0000e+00
      0.154      0.041     8.2564     96.178     37.037  36.001349     3.8097      8.982   199.9343 2.3172e+02     4.3292      0.153      0.221    23.6272 0.0000e+00
      0.160      0.028     8.2442     95.711     37.043  36.008054     3.7460      8.983   199.9309 2.3437e+02     4.1994      0.158      0.229    23.6139 0.0000e+00
      0.163      0.018     8.2257     95.335     37.034  35.999598     3.6664      8.983   200.0117 2.3396e+02     4.1913      0.161      0.233    23.6023 0.0000e+00
      0.164      0.016     8.1978     95.114     36.997  35.962556     3.6463      8.984   200.0511 2.3367e+02     4.2990      0.162      0.234    23.5969 0.0000e+00
      0.163      0.022     8.1579     95.049     36.977  35.940882     3.6861      8.987   200.0631 2.3341e+02     4.4095      0.159      0.231    23.5964 0.0000e+00
      0.163      0.035     8.1135     95.099     36.970  35.927884     3.7232      8.988   200.1557 2.2886e+02     4.4339      0.157      0.228    23.5982 0.0000e+00
      0.172      0.050     8.0796     95.215     36.917  35.868843     3.7116      8.989   200.3111 2.2039e+02     4.3552      0.165      0.239    23.5999 0.0000e+00
      0.189      0.064     8.0611     95.380     36.853  35.798049     3.6709      8.990   200.3940 2.0999e+02     4.2432      0.183      0.266    23.5984 0.0000e+00
      0.214      0.071     8.0580     95.579     36.832  35.769851     3.6726      8.991   200.3835 1.9709e+02     4.2755      0.209      0.302    23.5938 0.0000e+00
      0.242      0.071     8.0653     95.837     36.850  35.781688     3.7736      8.992   200.4413 1.8430e+02     4.3359      0.239      0.346    23.5859 0.0000e+00
      0.266      0.061     8.0763     96.217     36.888  35.814261     3.9347      8.993   200.5770 1.7368e+02     4.2899      0.264      0.384    23.5754 0.0000e+00
      0.281      0.046     8.0933     96.692     36.923  35.846436     4.0224      8.993   200.7331 1.6572e+02     4.2658      0.279      0.404    23.5638 0.0000e+00
      0.287      0.031     8.1115     97.151     36.930  35.853465     4.0101      8.993   200.8667 1.6051e+02     4.2493      0.283      0.410    23.5524 0.0000e+00
      0.287      0.019     8.1312     97.501     36.911  35.835803     4.0281      8.994   200.9013 1.5565e+02     4.2955      0.282      0.409    23.5433 0.0000e+00
      0.286      0.011     8.1653     97.709     36.899  35.823229     4.0985      8.994   200.9803 1.5078e+02     4.3456      0.281      0.406    23.5374 0.0000e+00
      0.285      0.007     8.2104     97.773     36.906  35.828336     4.1459      8.994   201.0465 1.4668e+02     4.3084      0.279      0.404    23.5360 0.0000e+00
      0.288      0.006     8.2520     97.761     36.913  35.834101     4.1516      8.994   201.0136 1.4306e+02     4.2903      0.282      0.408    23.5375 0.0000e+00
      0.293      0.005     8.2818     97.747     36.910  35.829468     4.1086      8.994   201.0989 1.4006e+02     4.2974      0.287      0.416    23.5380 0.0000e+00
      0.297      0.003     8.3007     97.717     36.918  35.835774     4.0667      8.994   201.3030 1.3828e+02     4.3607      0.292      0.423    23.5373 0.0000e+00
      0.298      0.001     8.3042     97.688     36.929  35.846904     4.0617      8.995   201.4170 1.3755e+02     4.3719      0.293      0.425    23.5357 0.0000e+00
      0.296     -0.001     8.2991     97.693     36.918  35.837137     4.0476      8.995   201.3594 1.3697e+02     4.2628      0.290      0.420    23.5327 0.0000e+00
      0.292     -0.002     8.3016     97.696     36.924  35.844579     4.0128      8.994   201.2941 1.3594e+02     4.1682      0.285      0.414    23.5301 0.0000e+00
      0.289     -0.001     8.2977     97.670     36.954  35.873437     4.0237      8.994   201.4025 1.3442e+02     4.2192      0.283      0.410    23.5291 0.0000e+00
      0.289      0.001     8.2930     97.623     36.950  35.868816     4.0963      8.995   201.5514 1.3270e+02     4.4012      0.283      0.410    23.5290 0.0000e+00
      0.291      0.003     8.2959     97.558     36.932  35.852145     4.1507      8.996   201.5453 1.3106e+02     4.4207      0.285      0.414    23.5302 0.0000e+00
      0.295      0.004     8.2967     97.477     36.942  35.862225     4.1562      8.996   201.4148 1.2993e+02     4.2512      0.290      0.420    23.5321 0.0000e+00
      0.297      0.004     8.2935     97.389     36.942  35.863794     4.1462      8.996   201.2634 1.2962e+02     4.2301      0.292      0.423    23.5325 0.0000e+00
      0.297      0.003     8.2897     97.297     36.948  35.871122     4.1472      8.995   201.2643 1.2992e+02     4.3706      0.291      0.422    23.5313 0.0000e+00
      0.296      0.002     8.2846     97.213     36.963  35.887367     4.1596      8.995   201.4255 1.3072e+02     4.4464      0.291      0.421    23.5313 0.0000e+00
      0.295      0.002     8.2763     97.121     36.944  35.869866     4.1708      8.996   201.4914 1.3202e+02     4.3954      0.289      0.419    23.5333 0.0000e+00
      0.296      0.006     8.2694     96.989     36.923  35.849867     4.1990      8.998   201.5453 1.3323e+02     4.2661      0.289      0.420    23.5357 0.0000e+00
      0.298      0.014     8.2599     96.878     36.910  35.835919     4.2680      8.999   201.7323 1.3427e+02     4.2497      0.292      0.424    23.5378 0.0000e+00
      0.299      0.025     8.2527     96.859     36.904  35.828117     4.3141      9.000   201.8606 1.3525e+02     4.3679      0.294      0.426    23.5394 0.0000e+00
      0.302      0.036     8.2478     96.910     36.898  35.818977     4.3154      9.000   201.8918 1.3562e+02     4.4659      0.294      0.426    23.5404 0.0000e+00
      0.313      0.043     8.2338     97.002     36.873  35.788847     4.3256      9.001   202.0233 1.3500e+02     4.4777      0.302      0.439    23.5405 0.0000e+00
      0.334      0.046     8.2202     97.122     36.872  35.781053     4.3375      9.002   202.3320 1.3379e+02     4.4084      0.327      0.475    23.5401 0.0000e+00
      0.355      0.047     8.2220     97.278     36.886  35.788188     4.3596      9.005   202.6131 1.3285e+02     4.4479      0.352      0.511    23.5375 0.0000e+00
      0.367      0.052     8.2273     97.493     36.849  35.748200     4.3922      9.008   202.7544 1.3268e+02     4.5792      0.362      0.525    23.5320 0.0000e+00
      0.372      0.058     8.2369     97.747     36.783  35.678254     4.3488      9.010   202.8366 1.3337e+02     4.6298      0.365      0.530    23.5239 0.0000e+00
      0.376      0.067     8.2490     97.994     36.755  35.640404     4.2182      9.012   202.8316 1.3413e+02     4.5804      0.367      0.532    23.5133 0.0000e+00
      0.389      0.079     8.2619     98.229     36.735  35.607791     4.1193      9.014   202.7810 1.3295e+02     4.4608      0.373      0.541    23.5039 0.0000e+00
      0.419      0.095     8.2816     98.536     36.676  35.537709     4.1187      9.018   202.8271 1.3019e+02     4.4468      0.409      0.593    23.5004 0.0000e+00
      0.455      0.108     8.3058     99.011     36.644  35.490963     4.1364      9.022   202.9582 1.2771e+02     4.5138      0.451      0.655    23.4972 0.0000e+00
      0.485      0.114     8.3299     99.543     36.656  35.486707     4.0582      9.025   203.0752 1.2462e+02     4.5202      0.473      0.687    23.4804 0.0000e+00
      0.516      0.109     8.3509     99.883     36.670  35.486218     3.9392      9.026   203.1239 1.2101e+02     4.5575      0.504      0.731    23.4584 0.0000e+00
      0.549      0.097     8.3739     99.936     36.680  35.485031     3.8879      9.027   203.1170 1.1859e+02     4.6231      0.544      0.787    23.4434 0.0000e+00
      0.574      0.082     8.4206     99.793     36.677  35.472349     3.8959      9.029   203.1640 1.1712e+02     4.6988      0.566      0.820    23.4226 0.0000e+00
      0.590      0.066     8.4820     99.602     36.673  35.459755     3.9356      9.031   203.2610 1.1564e+02     4.7563      0.580      0.840    23.3969 0.0000e+00
      0.603      0.050     8.5149     99.427     36.681  35.459642     3.9605      9.032   203.3431 1.1455e+02     4.6345      0.593      0.859    23.3786 0.0000e+00
      0.612      0.036     8.5191     99.268     36.697  35.470979     3.9474      9.033   203.4690 1.1413e+02     4.4221      0.602      0.872    23.3642 0.0000e+00
      0.618      0.026     8.5025     99.158     36.697  35.469922     3.9351      9.033   203.5795 1.1371e+02     4.3398      0.606      0.880    23.3516 0.0000e+00
      0.622      0.021     8.4869     99.119     36.674  35.446862     3.9706      9.034   203.6465 1.1325e+02     4.4254      0.610      0.887    23.3391 0.0000e+00
      0.625      0.018     8.4754     99.144     36.672  35.445949     4.0512      9.034   203.7620 1.1274e+02     4.5698      0.612      0.889    23.3268 0.0000e+00
      0.628      0.017     8.4604     99.222     36.684  35.458882     4.0853      9.034   203.8580 1.1217e+02     4.5481      0.615      0.893    23.3231 0.0000e+00
      0.632      0.017     8.4504     99.323     36.703  35.476338     4.0593      9.034   203.8601 1.1139e+02     4.4016      0.620      0.900    23.3226 0.0000e+00
      0.637      0.016     8.4479     99.401     36.759  35.530113     4.0444      9.034   203.8738 1.1014e+02     4.4039      0.625      0.906    23.3206 0.0000e+00
      0.643      0.013     8.4502     99.457     36.829  35.601486     4.0551      9.035   204.0230 1.0843e+02     4.5422      0.631      0.916    23.3225 0.0000e+00
      0.649      0.008     8.4565     99.527     36.858  35.641378     4.0800      9.035   204.2018 1.0714e+02     4.6386      0.638      0.926    23.3253 0.0000e+00
      0.651      0.004     8.4681     99.623     36.829  35.631766     4.0873      9.036   204.2296 1.0707e+02     4.6130      0.640      0.929    23.3251 0.0000e+00
      0.648      0.002     8.4745     99.718     36.793  35.612194     4.0681      9.038   204.1867 1.0763e+02     4.5748      0.637      0.924    23.3211 0.0000e+00
      0.644      0.002     8.4776     99.747     36.770  35.595095     4.0734      9.038   204.2849 1.0822e+02     4.6204      0.630      0.914    23.3230 0.0000e+00
      0.642      0.003     8.4804     99.673     36.733  35.551936     4.1018      9.038   204.4709 1.0809e+02     4.6523      0.627      0.911    23.3407 0.0000e+00
      0.646      0.005     8.4846     99.537     36.729  35.534490     4.1123      9.039   204.5427 1.0746e+02     4.6528      0.633      0.918    23.3693 0.0000e+00
      0.651      0.006     8.4909     99.395     36.783  35.574488     4.0911      9.041   204.5508 1.0703e+02     4.5930      0.640      0.927    23.3961 0.0000e+00
      0.656      0.006     8.4940     99.296     36.804  35.591386     4.0621      9.041   204.5694 1.0683e+02     4.5435      0.643      0.934    23.4040 0.0000e+00
      0.658      0.009     8.4875     99.267     36.753  35.548449     4.0940      9.042   204.5959 1.0661e+02     4.6345      0.646      0.937    23.3912 0.0000e+00
      0.656      0.018     8.4781     99.265     36.697  35.499489     4.1606      9.044   204.6122 1.0626e+02     4.7036      0.643      0.933    23.3667 0.0000e+00
      0.653      0.032     8.4684     99.248     36.645  35.443564     4.1851      9.045   204.5090 1.0571e+02     4.6958      0.639      0.928    23.3461 0.0000e+00
      0.655      0.049     8.4580     99.228     36.600  35.379840     4.2238      9.048   204.3799 1.0391e+02     4.7106      0.638      0.924    23.3424 0.0000e+00
      0.672      0.065     8.4568     99.267     36.609  35.363469     4.3128      9.051   204.4279 1.0075e+02     4.7808      0.653      0.946    23.3541 0.0000e+00
      0.703      0.075     8.4553     99.448     36.644  35.372479     4.3785      9.055   204.4866 9.7700e+01     4.8609      0.691      1.002    23.3700 0.0000e+00
      0.733      0.077     8.4542     99.772     36.654  35.361842     4.4016      9.057   204.4019 9.5211e+01     4.8250      0.720      1.044    23.3622 0.0000e+00
      0.758      0.072     8.4572    100.223     36.668  35.361718     4.4348      9.059   204.3502 9.3435e+01     4.6549      0.746      1.082    23.3290 0.0000e+00
      0.775      0.062     8.4611    100.783     36.688  35.370967     4.4803      9.062   204.3774 9.2669e+01     4.4774      0.765      1.109    23.2923 0.0000e+00
      0.783      0.055     8.4845    101.330     36.675  35.346754     4.5022      9.064   204.3868 9.2452e+01     4.4545      0.769      1.116    23.2555 0.0000e+00
      0.787      0.053     8.5175    101.743     36.667  35.322740     4.5250      9.067   204.3780 9.2180e+01     4.5836      0.771      1.118    23.2269 0.0000e+00
      0.793      0.054     8.5565    101.968     36.700  35.334383     4.5811      9.069   204.4433 9.1199e+01     4.6037      0.773      1.121    23.2108 0.0000e+00
      0.809      0.056     8.6126    102.040     36.746  35.360606     4.6388      9.071   204.5734 8.9204e+01     4.4578      0.788      1.143    23.1994 0.0000e+00
      0.834      0.056     8.6642    102.028     36.784  35.385976     4.6566      9.073   204.6599 8.7134e+01     4.3917      0.819      1.188    23.1866 0.0000e+00
      0.859      0.053     8.7058    101.989     36.789  35.387328     4.6553      9.075   204.7155 8.6013e+01     4.4869      0.848      1.230    23.1634 0.0000e+00
      0.872      0.048     8.7284    101.965     36.774  35.376951     4.6904      9.076   204.8150 8.5626e+01     4.6186      0.859      1.245    23.1331 0.0000e+00
      0.876      0.039     8.7362    101.962     36.779  35.387406     4.7396      9.077   204.9170 8.5511e+01     4.6174      0.859      1.246    23.1062 0.0000e+00
      0.878      0.029     8.7371    102.011     36.773  35.386843     4.7425      9.078   205.0033 8.5211e+01     4.4733      0.859      1.246    23.0893 0.0000e+00
      0.884      0.023     8.7316    102.116     36.751  35.370148     4.7245      9.078   205.0835 8.4452e+01     4.3450      0.866      1.255    23.0863 0.0000e+00
      0.892      0.022     8.7303    102.242     36.753  35.375905     4.7305      9.078   205.1115 8.3695e+01     4.3975      0.876      1.270    23.0936 0.0000e+00
      0.898      0.023     8.7259    102.352     36.768  35.393009     4.7565      9.079   205.1702 8.3078e+01     4.5959      0.883      1.280    23.1031 0.0000e+00
      0.903      0.023     8.7290    102.409     36.759  35.386607     4.7645      9.081   205.1908 8.2545e+01     4.6264      0.886      1.286    23.1106 0.0000e+00
      0.908      0.023     8.7385    102.409     36.733  35.361956     4.7437      9.081   205.1033 8.1913e+01     4.4585      0.889      1.291    23.1162 0.0000e+00
      0.914      0.022     8.7494    102.364     36.723  35.348746     4.7458      9.082   205.0584 8.1004e+01     4.4106      0.896      1.299    23.1205 0.0000e+00
      0.921      0.021     8.7599    102.259     36.736  35.353777     4.7903      9.084   205.0778 8.0152e+01     4.5252      0.903      1.310    23.1248 0.0000e+00
      0.927      0.021     8.7637    102.069     36.751  35.359328     4.8328      9.085   205.0795 7.9484e+01     4.6146      0.909      1.319    23.1287 0.0000e+00
      0.932      0.022     8.7631    101.836     36.752  35.352408     4.8259      9.086   205.0794 7.8988e+01     4.5694      0.915      1.326    23.1299 0.0000e+00
      0.936      0.024     8.7598    101.622     36.737  35.333540     4.7914      9.088   205.1620 7.8655e+01     4.4233      0.918      1.331    23.1259 0.0000e+00
      0.941      0.024     8.7554    101.481     36.727  35.321536     4.8059      9.089   205.3036 7.8369e+01     4.4197      0.922      1.337    23.1143 0.0000e+00
      0.947      0.024     8.7388    101.447     36.742  35.334166     4.8685      9.089   205.4157 7.8009e+01     4.5940      0.928      1.346    23.1005 0.0000e+00
      0.956      0.023     8.7186    101.473     36.770  35.359341     4.9065      9.089   205.4853 7.7612e+01     4.6854      0.939      1.360    23.0894 0.0000e+00
      0.964      0.021     8.7007    101.533     36.782  35.372135     4.8911      9.089   205.5418 7.7406e+01     4.6022      0.948      1.373    23.0834 0.0000e+00
      0.969      0.020     8.6853    101.622     36.769  35.361960     4.8822      9.090   205.5826 7.7361e+01     4.4772      0.951      1.380    23.0828 0.0000e+00
      0.972      0.018     8.6869    101.696     36.768  35.363217     4.9403      9.092   205.6350 7.7328e+01     4.5052      0.953      1.382    23.0789 0.0000e+00
      0.974      0.018     8.6903    101.717     36.789  35.387338     5.0038      9.093   205.6593 7.7273e+01     4.6337      0.955      1.385    23.0749 0.0000e+00
      0.978      0.021     8.6935    101.660     36.798  35.399818     5.0256      9.093   205.6179 7.7009e+01     4.6983      0.958      1.388    23.0777 0.0000e+00
      0.983      0.027     8.7042    101.555     36.782  35.387214     5.0461      9.094   205.5648 7.6596e+01     4.6381      0.964      1.398    23.0810 0.0000e+00
      0.990      0.034     8.7089    101.413     36.758  35.361845     5.0765      9.096   205.5333 7.6266e+01     4.4860      0.972      1.410    23.0845 0.0000e+00
      0.998      0.039     8.7130    101.225     36.757  35.346875     5.1188      9.097   205.5810 7.5728e+01     4.4647      0.977      1.417    23.0896 0.0000e+00
      1.011      0.041     8.7046    101.041     36.762  35.333087     5.1661      9.098   205.7117 7.4874e+01     4.5852      0.988      1.433    23.0935 0.0000e+00
      1.027      0.039     8.6936    100.890     36.767  35.322000     5.1648      9.099   205.8232 7.4139e+01     4.5771      1.010      1.464    23.1021 0.0000e+00
      1.041      0.034     8.6842    100.795     36.796  35.339695     5.1536      9.100   205.8103 7.3769e+01     4.4355      1.024      1.485    23.1019 0.0000e+00
      1.048      0.031     8.6678    100.775     36.819  35.356685     5.1970      9.100   205.7281 7.3685e+01     4.3418      1.029      1.492    23.0776 0.0000e+00
      1.051      0.031     8.6575    100.815     36.801  35.337075     5.2485      9.101   205.6899 7.3735e+01     4.4006      1.031      1.497    23.0499 0.0000e+00
      1.052      0.037     8.6468    100.846     36.760  35.292927     5.2931      9.103   205.6923 7.3799e+01     4.5999      1.032      1.498    23.0271 0.0000e+00
      1.055      0.049     8.6407    100.819     36.747  35.267030     5.4205      9.106   205.6706 7.3615e+01     4.7016      1.033      1.497    23.0122 0.0000e+00
      1.066      0.063     8.6396    100.737     36.777  35.277727     5.6234      9.107   205.6859 7.2696e+01     4.7081      1.040      1.508    23.0071 0.0000e+00
      1.091      0.074     8.6461    100.595     36.813  35.295334     5.7324      9.108   205.7919 7.1323e+01     4.7470      1.067      1.548    23.0064 0.0000e+00
      1.123      0.078     8.6515    100.436     36.819  35.289548     5.7647      9.108   205.8339 7.0127e+01     4.7612      1.104      1.600    23.0034 0.0000e+00
      1.151      0.075     8.6506    100.329     36.809  35.271200     5.8471      9.109   205.7629 6.9135e+01     4.7432      1.130      1.638    22.9838 0.0000e+00
      1.171      0.065     8.6501    100.274     36.807  35.263815     5.9213      9.109   205.7078 6.8458e+01     4.6666      1.150      1.669    22.9544 0.0000e+00
      1.183      0.051     8.6404    100.259     36.811  35.263701     5.9290      9.110   205.6844 6.8138e+01     4.6543      1.162      1.686    22.9305 0.0000e+00
      1.189      0.036     8.6254    100.286     36.819  35.269820     5.9241      9.110   205.6520 6.7998e+01     4.6972      1.167      1.693    22.9148 0.0000e+00
      1.193      0.026     8.6192    100.343     36.826  35.274343     5.9956      9.111   205.6598 6.7733e+01     4.7069      1.169      1.696    22.9043 0.0000e+00
      1.197      0.020     8.6166    100.428     36.807  35.254939     6.1355      9.112   205.6062 6.7333e+01     4.7374      1.173      1.701    22.8964 0.0000e+00
      1.202      0.018     8.6148    100.508     36.777  35.225559     6.1998      9.113   205.4339 6.7166e+01     4.6906      1.180      1.711    22.8921 0.0000e+00
      1.206      0.020     8.6189    100.525     36.789  35.236342     6.1830      9.113   205.2984 6.7211e+01     4.6536      1.184      1.717    22.8905 0.0000e+00
      1.210      0.024     8.6233    100.504     36.811  35.258415     6.2654      9.113   205.2586 6.7342e+01     4.7677      1.187      1.720    22.8877 0.0000e+00
      1.214      0.030     8.6318    100.516     36.790  35.238656     6.4466      9.113   205.2967 6.7491e+01     4.8745      1.190      1.726    22.8862 0.0000e+00
      1.222      0.039     8.6420    100.551     36.740  35.187783     6.5509      9.114   205.4148 6.7485e+01     4.8180      1.196      1.735    22.8858 0.0000e+00
      1.233      0.049     8.6428    100.557     36.713  35.150889     6.5694      9.115   205.5684 6.7402e+01     4.6999      1.209      1.753    22.8835 0.0000e+00
      1.246      0.057     8.6369    100.541     36.751  35.173244     6.8038      9.116   205.6053 6.7188e+01     4.7097      1.220      1.769    22.8842 0.0000e+00
      1.264      0.062     8.6383    100.528     36.795  35.204264     7.2884      9.118   205.5158 6.6583e+01     4.8005      1.236      1.793    22.8879 0.0000e+00
      1.286      0.063     8.6445    100.496     36.805  35.208691     7.5505      9.118   205.5181 6.6000e+01     4.7731      1.264      1.833    22.8860 0.0000e+00
      1.305      0.060     8.6468    100.414     36.822  35.226775     7.5508      9.119   205.6334 6.5655e+01     4.6513      1.282      1.859    22.8697 0.0000e+00
      1.320      0.054     8.6480    100.304     36.826  35.232566     7.5501      9.119   205.7054 6.5264e+01     4.6263      1.293      1.876    22.8451 0.0000e+00
      1.333      0.046     8.6507    100.232     36.809  35.215270     7.6507      9.119   205.7860 6.5019e+01     4.7099      1.310      1.898    22.8276 0.0000e+00
      1.342      0.038     8.6505    100.202     36.806  35.207983     7.8514      9.120   205.9210 6.4978e+01     4.8080      1.318      1.911    22.8231 0.0000e+00
      1.348      0.033     8.6417    100.167     36.810  35.207898     7.9539      9.120   205.9603 6.4860e+01     4.7878      1.321      1.917    22.8284 0.0000e+00
      1.354      0.028     8.6285    100.138     36.818  35.214244     7.9663      9.120   205.9177 6.4554e+01     4.6702      1.327      1.925    22.8338 0.0000e+00
      1.362      0.023     8.6220    100.151     36.825  35.221264     8.1423      9.119   205.9221 6.4144e+01     4.6498      1.335      1.936    22.8317 0.0000e+00
      1.369      0.019     8.6244    100.208     36.832  35.229329     8.4588      9.119   205.9269 6.3812e+01     4.7465      1.343      1.948    22.8227 0.0000e+00
      1.375      0.016     8.6208    100.272     36.849  35.248305     8.6394      9.119   205.8895 6.3598e+01     4.8830      1.351      1.959    22.8175 0.0000e+00
      1.378      0.013     8.6168    100.313     36.859  35.260360     8.6446      9.119   205.9007 6.3471e+01     4.8991      1.354      1.963    22.8176 0.0000e+00
      1.378      0.012     8.6185    100.366     36.842  35.248200     8.5291      9.119   205.9766 6.3416e+01     4.7368      1.352      1.961    22.8156 0.0000e+00
      1.378      0.012     8.6239    100.452     36.815  35.228183     8.3501      9.120   206.0322 6.3270e+01     4.6286      1.351      1.959    22.8173 0.0000e+00
      1.380      0.013     8.6310    100.546     36.790  35.208686     8.2697      9.120   206.0565 6.3080e+01     4.7183      1.354      1.963    22.8232 0.0000e+00
      1.385      0.016     8.6313    100.616     36.781  35.202813     8.2900      9.120   206.0128 6.2952e+01     4.8647      1.358      1.968    22.8264 0.0000e+00
      1.391      0.018     8.6344    100.669     36.798  35.220626     8.3634      9.120   205.9333 6.2717e+01     4.8604      1.362      1.977    22.8306 0.0000e+00
      1.399      0.018     8.6417    100.710     36.812  35.233720     8.4738      9.121   205.9556 6.2526e+01     4.7349      1.372      1.991    22.8397 0.0000e+00
      1.404      0.018     8.6495    100.706     36.815  35.234230     8.5590      9.121   205.9387 6.2625e+01     4.7140      1.378      1.999    22.8475 0.0000e+00
      1.407      0.018     8.6553    100.661     36.810  35.226789     8.6111      9.121   205.9008 6.2855e+01     4.8473      1.379      2.001    22.8502 0.0000e+00
      1.409      0.018     8.6579    100.598     36.794  35.207199     8.7219      9.121   206.0138 6.2957e+01     4.9459      1.381      2.003    22.8514 0.0000e+00
      1.413      0.019     8.6644    100.504     36.780  35.187697     8.8834      9.121   206.1004 6.2867e+01     4.8472      1.385      2.008    22.8512 0.0000e+00
      1.418      0.021     8.6636    100.378     36.782  35.181328     8.9479      9.122   206.0883 6.2666e+01     4.6780      1.390      2.017    22.8490 0.0000e+00
      1.424      0.023     8.6590    100.237     36.804  35.193629     8.9616      9.122   206.0393 6.2445e+01     4.7115      1.397      2.027    22.8439 0.0000e+00
      1.431      0.024     8.6561    100.098     36.828  35.209523     9.0155      9.123   206.0235 6.2204e+01     4.8080      1.403      2.036    22.8386 0.0000e+00
      1.438      0.026     8.6486     99.965     36.805  35.183141     9.3249      9.124   206.0693 6.1955e+01     4.8194      1.409      2.044    22.8313 0.0000e+00
      1.445      0.030     8.6396     99.855     36.755  35.128438     9.8809      9.124   206.0778 6.1827e+01     4.8153      1.418      2.057    22.8184 0.0000e+00
      1.450      0.035     8.6285     99.761     36.765  35.119126    10.1791      9.125   206.0398 6.1664e+01     4.7245      1.421      2.062    22.8052 0.0000e+00
      1.456      0.039     8.6191     99.674     36.810  35.133975    10.2661      9.127   206.0402 6.1173e+01     4.7116      1.424      2.065    22.7951 0.0000e+00
      1.468      0.042     8.6067     99.582     36.821  35.117585    10.8497      9.128   206.0831 6.0267e+01     4.8303      1.437      2.083    22.7915 0.0000e+00
      1.486      0.043     8.5982     99.432     36.835  35.111265    11.8677      9.128   206.1280 5.9410e+01     4.9302      1.458      2.115    22.7879 0.0000e+00
      1.501      0.044     8.5955     99.222     36.858  35.120980    12.4032      9.128   206.2385 5.9046e+01     4.9634      1.474      2.139    22.7621 0.0000e+00
      1.509      0.044     8.5939     99.006     36.852  35.108136    12.4717      9.129   206.3875 5.8891e+01     4.8907      1.481      2.148    22.7161 0.0000e+00
      1.515      0.043     8.5964     98.811     36.831  35.082859    13.0126      9.130   206.4655 5.8578e+01     4.9050      1.485      2.153    22.6764 0.0000e+00
      1.523      0.042     8.5875     98.676     36.822  35.069139    14.0326      9.130   206.4073 5.8073e+01     4.9989      1.492      2.164    22.6506 0.0000e+00
      1.535      0.044     8.5684     98.564     36.830  35.069133    14.5837      9.130   206.2858 5.7493e+01     4.9674      1.505      2.182    22.6354 0.0000e+00
      1.549      0.048     8.5525     98.430     36.852  35.082774    14.6321      9.131   206.2875 5.6803e+01     4.8995      1.519      2.202    22.6270 0.0000e+00
      1.563      0.050     8.5329     98.300     36.889  35.107164    14.9258      9.132   206.3418 5.6149e+01     4.8959      1.535      2.225    22.6221 0.0000e+00
      1.575      0.049     8.5242     98.167     36.906  35.110222    15.5049      9.132   206.2543 5.5644e+01     4.9914      1.545      2.241    22.6160 0.0000e+00
      1.588      0.045     8.5201     98.053     36.930  35.119735    15.8407      9.133   206.1768 5.4936e+01     5.0638      1.555      2.255    22.6044 0.0000e+00
      1.603      0.040     8.5056     98.002     36.982  35.158710    15.8813      9.133   206.1786 5.4196e+01     4.9848      1.573      2.282    22.5954 0.0000e+00
      1.614      0.037     8.4993     98.011     37.033  35.200775    16.0379      9.134   206.1038 5.3909e+01     4.9597      1.585      2.301    22.5827 0.0000e+00
      1.619      0.038     8.4898     98.071     37.086  35.247646    16.3685      9.135   206.1321 5.3826e+01     5.0331      1.588      2.303    22.5618 0.0000e+00
      1.622      0.040     8.4808     98.169     37.125  35.281283    16.5744      9.136   206.2626 5.3542e+01     5.1546      1.590      2.305    22.5427 0.0000e+00
      1.629      0.042     8.4798     98.278     37.140  35.290235    16.6210      9.136   206.3064 5.2953e+01     5.3025      1.594      2.312    22.5284 0.0000e+00
      1.643      0.043     8.4820     98.376     37.149  35.292422    16.5996      9.137   206.3169 5.1939e+01     5.2839      1.607      2.332    22.5191 0.0000e+00
      1.663      0.046     8.4880     98.467     37.171  35.307722    16.2994      9.138   206.3039 5.0910e+01     5.2378      1.631      2.367    22.5158 0.0000e+00
      1.679      0.049     8.4978     98.533     37.219  35.348313    15.7871      9.138   206.3213 5.0483e+01     5.2910      1.650      2.395    22.5132 0.0000e+00
      1.686      0.051     8.5099     98.549     37.283  35.402517    15.5243      9.138   206.3552 5.0269e+01     5.3129      1.654      2.399    22.5047 0.0000e+00
      1.692      0.051     8.5187     98.516     37.348  35.455502    15.4859      9.137   206.3696 4.9738e+01     5.3312      1.656      2.402    22.4947 0.0000e+00
      1.704      0.050     8.5287     98.412     37.390  35.481351    15.0487      9.137   206.4089 4.8980e+01     5.2388      1.669      2.421    22.4875 0.0000e+00
      1.721      0.048     8.5369     98.214     37.385  35.461236    14.2246      9.137   206.4865 4.8162e+01     5.0841      1.687      2.447    22.4822 0.0000e+00
      1.738      0.048     8.5380     97.876     37.404  35.466076    13.7864      9.137   206.6191 4.7410e+01     5.1001      1.705      2.473    22.4750 0.0000e+00
      1.753      0.047     8.5389     97.302     37.492  35.539843    13.7619      9.136   206.7217 4.6914e+01     5.1587      1.723      2.499    22.4623 0.0000e+00
      1.762      0.045     8.5335     96.528     37.557  35.591754    13.6287      9.136   206.8667 4.6645e+01     5.0760      1.730      2.510    22.4440 0.0000e+00
      1.767      0.042     8.5200     95.719     37.565  35.586120    13.3416      9.136   206.9952 4.6298e+01     4.9200      1.731      2.510    22.4198 0.0000e+00
      1.775      0.041     8.4997     94.914     37.593  35.598611    13.1696      9.136   206.9855 4.5703e+01     4.9120      1.737      2.520    22.4014 0.0000e+00
      1.789      0.041     8.4504     94.020     37.694  35.679307    13.1561      9.136   207.0068 4.5024e+01     5.0470      1.755      2.545    22.3928 0.0000e+00
      1.803      0.045     8.3765     92.949     37.839  35.800404    12.9696      9.136   207.0809 4.4441e+01     5.1179      1.770      2.567    22.3803 0.0000e+00
      1.813      0.049     8.3088     91.689     37.985  35.920671    12.5628      9.136   207.1941 4.3956e+01     5.0524      1.778      2.578    22.3616 0.0000e+00
      1.823      0.052     8.2465     90.300     38.147  36.054773    12.3084      9.136   207.2571 4.3388e+01     4.9378      1.786      2.591    22.3424 0.0000e+00
      1.836      0.053     8.1739     88.746     38.271  36.152791    12.2236      9.135   207.2398 4.2681e+01     4.9279      1.800      2.611    22.3237 0.0000e+00
      1.851      0.051     8.0858     86.899     38.290  36.154012    11.9540      9.135   207.4150 4.1948e+01     5.0359      1.815      2.633    22.3034 0.0000e+00
      1.868      0.047     7.9755     84.703     38.281  36.132970    11.4873      9.134   207.6544 4.1162e+01     5.0472      1.830      2.654    22.2783 0.0000e+00
      1.884      0.041     7.8599     82.206     38.308  36.152162    11.2161      9.133   207.7259 4.0528e+01     4.9277      1.851      2.683    22.2518 0.0000e+00
      1.894      0.034     7.7351     79.670     38.358  36.195697    11.1882      9.133   207.8492 4.0253e+01     4.8898      1.862      2.700    22.2267 0.0000e+00
      1.898      0.027     7.5776     77.520     38.381  36.215189    11.1927      9.132   207.9406 4.0137e+01     4.8956      1.862      2.700    22.2033 0.0000e+00
      1.898      0.022     7.3893     75.992     38.363  36.197479    11.3277      9.131   207.8845 3.9969e+01     4.9294      1.862      2.700    22.1865 0.0000e+00
      1.901      0.017     7.1657     75.004     38.334  36.171911    11.5728      9.130   207.8587 3.9668e+01     4.9917      1.862      2.702    22.1787 0.0000e+00
      1.908      0.016     6.9275     74.355     38.319  36.159852    11.6758      9.129   207.9729 3.9334e+01     4.9315      1.871      2.714    22.1756 0.0000e+00
      1.914      0.017     6.7328     73.953     38.338  36.178587    11.6660      9.129   208.1468 3.9094e+01     4.8506      1.879      2.725    22.1726 0.0000e+00
      1.919      0.018     6.6048     73.862     38.369  36.208085    11.5785      9.128   208.1552 3.8914e+01     4.9022      1.882      2.730    22.1707 0.0000e+00
      1.923      0.018     6.5258     74.088     38.358  36.199260    11.4008      9.126   208.0736 3.8793e+01     5.0427      1.886      2.735    22.1731 0.0000e+00
      1.925      0.018     6.4725     74.446     38.286  36.135329    11.2902      9.126   208.1069 3.8673e+01     5.0802      1.888      2.738    22.1780 0.0000e+00
      1.929      0.018     6.4332     74.748     38.210  36.069616    11.2315      9.125   208.2995 3.8465e+01     4.9798      1.891      2.743    22.1798 0.0000e+00
      1.936      0.020     6.4229     74.938     38.168  36.039242    10.9661      9.124   208.4230 3.8226e+01     4.9216      1.898      2.752    22.1784 0.0000e+00
      1.942      0.025     6.4514     75.108     38.139  36.021900    10.5363      9.122   208.3955 3.8059e+01     4.9580      1.906      2.763    22.1792 0.0000e+00
      1.947      0.031     6.4881     75.438     38.162  36.050295    10.3210      9.122   208.4838 3.7956e+01     5.0437      1.910      2.770    22.1840 0.0000e+00
      1.951      0.037     6.5146     76.015     38.242  36.128769    10.2359      9.121   208.6302 3.7785e+01     5.0352      1.912      2.773    22.1918 0.0000e+00
      1.960      0.040     6.5280     76.810     38.262  36.145867     9.6074      9.119   208.6168 3.7326e+01     4.8557      1.917      2.782    22.2051 0.0000e+00
      1.977      0.041     6.5318     77.699     38.250  36.130120     8.5315      9.118   208.5794 3.6678e+01     4.7522      1.938      2.811    22.2205 0.0000e+00
      1.995      0.043     6.5579     78.438     38.386  36.255623     7.9810      9.116   208.6948 3.6218e+01     4.8425      1.961      2.844    22.2304 0.0000e+00
      2.005      0.046     6.6087     78.851     38.674  36.521193     7.9451      9.113   208.8081 3.6014e+01     4.9224      1.970      2.857    22.2341 0.0000e+00
      2.010      0.047     6.6807     78.953     38.922  36.739588     7.9061      9.109   208.9166 3.5875e+01     4.8645      1.971      2.858    22.2305 0.0000e+00
      2.015      0.047     6.7690     78.733     39.017  36.802277     7.8415      9.105   209.2320 3.5534e+01     4.7232      1.974      2.862    22.2217 0.0000e+00
      2.030      0.046     6.8406     77.901     39.012  36.771503     7.8298      9.100   209.6101 3.4846e+01     4.6832      1.986      2.882    22.2192 0.0000e+00
      2.050      0.045     6.8736     75.948     39.005  36.748179     7.8647      9.094   209.7886 3.4136e+01     4.7902      2.012      2.918    22.2182 0.0000e+00
      2.068      0.044     6.8836     72.791     39.040  36.774054     7.8388      9.088   209.8419 3.3756e+01     4.8217      2.032      2.947    22.1974 0.0000e+00
      2.078      0.042     6.8776     69.129     39.105  36.830538     7.5339      9.081   209.9963 3.3580e+01     4.7231      2.038      2.956    22.1566 0.0000e+00
      2.081      0.039     6.8318     65.798     39.211  36.923490     7.0244      9.076   210.1923 3.3406e+01     4.6570      2.040      2.958    22.1174 0.0000e+00
      2.086      0.039     6.6730     63.183     39.381  37.073030     6.7636      9.070   210.3189 3.3122e+01     4.7052      2.043      2.964    22.0971 0.0000e+00
      2.096      0.042     6.3673     61.196     39.581  37.242631     6.7194      9.064   210.4946 3.2728e+01     4.8269      2.054      2.979    22.0909 0.0000e+00
      2.108      0.047     6.0192     59.566     39.765  37.387745     6.2150      9.057   210.5957 3.2306e+01     4.8987      2.067      2.998    22.0875 0.0000e+00
      2.122      0.051     5.7180     58.104     39.843  37.431555     5.2431      9.050   210.5947 3.1791e+01     4.8560      2.080      3.017    22.0806 0.0000e+00
      2.139      0.051     5.4959     56.648     39.828  37.391575     4.6816      9.044   210.7409 3.1221e+01     4.7547      2.098      3.043    22.0679 0.0000e+00
      2.156      0.046     5.3363     54.958     39.866  37.411946     4.6201      9.038   210.9879 3.0770e+01     4.7328      2.117      3.070    22.0452 0.0000e+00
      2.169      0.040     5.2017     52.880     39.955  37.487475     4.5646      9.030   211.1711 3.0512e+01     4.7283      2.129      3.087    22.0073 0.0000e+00
      2.176      0.032     5.0815     50.582     40.020  37.543315     4.4279      9.023   211.3213 3.0376e+01     4.6314      2.135      3.096    21.9658 0.0000e+00
      2.180      0.026     4.9665     48.469     40.064  37.579458     4.3320      9.017   211.5129 3.0210e+01     4.5181      2.137      3.099    21.9314 0.0000e+00
      2.184      0.021     4.8274     46.794     40.097  37.607196     4.3035      9.010   211.6814 3.0028e+01     4.4173      2.142      3.107    21.9129 0.0000e+00
      2.188      0.019     4.6406     45.560     40.188  37.688324     4.3088      9.003   211.8101 2.9878e+01     4.4713      2.147      3.114    21.9076 0.0000e+00
      2.193      0.021     4.4231     44.730     40.378  37.862344     4.3371      8.997   212.0370 2.9675e+01     4.5904      2.150      3.118    21.8987 0.0000e+00
      2.199      0.024     4.2298     44.257     40.531  37.997954     4.3293      8.991   212.2734 2.9457e+01     4.4913      2.157      3.129    21.8928 0.0000e+00
      2.204      0.028     4.0867     43.972     40.610  38.058836     4.2809      8.983   212.3444 2.9248e+01     4.3667      2.161      3.134    21.8922 0.0000e+00
      2.210      0.033     3.9794     43.537     40.799  38.217696     4.1100      8.975   212.3794 2.8912e+01     4.4150      2.164      3.140    21.8846 0.0000e+00
      2.221      0.040     3.9078     42.607     41.153  38.522637     3.8360      8.965   212.4386 2.8520e+01     4.5287      2.178      3.159    21.8806 0.0000e+00
      2.232      0.049     3.8709     41.124     41.524  38.826753     3.7075      8.957   212.5438 2.8195e+01     4.6151      2.190      3.177    21.8737 0.0000e+00
      2.242      0.054     3.8593     39.316     41.747  38.975582     3.6961      8.950   212.7049 2.7826e+01     4.5706      2.198      3.188    21.8537 0.0000e+00
      2.257      0.055     3.8354     37.216     41.830  38.989399     3.6651      8.941   212.9246 2.7232e+01     4.4351      2.209      3.205    21.8339 0.0000e+00
      2.278      0.053     3.7596     34.617     41.894  38.993730     3.6571      8.931   213.2216 2.6511e+01     4.4122      2.234      3.239    21.8072 0.0000e+00
      2.298      0.051     3.6191     31.566     41.971  39.027875     3.6995      8.921   213.4563 2.6050e+01     4.5320      2.259      3.275    21.7563 0.0000e+00
      2.309      0.047     3.4635     28.405     41.986  39.021415     3.7527      8.912   213.6108 2.5939e+01     4.6540      2.268      3.289    21.6778 0.0000e+00
      2.312      0.040     3.2987     25.542     41.876  38.915598     3.7597      8.903   213.7138 2.5789e+01     4.6230      2.266      3.286    21.5954 0.0000e+00
      2.319      0.033     3.0695     23.251     41.769  38.827265     3.7835      8.894   213.8400 2.5374e+01     4.4647      2.271      3.294    21.5256 0.0000e+00
      2.331      0.029     2.7917     21.634     41.833  38.905285     3.8744      8.884   214.0186 2.4992e+01     4.3804      2.289      3.319    21.4808 0.0000e+00
      2.341      0.028     2.4987     20.764     41.964  39.033985     3.9434      8.875   214.1531 2.4873e+01     4.4580      2.300      3.335    21.4596 0.0000e+00
      2.345      0.027     2.2375     20.694     41.998  39.050720     3.9606      8.867   214.3477 2.4825e+01     4.5827      2.299      3.334    21.4523 0.0000e+00
      2.348      0.023     2.0334     21.296     41.946  38.980697     3.8738      8.859   214.6512 2.4604e+01     4.5901      2.301      3.336    21.4680 0.0000e+00
      2.356      0.018     1.8870     22.160     41.858  38.885370     3.7011      8.851   214.8970 2.4340e+01     4.5479      2.311      3.352    21.5020 0.0000e+00
      2.363      0.014     1.8068     22.855     41.755  38.786539     3.6125      8.843   215.0815 2.4261e+01     4.5509      2.319      3.364    21.5154 0.0000e+00
      2.367      0.011     1.8033     23.273     41.630  38.674167     3.6178      8.836   215.2478 2.4263e+01     4.5576      2.321      3.366    21.4875 0.0000e+00
      2.367      0.008     1.8733     23.579     41.545  38.605499     3.6074      8.829   215.2728 2.4276e+01     4.4916      2.322      3.368    21.4558 0.0000e+00
      2.367      0.007     1.9669     23.929     41.579  38.654348     3.5362      8.821   215.2123 2.4306e+01     4.3001      2.322      3.367    21.4384 0.0000e+00
      2.367      0.009     2.0310     24.438     41.739  38.820598     3.4722      8.813   215.2034 2.4329e+01     4.2234      2.320      3.365    21.4381 0.0000e+00
      2.367      0.014     2.0587     25.201     41.962  39.029158     3.4590      8.804   215.3376 2.4355e+01     4.2810      2.320      3.365    21.4449 0.0000e+00
      2.370      0.021     2.0818     26.166     42.112  39.145332     3.4766      8.796   215.6309 2.4284e+01     4.3480      2.322      3.367    21.4530 0.0000e+00
      2.377      0.027     2.1086     27.071     42.155  39.146405     3.5105      8.788   215.8244 2.4034e+01     4.4521      2.328      3.376    21.4776 0.0000e+00
      2.389      0.033     2.1480     27.556     42.217  39.168986     3.5108      8.780   215.7845 2.3735e+01     4.4475      2.343      3.398    21.5062 0.0000e+00
      2.401      0.038     2.2156     27.355     42.375  39.291381     3.4795      8.772   215.7505 2.3537e+01     4.4627      2.357      3.418    21.5124 0.0000e+00
      2.408      0.040     2.3118     26.463     42.545  39.420494     3.4735      8.764   215.8439 2.3421e+01     4.6361      2.363      3.426    21.4802 0.0000e+00
      2.416      0.039     2.4067     25.158     42.629  39.460839     3.4884      8.756   215.8807 2.3198e+01     4.8019      2.367      3.432    21.4223 0.0000e+00
      2.429      0.036     2.4610     23.685     42.665  39.461824     3.4922      8.746   215.9372 2.2829e+01     4.8269      2.381      3.453    21.3776 0.0000e+00
      2.442      0.035     2.4457     22.092     42.790  39.559279     3.4700      8.737   216.0967 2.2552e+01     4.7343      2.397      3.477    21.3593 0.0000e+00
      2.450      0.035     2.3555     20.492     43.010  39.750677     3.4281      8.729   216.1747 2.2424e+01     4.7068      2.405      3.488    21.3297 0.0000e+00
      2.454      0.035     2.2329     19.126     43.227  39.935590     3.4767      8.723   216.1924 2.2312e+01     4.7334      2.407      3.491    21.2764 0.0000e+00
      2.460      0.033     2.1063     18.098     43.350  40.018071     3.6251      8.714   216.2244 2.2092e+01     4.7146      2.411      3.496    21.2339 0.0000e+00
      2.471      0.030     1.9635     17.334     43.358  39.986357     3.7076      8.705   216.3035 2.1812e+01     4.6500      2.423      3.514    21.2163 0.0000e+00
      2.482      0.028     1.8096     16.685     43.403  39.996319     3.7001      8.697   216.3745 2.1595e+01     4.5337      2.436      3.534    21.2072 0.0000e+00
      2.491      0.026     1.6867     16.026     43.510  40.075024     3.6920      8.688   216.3945 2.1445e+01     4.5723      2.444      3.545    21.1949 0.0000e+00
      2.496      0.023     1.6000     15.404     43.568  40.112916     3.7095      8.680   216.4600 2.1363e+01     4.8096      2.449      3.551    21.1584 0.0000e+00
      2.498      0.020     1.5379     14.924     43.532  40.073662     3.7197      8.673   216.5636 2.1290e+01     4.9428      2.449      3.553    21.0991 0.0000e+00
      2.502      0.018     1.4879     14.585     43.496  40.044649     3.7252      8.664   216.7006 2.1180e+01     4.9189      2.453      3.557    21.0656 0.0000e+00
      2.507      0.018     1.4265     14.346     43.525  40.079439     3.8506      8.655   216.7400 2.1077e+01     4.8274      2.458      3.565    21.0478 0.0000e+00
      2.512      0.019     1.3666     14.206     43.487  40.050082     4.1041      8.648   216.6959 2.1031e+01     4.7931      2.464      3.574    21.0244 0.0000e+00
      2.517      0.020     1.3252     14.180     43.438  40.007016     4.2758      8.641   216.7698 2.0991e+01     4.8805      2.467      3.578    21.0179 0.0000e+00
      2.522      0.022     1.2968     14.249     43.642  40.193359     4.3205      8.634   216.8593 2.0893e+01     4.8933      2.471      3.585    21.0265 0.0000e+00
      2.528      0.026     1.2749     14.350     44.020  40.526149     4.3786      8.626   216.9173 2.0820e+01     4.7426      2.481      3.597    21.0379 0.0000e+00
      2.532      0.032     1.2613     14.457     44.293  40.730610     4.4617      8.619   216.9553 2.0786e+01     4.5621      2.485      3.603    21.0460 0.0000e+00
      2.537      0.037     1.2591     14.557     44.410  40.761476     4.5092      8.613   216.9738 2.0669e+01     4.5215      2.486      3.605    21.0464 0.0000e+00
      2.548      0.039     1.2685     14.547     44.436  40.708847     4.5537      8.606   217.0557 2.0381e+01     4.5934      2.496      3.619    21.0462 0.0000e+00
      2.564      0.039     1.2781     14.265     44.377  40.601894     4.7430      8.600   217.2574 2.0000e+01     4.6792      2.515      3.646    21.0415 0.0000e+00
      2.580      0.037     1.2881     13.661     44.272  40.483682     5.0579      8.594   217.4330 1.9728e+01     4.7057      2.533      3.674    20.9886 0.0000e+00
      2.590      0.034     1.3032     12.897     44.270  40.485357     5.2154      8.588   217.4586 1.9641e+01     4.6406      2.543      3.689    20.8861 0.0000e+00
      2.595      0.029     1.3108     12.153     44.346  40.558691     5.2149      8.581   217.6529 1.9666e+01     4.6767      2.546      3.693    20.7908 0.0000e+00
      2.596      0.025     1.2914     11.568     44.352  40.545321     5.2349      8.575   217.8891 1.9667e+01     4.8357      2.544      3.691    20.7307 0.0000e+00
      2.599      0.026     1.2287     11.225     44.277  40.450609     5.3321      8.569   217.7329 1.9537e+01     4.9223      2.546      3.692    20.7031 0.0000e+00
      2.607      0.033     1.1550     11.056     44.215  40.365474     5.4754      8.564   217.5713 1.9370e+01     4.8694      2.556      3.708    20.7194 0.0000e+00
      2.615      0.042     1.0844     10.946     44.246  40.340958     5.5270      8.559   217.7422 1.9250e+01     4.7435      2.566      3.722    20.7412 0.0000e+00
      2.625      0.050     1.0270     10.841     44.327  40.344502     5.5074      8.554   217.9067 1.8998e+01     4.6989      2.570      3.727    20.7051 0.0000e+00
      2.642      0.054     1.0019     10.707     44.394  40.344757     5.6043      8.548   218.0107 1.8593e+01     4.7736      2.589      3.754    20.6674 0.0000e+00
      2.664      0.054     0.9908     10.463     44.444  40.343958     5.7910      8.543   218.1398 1.8309e+01     4.7931      2.619      3.796    20.6572 0.0000e+00
      2.679      0.050     0.9837     10.056     44.473  40.334786     5.8752      8.537   218.1770 1.8099e+01     4.6952      2.629      3.813    20.5933 0.0000e+00
      2.690      0.045     0.9760      9.582     44.452  40.297280     5.8736      8.531   218.2015 1.7875e+01     4.6146      2.637      3.824    20.4925 0.0000e+00
      2.701      0.037     0.9685      9.165     44.425  40.271226     5.8886      8.525   218.2646 1.7757e+01     4.7753      2.651      3.844    20.4285 0.0000e+00
      2.707      0.030     0.9512      8.846     44.417  40.273621     5.9400      8.520   218.3372 1.7687e+01     5.1694      2.656      3.852    20.3802 0.0000e+00
      2.712      0.027     0.9103      8.657     44.391  40.262792     5.9709      8.515   218.3915 1.7560e+01     5.3142      2.658      3.856    20.3354 0.0000e+00
      2.717      0.025     0.8628      8.635     44.384  40.267245     5.9619      8.510   218.4055 1.7426e+01     5.1597      2.664      3.863    20.3141 0.0000e+00
      2.723      0.025     0.8250      8.726     44.373  40.264006     5.9571      8.505   218.5062 1.7302e+01     5.1121      2.670      3.873    20.3154 0.0000e+00
      2.730      0.027     0.7954      8.858     44.323  40.223644     5.9623      8.500   218.7478 1.7173e+01     5.2170      2.677      3.884    20.3300 0.0000e+00
      2.737      0.031     0.7751      9.027     44.255  40.160021     5.9832      8.496   218.9182 1.7097e+01     5.3342      2.685      3.894    20.3465 0.0000e+00
      2.743      0.034     0.7756      9.191     44.165  40.065914     5.9772      8.493   218.9314 1.6982e+01     5.3334      2.688      3.899    20.3597 0.0000e+00
      2.752      0.037     0.7880      9.311     44.095  39.974276     5.9388      8.490   218.9074 1.6754e+01     5.2075      2.697      3.912    20.3651 0.0000e+00
      2.764      0.041     0.7968      9.380     44.044  39.877020     5.9187      8.487   218.8863 1.6530e+01     5.1105      2.711      3.932    20.3733 0.0000e+00
      2.776      0.046     0.8153      9.380     44.011  39.778407     5.9335      8.483   218.9344 1.6375e+01     5.1509      2.724      3.950    20.3743 0.0000e+00
      2.787      0.049     0.8316      9.317     44.063  39.733806     5.9685      8.480   219.0589 1.6254e+01     5.2862      2.734      3.965    20.3586 0.0000e+00
      2.797      0.049     0.8419      9.204     44.178  39.718406     5.9748      8.477   219.1014 1.6065e+01     5.3116      2.741      3.975    20.3340 0.0000e+00
      2.812      0.047     0.8508      9.027     44.322  39.718978     5.9348      8.473   219.1030 1.5794e+01     5.1846      2.756      3.997    20.2704 0.0000e+00
      2.830      0.044     0.8515      8.770     44.469  39.740540     5.8843      8.469   219.1652 1.5575e+01     5.1175      2.779      4.029    20.1931 0.0000e+00
      2.842      0.042     0.8468      8.492     44.528  39.725114     5.8730      8.466   219.2502 1.5478e+01     5.1835      2.790      4.046    20.0989 0.0000e+00
      2.848      0.041     0.8388      8.238     44.493  39.659303     5.9226      8.462   219.3567 1.5444e+01     5.2991      2.794      4.052    19.9517 0.0000e+00
      2.852      0.039     0.8282      8.022     44.438  39.579405     6.2429      8.459   219.4210 1.5362e+01     5.3545      2.796      4.055    19.7959 0.0000e+00
      2.861      0.036     0.8026      7.875     44.428  39.520578     6.7985      8.456   219.4252 1.5186e+01     5.3403      2.803      4.065    19.6583 0.0000e+00
      2.876      0.035     0.7771      7.770     44.433  39.455665     7.0976      8.451   219.4078 1.5002e+01     5.3332      2.821      4.091    19.5854 0.0000e+00
      2.889      0.036     0.7554      7.681     44.408  39.365608     7.1372      8.446   219.4688 1.4889e+01     5.4048      2.836      4.114    19.5639 0.0000e+00
      2.895      0.036     0.7323      7.621     44.418  39.320071     7.3029      8.441   219.6456 1.4847e+01     5.5569      2.841      4.120    19.5365 0.0000e+00
      2.900      0.033     0.7224      7.585     44.505  39.349244     7.5780      8.437   219.7392 1.4791e+01     5.5667      2.842      4.122    19.4858 0.0000e+00
      2.909      0.032     0.7152      7.563     44.613  39.400974     7.7080      8.434   219.7399 1.4649e+01     5.4205      2.850      4.135    19.3915 0.0000e+00
      2.919      0.035     0.7064      7.553     44.687  39.437783     7.8425      8.430   219.8264 1.4513e+01     5.3951      2.865      4.155    19.3082 0.0000e+00
      2.926      0.039     0.7026      7.543     44.757  39.476946     9.3214      8.426   220.0109 1.4432e+01     5.7720      2.871      4.164    19.2566 0.0000e+00
      2.933      0.042     0.7002      7.523     44.806  39.493692    12.0143      8.423   220.1636 1.4315e+01     6.4248      2.872      4.166    19.2039 0.0000e+00
      2.947      0.043     0.6988      7.501     44.847  39.513298    13.4688      8.419   220.2100 1.4154e+01     6.7294      2.887      4.188    19.1453 0.0000e+00
      2.963      0.044     0.6989      7.453     44.945  39.587053    13.6823      8.416   220.2278 1.4043e+01     6.6202      2.909      4.219    19.1191 0.0000e+00
      2.973      0.044     0.6989      7.370     45.037  39.623906    15.0286      8.411   220.2926 1.3991e+01     6.6077      2.918      4.232    19.1044 0.0000e+00
      2.981      0.041     0.6962      7.268     45.055  39.578061    17.5278      8.408   220.3912 1.3899e+01     6.8855      2.921      4.236    19.0597 0.0000e+00
      2.992      0.034     0.6961      7.128     45.041  39.540341    18.9140      8.405   220.5595 1.3745e+01     7.1775      2.932      4.252    19.0420 0.0000e+00
      3.005      0.026     0.6922      6.922     45.031  39.548579    19.0470      8.401   220.7795 1.3647e+01     7.2002      2.950      4.279    19.0533 0.0000e+00
      3.012      0.021     0.6833      6.665     44.994  39.550764    19.0859      8.396   220.8996 1.3644e+01     7.0576      2.957      4.289    19.0019 0.0000e+00
      3.012      0.017     0.6768      6.453     44.967  39.566803    19.7331      8.391   220.8935 1.3656e+01     7.0243      2.954      4.284    18.8925 0.0000e+00
      3.012      0.015     0.6653      6.368     44.997  39.615644    20.9712      8.387   220.8770 1.3659e+01     7.2083      2.953      4.282    18.8701 0.0000e+00
      3.013      0.015     0.6458      6.396     45.038  39.633624    21.6797      8.384   220.9595 1.3639e+01     7.4375      2.953      4.283    18.9052 0.0000e+00
      3.017      0.017     0.6176      6.502     45.114  39.657244    21.8397      8.381   221.0295 1.3559e+01     7.4729      2.957      4.288    18.9421 0.0000e+00
      3.026      0.020     0.5929      6.652     45.274  39.774246    22.8396      8.378   221.0356 1.3470e+01     7.5331      2.968      4.304    18.9962 0.0000e+00
      3.033      0.024     0.5869      6.775     45.501  39.969397    24.7142      8.374   221.1188 1.3436e+01     7.8585      2.977      4.318    19.0361 0.0000e+00
      3.038      0.027     0.5909      6.824     45.699  40.112912    25.7538      8.371   221.1750 1.3416e+01     8.1276      2.980      4.323    19.0114 0.0000e+00
      3.043      0.027     0.6014      6.796     45.795  40.113227    25.6632      8.370   221.1991 1.3347e+01     8.1901      2.982      4.326    18.9337 0.0000e+00
      3.050      0.027     0.6195      6.646     45.832  40.036565    23.4597      8.370   221.2382 1.3235e+01     8.1025      2.989      4.336    18.9074 0.0000e+00
      3.060      0.027     0.6322      6.321     45.909  40.010876    19.4038      8.369   221.2181 1.3130e+01     7.8876      3.002      4.353    18.9303 0.0000e+00
      3.068      0.030     0.6358      5.862     46.099  40.119819    17.1986      8.367   221.2136 1.3055e+01     7.8472      3.010      4.365    18.9110 0.0000e+00
      3.074      0.037     0.6364      5.360     46.471  40.401759    16.9221      8.365   221.2700 1.2985e+01     7.9895      3.014      4.372    18.8021 0.0000e+00
      3.079      0.047     0.6277      4.903     47.031  40.817685    15.7434      8.363   221.3836 1.2909e+01     7.9346      3.018      4.378    18.6652 0.0000e+00
      3.087      0.057     0.5961      4.532     47.475  41.086855    13.5757      8.361   221.6411 1.2777e+01     7.6267      3.024      4.387    18.5528 0.0000e+00
      3.103      0.067     0.5504      4.202     47.535  40.990546    12.3706      8.360   221.9733 1.2520e+01     7.3410      3.039      4.408    18.5017 0.0000e+00
      3.129      0.072     0.5010      3.838     47.487  40.795427    12.2005      8.358   222.1314 1.2179e+01     7.2810      3.067      4.448    18.4810 0.0000e+00
      3.157      0.071     0.4563      3.385     47.600  40.758426    11.5444      8.354   222.1757 1.1864e+01     7.3462      3.099      4.495    18.4108 0.0000e+00
      3.181      0.062     0.4250      2.830     47.674  40.733393    10.3300      8.348   222.2507 1.1629e+01     7.3439      3.122      4.528    18.2802 0.0000e+00
      3.196      0.048     0.3980      2.209     47.570  40.619587     9.6520      8.343   222.3499 1.1493e+01     7.2196      3.138      4.552    18.1126 0.0000e+00
      3.203      0.035     0.3672      1.614     47.414  40.524759     9.5635      8.339   222.4298 1.1464e+01     7.0389      3.143      4.559    17.9428 0.0000e+00
      3.203      0.025     0.3253      1.137     47.373  40.538869     9.5351      8.336   222.5281 1.1490e+01     6.9687      3.141      4.556    17.7918 0.0000e+00
      3.203      0.021     0.2725      0.804     47.678  40.790261     9.5761      8.333   222.6771 1.1494e+01     7.1227      3.140      4.553    17.6950 0.0000e+00
      3.205      0.025     0.2098      0.637     48.344  41.279510     9.6672      8.329   222.6832 1.1409e+01     7.3976      3.139      4.554    17.6609 0.0000e+00
      3.213      0.035     0.1484      0.641     48.976  41.694207     9.6961      8.328   222.6017 1.1239e+01     7.4907      3.149      4.568    17.7221 0.0000e+00
      3.224      0.046     0.1038      0.764     49.490  41.996097     9.6351      8.328   222.5517 1.1043e+01     7.3608      3.163      4.587    17.8156 0.0000e+00
      3.238      0.056     0.0709      0.916     49.951  42.263730     9.2948      8.327   222.5099 1.0795e+01     7.3302      3.174      4.603    17.7993 0.0000e+00
      3.254      0.063     0.0543      1.004     50.238  42.391167     8.7195      8.326   222.6128 1.0477e+01     7.4621      3.190      4.628    17.7067 0.0000e+00
      3.274      0.065     0.0573      1.004     50.522  42.521247     8.4145      8.325   222.7627 1.0157e+01     7.5203      3.210      4.656    17.5663 0.0000e+00
      3.293      0.064     0.0717      0.943     50.837  42.693896     8.3698      8.323   222.7735 9.8613e+00     7.4535      3.229      4.684    17.4151 0.0000e+00
      3.311      0.060     0.0912      0.838     51.029  42.764791     8.4033      8.321   222.8292 9.5946e+00     7.4064      3.247      4.710    17.3026 0.0000e+00
      3.326      0.054     0.1003      0.729     51.125  42.743603     8.5376      8.319   223.0061 9.3627e+00     7.5319      3.262      4.731    17.1852 0.0000e+00
      3.338      0.047     0.0981      0.620     51.178  42.691468     8.6366      8.318   223.1061 9.1801e+00     7.7404      3.275      4.750    17.0696 0.0000e+00
      3.348      0.042     0.0936      0.505     51.210  42.642101     8.6431      8.315   223.1774 9.0374e+00     7.8093      3.283      4.763    16.9849 0.0000e+00
      3.356      0.038     0.0805      0.429     51.232  42.590922     8.4751      8.313   223.2669 8.8683e+00     7.7158      3.290      4.772    16.9083 0.0000e+00
      3.364      0.034     0.0703      0.413     51.298  42.580354     8.1615      8.313   223.2405 8.6743e+00     7.5676      3.299      4.785    16.7969 0.0000e+00
      3.374      0.029     0.0618      0.425     51.424  42.641186     8.0131      8.312   223.2891 8.4922e+00     7.5876      3.308      4.799    16.6927 0.0000e+00
      3.384      0.023     0.0473      0.444     51.503  42.691667     8.0376      8.309   223.5106 8.3427e+00     7.7536      3.319      4.815    16.6309 0.0000e+00
      3.391      0.016     0.0392      0.471     51.405  42.619448     8.0592      8.306   223.6814 8.2394e+00     7.7637      3.326      4.824    16.5648 0.0000e+00
      3.393      0.007     0.0397      0.504     51.179  42.466190     8.0657      8.303   223.8049 8.2050e+00     7.5723      3.328      4.828    16.4902 0.0000e+00
      3.393      0.001     0.0418      0.549     50.991  42.362001     8.0499      8.301   223.9717 8.2462e+00     7.3530      3.329      4.827    16.4445 0.0000e+00
      3.389      0.001     0.0425      0.584     50.871  42.311858     8.0179      8.300   224.0632 8.3154e+00     7.2987      3.324      4.821    16.4363 0.0000e+00
      3.384      0.006     0.0466      0.584     50.888  42.367739     7.7208      8.299   224.1368 8.3735e+00     7.5645      3.319      4.813    16.4408 0.0000e+00
      3.381      0.017     0.0481      0.581     51.140  42.593413     7.1462      8.297   224.3459 8.3280e+00     7.9705      3.313      4.804    16.4760 0.0000e+00
      3.386      0.030     0.0535      0.615     51.564  42.882437     6.8126      8.296   224.5263 8.1128e+00     8.1433      3.317      4.810    16.5404 0.0000e+00
      3.398      0.042     0.0593      0.665     51.990  43.069437     6.7498      8.295   224.5977 7.8099e+00     8.0824      3.332      4.832    16.5844 0.0000e+00
      3.416      0.050     0.0569      0.702     52.260  43.076958     6.7043      8.294   224.6067 7.4305e+00     8.0879      3.348      4.856    16.6279 0.0000e+00
      3.436      0.052     0.0547      0.734     52.355  42.973107     6.3287      8.292   224.6348 7.0059e+00     8.3467      3.370      4.888    16.6688 0.0000e+00
      3.454      0.048     0.0589      0.747     52.377  42.892603     5.6131      8.290   224.7650 6.7209e+00     8.6493      3.391      4.918    16.6226 0.0000e+00
      3.465      0.040     0.0668      0.737     52.368  42.865149     5.2012      8.288   224.8910 6.5869e+00     8.6720      3.399      4.931    16.4359 0.0000e+00
      3.470      0.033     0.0683      0.703     52.453  42.958514     5.1262      8.286   224.9533 6.5055e+00     8.5186      3.404      4.937    16.1952 0.0000e+00
      3.474      0.033     0.0735      0.638     52.644  43.132856     5.0398      8.285   225.0883 6.4452e+00     8.4687      3.407      4.942    16.0037 0.0000e+00
      3.477      0.041     0.0749      0.587     52.475  42.941977     4.9225      8.284   225.3181 6.3941e+00     8.5137      3.409      4.946    15.9139 0.0000e+00
      3.482      0.057     0.0729      0.572     51.861  42.300841     4.8565      8.282   225.4095 6.2512e+00     8.5151      3.412      4.949    15.9090 0.0000e+00
      3.496      0.078     0.0719      0.570     51.309  41.664489     4.7908      8.278   225.4188 5.8735e+00     8.4169      3.424      4.965    15.9421 0.0000e+00
      3.521      0.095     0.0617      0.573     51.159  41.340867     4.3202      8.271   225.6890 5.3524e+00     8.2826      3.452      5.007    15.9937 0.0000e+00
      3.554      0.104     0.0563      0.591     51.354  41.307294     3.5352      8.263   226.0092 4.7428e+00     8.2924      3.483      5.051    15.9482 0.0000e+00
      3.593      0.101     0.0565      0.598     51.718  41.448744     3.1485      8.255   226.0212 4.0312e+00     8.4331      3.521      5.107    15.7882 0.0000e+00
      3.631      0.087     0.0570      0.585     52.170  41.718098     3.1238      8.248   226.0054 3.5365e+00     8.5148      3.568      5.176    15.6030 0.0000e+00
      3.653      0.065     0.0560      0.570     52.506  41.961681     3.0701      8.242   226.1631 3.3945e+00     8.4606      3.590      5.206    15.3999 0.0000e+00
      3.660      0.040     0.0598      0.542     52.646  42.108938     2.9903      8.236   226.2927 3.3627e+00     8.3239      3.590      5.208    15.1984 0.0000e+00
      3.660      0.019     0.0621      0.509     52.711  42.229206     2.9750      8.231   226.2825 3.3957e+00     8.2974      3.592      5.208    15.0501 0.0000e+00
      3.657      0.005     0.0578      0.479     52.666  42.273437     3.0093      8.229   226.2109 3.5007e+00     8.4478      3.587      5.202    14.9557 0.0000e+00
      3.653      0.003     0.0589      0.445     52.406  42.136066     3.0885      8.227   226.2010 3.5820e+00     8.5368      3.582      5.195    14.9317 0.0000e+00
      3.650      0.009     0.0547      0.422     52.004  41.837763     3.2093      8.226   226.2494 3.5654e+00     8.4163      3.577      5.188    14.9822 0.0000e+00
      3.651      0.019     0.0508      0.428     51.752  41.586353     3.2552      8.225   226.2802 3.4178e+00     8.2548      3.578      5.189    15.0487 0.0000e+00
      3.659      0.030     0.0488      0.452     51.785  41.508078     3.2602      8.225   226.3148 3.1981e+00     8.2928      3.587      5.202    15.1303 0.0000e+00
      3.671      0.042     0.0443      0.471     51.864  41.462442     3.2781      8.224   226.4103 2.9664e+00     8.4649      3.600      5.222    15.2151 0.0000e+00
      3.686      0.053     0.0411      0.487     51.926  41.415244     3.1466      8.223   226.5746 2.7473e+00     8.6963      3.615      5.243    15.2502 0.0000e+00
      3.700      0.063     0.0421      0.507     52.114  41.445051     2.8607      8.221   226.8383 2.5437e+00     8.9733      3.628      5.262    15.1992 0.0000e+00
      3.714      0.070     0.0465      0.522     52.312  41.441890     2.6756      8.220   227.1890 2.3326e+00     9.0471      3.641      5.281    15.0704 0.0000e+00
      3.733      0.072     0.0473      0.528     52.448  41.376830     2.6478      8.218   227.5464 2.1171e+00     9.0411      3.659      5.307    14.9580 0.0000e+00
      3.756      0.070     0.0490      0.522     52.528  41.292909     2.5419      8.216   227.8897 1.9171e+00     9.2769      3.683      5.342    14.8869 0.0000e+00
      3.781      0.065     0.0519      0.505     52.457  41.125188     2.2943      8.214   228.2414 1.7573e+00     9.6781      3.710      5.380    14.7800 0.0000e+00
      3.799      0.058     0.0532      0.495     52.411  40.998964     2.1255      8.211   228.6153 1.6786e+00     9.9299      3.731      5.411    14.6099 0.0000e+00
      3.809      0.049     0.0541      0.481     52.478  40.972530     2.0748      8.207   228.8829 1.6606e+00     9.9291      3.737      5.420    14.4323 0.0000e+00
      3.814      0.041     0.0547      0.459     52.338  40.805486     2.0634      8.204   228.9824 1.6060e+00    10.1130      3.736      5.420    14.2878 0.0000e+00
      3.824      0.038     0.0507      0.444     52.092  40.565856     2.0797      8.200   229.1298 1.5352e+00    10.5141      3.751      5.440    14.1881 0.0000e+00
      3.832      0.038     0.0514      0.438     52.070  40.486869     2.0877      8.198   229.2883 1.5162e+00    10.7129      3.761      5.455    14.1109 0.0000e+00
      3.838      0.041     0.0505      0.442     52.162  40.485064     2.0612      8.196   229.2645 1.4711e+00    10.7747      3.759      5.452    14.0254 0.0000e+00
      3.851      0.046     0.0461      0.442     52.406  40.607406     1.9672      8.195   229.1869 1.3723e+00    11.1591      3.774      5.474    13.9723 0.0000e+00
      3.868      0.052     0.0465      0.438     53.088  41.077476     1.8583      8.194   229.2098 1.3007e+00    11.8767      3.797      5.507    13.9429 0.0000e+00
      3.880      0.060     0.0438      0.442     54.087  41.789310     1.8259      8.194   229.2830 1.2612e+00    12.2094      3.806      5.520    13.8805 0.0000e+00
      3.891      0.065     0.0467      0.440     55.077  42.486329     1.8340      8.192   229.3845 1.1917e+00    12.2095      3.812      5.530    13.7978 0.0000e+00
      3.910      0.067     0.0461      0.431     55.715  42.903990     1.8068      8.189   229.5761 1.0965e+00    12.6982      3.833      5.558    13.7368 0.0000e+00
      3.933      0.066     0.0443      0.416     55.814  42.903842     1.7460      8.187   229.7931 1.0200e+00    13.5749      3.860      5.598    13.6874 0.0000e+00
      3.953      0.062     0.0468      0.405     55.690  42.738355     1.7237      8.186   229.9430 9.6744e-01    14.0646      3.878      5.625    13.6310 0.0000e+00
      3.969      0.055     0.0455      0.407     55.604  42.616810     1.7536      8.184   230.0123 9.1626e-01    14.1101      3.892      5.645    13.5695 0.0000e+00
      3.983      0.045     0.0452      0.405     55.517  42.513228     1.7579      8.182   230.0285 8.7408e-01    14.0563      3.909      5.669    13.5007 0.0000e+00
      3.992      0.035     0.0437      0.397     55.443  42.438001     1.7254      8.180   230.1381 8.7211e-01    14.2339      3.917      5.681    13.4301 0.0000e+00
      3.995      0.027     0.0411      0.406     55.335  42.341951     1.7094      8.177   230.4766 8.8181e-01    14.7210      3.917      5.682    13.3630 0.0000e+00
      3.998      0.021     0.0430      0.420     55.222  42.240483     1.7237      8.175   230.8529 8.6713e-01    15.0951      3.922      5.688    13.3120 0.0000e+00
      4.003      0.016     0.0434      0.416     55.215  42.226703     1.7486      8.175   231.0744 8.4288e-01    15.2386      3.924      5.691    13.2782 0.0000e+00
      4.010      0.012     0.0400      0.396     55.225  42.238796     1.7360      8.174   231.2607 8.2760e-01    15.0556      3.933      5.704    13.2664 0.0000e+00
      4.014      0.009     0.0426      0.385     55.225  42.259751     1.6713      8.171   231.4711 8.2289e-01    14.5901      3.940      5.714    13.2608 0.0000e+00
      4.014      0.007     0.0447      0.377     55.232  42.289690     1.6229      8.168   231.6406 8.2961e-01    14.3248      3.936      5.708    13.2385 0.0000e+00
      4.013      0.007     0.0449      0.342     55.375  42.410397     1.6339      8.165   231.7613 8.3308e-01    14.4090      3.935      5.708    13.2322 0.0000e+00
      4.013      0.011     0.0409      0.318     55.597  42.576710     1.7126      8.163   231.8115 8.2488e-01    14.5830      3.936      5.707    13.2333 0.0000e+00
      4.014      0.018     0.0394      0.336     55.652  42.586805     1.8256      8.163   231.8169 8.2587e-01    14.6870      3.935      5.709    13.2539 0.0000e+00
      4.016      0.028     0.0418      0.373     55.669  42.532426     1.8770      8.163   231.9131 8.2336e-01    14.7450      3.937      5.710    13.2894 0.0000e+00
      4.025      0.038     0.0351      0.406     55.630  42.426929     1.8762      8.162   232.0286 7.9226e-01    14.7373      3.942      5.717    13.2928 0.0000e+00
      4.042      0.048     0.0309      0.418     55.493  42.263235     2.0991      8.160   232.0946 7.5073e-01    15.1748      3.964      5.749    13.2954 0.0000e+00
      4.058      0.053     0.0351      0.415     55.381  42.139956     2.5404      8.158   232.2804 7.1478e-01    16.0726      3.983      5.776    13.2741 0.0000e+00
      4.072      0.053     0.0389      0.407     55.247  42.015351     2.7758      8.155   232.4685 6.7589e-01    16.5739      3.991      5.789    13.2002 0.0000e+00
      4.087      0.049     0.0437      0.382     55.032  41.835628     2.7731      8.153   232.4760 6.4804e-01    16.6926      4.009      5.814    13.1222 0.0000e+00
      4.101      0.044     0.0448      0.363     54.258  41.236343     2.7659      8.152   232.4568 6.4423e-01    17.0980      4.025      5.838    13.0692 0.0000e+00
      4.110      0.044     0.0428      0.360     52.946  40.227651     2.8229      8.150   232.4948 6.4638e-01    17.8891      4.032      5.848    13.0386 0.0000e+00
      4.115      0.048     0.0448      0.347     52.155  39.603908     2.8871      8.148   232.5914 6.4410e-01    18.2991      4.036      5.853    13.0193 0.0000e+00
      4.121      0.050     0.0395      0.336     52.023  39.470114     2.9011      8.146   232.7642 6.2325e-01    18.2290      4.036      5.854    13.0050 0.0000e+00
      4.136      0.055     0.0367      0.351     51.853  39.308027     2.8676      8.145   232.8635 5.8487e-01    18.1684      4.050      5.873    12.9964 0.0000e+00
      4.160      0.062     0.0395      0.425     51.539  39.040261     2.7150      8.143   232.8461 5.6488e-01    18.0104      4.085      5.924    12.9907 0.0000e+00
      4.179      0.066     0.0362      0.570     51.392  38.897948     2.5038      8.141   232.8973 5.6009e-01    17.7537      4.103      5.951    12.9702 0.0000e+00
      4.191      0.065     0.0347      0.788     51.472  38.920008     2.4284      8.140   233.0526 5.4339e-01    17.5924      4.105      5.953    12.9313 0.0000e+00
      4.209      0.057     0.0346      1.101     51.618  38.989633     2.4199      8.137   233.1749 5.1902e-01    17.4939      4.126      5.984    12.8975 0.0000e+00
      4.230      0.047     0.0423      1.571     51.728  39.041649     2.3762      8.135   233.1724 5.0481e-01    17.3829      4.153      6.024    12.8723 0.0000e+00
      4.241      0.043     0.0578      2.267     51.576  38.914277     2.3575      8.134   233.1938 4.9936e-01    17.3097      4.161      6.035    12.8436 0.0000e+00
      4.244      0.044     0.0801      3.146     51.240  38.655331     2.3840      8.133   233.3479 4.8481e-01    17.3257      4.163      6.036    12.8060 0.0000e+00
      4.247      0.044     0.1117      4.086     51.157  38.576114     2.4227      8.131   233.4866 4.7122e-01    17.3374      4.165      6.040    12.7618 0.0000e+00
      4.255      0.042     0.1563      5.006     51.292  38.654520     2.3922      8.130   233.5800 4.5691e-01    17.1437      4.167      6.044    12.7255 0.0000e+00
      4.274      0.042     0.2332      5.937     51.397  38.714856     2.2986      8.128   233.6165 4.3314e-01    16.8277      4.190      6.077    12.7174 0.0000e+00
      4.296      0.044     0.3316      6.989     51.442  38.734466     2.2479      8.127   233.5839 4.2213e-01    16.6940      4.219      6.120    12.7250 0.0000e+00
      4.306      0.047     0.4354      8.248     51.418  38.701236     2.2536      8.126   233.6165 4.2584e-01    16.7576      4.225      6.128    12.7036 0.0000e+00
      4.309      0.049     0.5318      9.682     51.346  38.630360     2.2256      8.125   233.7526 4.3839e-01    16.7089      4.225      6.128    12.6743 0.0000e+00
      4.314      0.048     0.6251     11.104     51.289  38.575545     2.1350      8.124   233.9385 4.3934e-01    16.4120      4.228      6.132    12.6576 0.0000e+00
      4.327      0.047     0.7343     12.404     51.262  38.546142     2.0735      8.123   234.1440 4.1088e-01    16.1737      4.238      6.147    12.6461 0.0000e+00
      4.348      0.049     0.8667     13.574     51.259  38.528686     2.0644      8.123   234.2576 3.8623e-01    16.1506      4.266      6.187    12.6343 0.0000e+00
      4.368      0.052     1.0310     14.537     51.224  38.491392     2.0674      8.122   234.2806 3.8472e-01    16.1667      4.289      6.221    12.6105 0.0000e+00
      4.378      0.054     1.1874     15.286     51.115  38.412503     2.0599      8.121   234.3348 3.8163e-01    16.0273      4.294      6.229    12.6011 0.0000e+00
      4.384      0.050     1.3202     15.915     51.003  38.336369     2.0319      8.120   234.3968 3.6901e-01    15.7968      4.296      6.231    12.5991 0.0000e+00
      4.395      0.043     1.4530     16.470     50.917  38.268933     2.0276      8.119   234.4276 3.6147e-01    15.7708      4.306      6.245    12.5774 0.0000e+00
      4.413      0.037     1.5565     17.036     50.892  38.231728     2.0500      8.119   234.4492 3.5333e-01    15.8841      4.330      6.281    12.5612 0.0000e+00
      4.427      0.033     1.6284     17.742     50.892  38.203805     2.0606      8.118   234.4863 3.4703e-01    15.9374      4.346      6.304    12.5701 0.0000e+00
      4.432      0.030     1.6962     18.684     50.822  38.121661     2.0564      8.116   234.5326 3.4598e-01    15.9369      4.346      6.303    12.5838 0.0000e+00
      4.433      0.030     1.7517     19.945     50.788  38.063472     2.0329      8.114   234.5782 3.3762e-01    15.8436      4.348      6.306    12.5837 0.0000e+00
      4.435      0.033     1.8063     21.520     50.852  38.071341     2.0098      8.112   234.6078 3.2867e-01    15.7999      4.349      6.307    12.5627 0.0000e+00
      4.439      0.040     1.8810     23.290     50.926  38.089841     1.9762      8.111   234.6323 3.2564e-01    15.9556      4.349      6.308    12.5293 0.0000e+00
      4.452      0.047     1.9779     25.190     50.964  38.096733     1.9180      8.111   234.7025 3.2704e-01    16.1546      4.363      6.327    12.5029 0.0000e+00
      4.474      0.051     2.1126     27.236     50.970  38.091185     1.8891      8.110   234.7682 3.2534e-01    16.1897      4.387      6.363    12.4751 0.0000e+00
      4.495      0.051     2.2902     29.350     50.974  38.086213     1.8771      8.109   234.8238 3.0902e-01    16.0728      4.412      6.399    12.4291 0.0000e+00
      4.510      0.047     2.4844     31.319     51.002  38.100071     1.8808      8.106   234.9448 2.9489e-01    16.0055      4.425      6.418    12.3874 0.0000e+00
      4.517      0.038     2.6848     32.953     51.052  38.131813     1.9082      8.104   235.1123 2.9394e-01    16.0247      4.428      6.423    12.3695 0.0000e+00
      4.522      0.028     2.9067     34.166     51.083  38.152702     1.9257      8.103   235.2151 3.0037e-01    16.0314      4.434      6.430    12.3625 0.0000e+00
      4.527      0.023     3.1428     34.935     51.094  38.162256     1.9422      8.102   235.1552 3.1043e-01    15.9500      4.439      6.439    12.3561 0.0000e+00
      4.531      0.028     3.3622     35.341     51.123  38.183869     1.9000      8.101   235.0766 3.0773e-01    15.9283      4.444      6.446    12.3488 0.0000e+00
      4.534      0.040     3.5389     35.488     51.186  38.223648     1.8063      8.101   235.1241 2.9466e-01    16.1449      4.447      6.450    12.3410 0.0000e+00
      4.537      0.054     3.6711     35.376     51.265  38.262457     1.7756      8.101   235.2131 2.8214e-01    16.3838      4.447      6.449    12.3393 0.0000e+00
      4.550      0.065     3.7497     35.052     51.318  38.272326     1.7779      8.102   235.2929 2.6824e-01    16.4936      4.455      6.462    12.3433 0.0000e+00
      4.579      0.071     3.7852     34.680     51.369  38.279483     1.6593      8.102   235.4013 2.5868e-01    16.5845      4.487      6.508    12.3448 0.0000e+00
      4.613      0.070     3.8056     34.461     51.408  38.285489     1.4401      8.101   235.4905 2.5228e-01    16.6635      4.531      6.572    12.3392 0.0000e+00
      4.636      0.062     3.7938     34.589     51.413  38.281462     1.3407      8.099   235.5110 2.4050e-01    16.7650      4.552      6.601    12.3196 0.0000e+00
      4.647      0.047     3.7538     35.132     51.421  38.294251     1.3652      8.097   235.5635 2.3146e-01    16.9232      4.556      6.608    12.2878 0.0000e+00
      4.653      0.029     3.7107     35.997     51.421  38.313201     1.3782      8.094   235.6958 2.2826e-01    16.9362      4.565      6.619    12.2526 0.0000e+00
      4.654      0.014     3.6795     37.017     51.401  38.320231     1.3563      8.090   235.8198 2.3029e-01    16.7519      4.565      6.621    12.2282 0.0000e+00
      4.653      0.006     3.6914     38.011     51.376  38.315815     1.3098      8.088   235.7722 2.3635e-01    16.5734      4.563      6.618    12.2227 0.0000e+00
      4.652      0.005     3.7536     38.806     51.378  38.323278     1.2979      8.086   235.6353 2.3531e-01    16.5545      4.562      6.616    12.2297 0.0000e+00
      4.651      0.010     3.8510     39.274     51.403  38.347014     1.3453      8.084   235.6283 2.3222e-01    16.6600      4.560      6.614    12.2489 0.0000e+00
      4.652      0.020     3.9649     39.351     51.390  38.348974     1.4089      8.084   235.6873 2.3401e-01    16.6187      4.562      6.617    12.2765 0.0000e+00
      4.657      0.032     4.0765     39.054     51.370  38.346985     1.4584      8.083   235.7467 2.3096e-01    16.3633      4.565      6.620    12.2912 0.0000e+00
      4.667      0.046     4.1669     38.478     51.420  38.386448     1.4694      8.083   235.8293 2.1360e-01    16.2028      4.574      6.634    12.2910 0.0000e+00
      4.682      0.060     4.2185     37.708     51.533  38.445362     1.4755      8.083   235.9123 1.9664e-01    16.3168      4.591      6.660    12.2955 0.0000e+00
      4.700      0.070     4.2262     36.845     51.662  38.488142     1.4570      8.083   235.9758 1.9696e-01    16.6825      4.609      6.684    12.3077 0.0000e+00
      4.720      0.078     4.1868     36.050     51.792  38.522868     1.3630      8.083   235.9949 1.9934e-01    17.0034      4.627      6.711    12.3228 0.0000e+00
      4.745      0.087     4.1225     35.538     51.980  38.611323     1.2805      8.084   235.9717 1.8864e-01    17.0208      4.653      6.749    12.3337 0.0000e+00
      4.769      0.097     4.0386     35.515     52.200  38.732596     1.2495      8.084   236.0389 1.6990e-01    16.9953      4.680      6.788    12.3111 0.0000e+00
      4.788      0.103     3.9458     36.042     52.318  38.783376     1.1709      8.083   236.2055 1.5197e-01    17.5142      4.695      6.809    12.2483 0.0000e+00
      4.810      0.102     3.8584     37.010     52.356  38.781040     1.0381      8.083   236.3508 1.3881e-01    18.4442      4.709      6.830    12.1815 0.0000e+00
      4.846      0.095     3.7979     38.247     52.365  38.767778     0.9505      8.082   236.5052 1.3277e-01    18.8467      4.751      6.891    12.1337 0.0000e+00
      4.885      0.085     3.7962     39.595     52.350  38.749928     0.9109      8.080   236.6957 1.3321e-01    18.7595      4.800      6.962    12.0966 0.0000e+00
      4.908      0.074     3.8613     40.856     52.355  38.755583     0.8835      8.077   236.8473 1.3087e-01    18.6540      4.819      6.989    12.0602 0.0000e+00
      4.915      0.061     3.9765     41.843     52.374  38.772691     0.8771      8.075   236.9616 1.2582e-01    18.5960      4.820      6.990    12.0287 0.0000e+00
      4.920      0.047     4.1151     42.473     52.365  38.766402     0.8924      8.073   237.0443 1.2395e-01    18.6733      4.825      6.997    12.0101 0.0000e+00
      4.927      0.039     4.2694     42.754     52.340  38.743004     0.8853      8.072   237.0730 1.2374e-01    18.6993      4.830      7.006    12.0053 0.0000e+00
      4.938      0.039     4.4133     42.758     52.348  38.743628     0.8492      8.071   237.2231 1.2372e-01    18.6035      4.841      7.022    12.0082 0.0000e+00
      4.951      0.043     4.5211     42.598     52.400  38.773939     0.8474      8.070   237.4822 1.2372e-01    18.4724      4.858      7.046    12.0146 0.0000e+00
      4.961      0.043     4.5889     42.404     52.439  38.792184     0.8962      8.068   237.6257 1.2371e-01    18.3771      4.865      7.056    12.0149 0.0000e+00
      4.973      0.040     4.6167     42.275     52.423  38.773822     0.9490      8.066   237.6662 1.2369e-01    18.4422      4.873      7.067    12.0072 0.0000e+00
      4.989      0.034     4.6134     42.253     52.382  38.742311     0.9529      8.065   237.8001 1.2367e-01    18.4741      4.896      7.101    12.0035 0.0000e+00
      4.999      0.026     4.5914     42.358     52.354  38.728485     0.9259      8.062   238.0396 1.2371e-01    18.4551      4.906      7.116    11.9965 0.0000e+00
      5.002      0.020     4.5678     42.582     52.339  38.733581     0.9228      8.059   238.1539 1.2370e-01    18.5204      4.903      7.111    11.9835 0.0000e+00
      5.003      0.017     4.5536     42.825     52.321  38.740488     0.9484      8.058   238.1498 1.2369e-01    18.6141      4.908      7.118    11.9772 0.0000e+00
      5.003      0.020     4.5510     42.978     52.316  38.748558     0.9859      8.058   238.1613 1.2377e-01    18.7346      4.907      7.118    11.9754 0.0000e+00
      5.003      0.030     4.5605     43.031     52.350  38.767699     0.9689      8.058   238.2076 1.2377e-01    18.7130      4.904      7.113    11.9796 0.0000e+00
      5.007      0.043     4.5872     42.971     52.392  38.781538     0.8923      8.058   238.2791 1.2367e-01    18.5576      4.906      7.117    11.9981 0.0000e+00
      5.021      0.054     4.6182     42.813     52.428  38.788937     0.8508      8.057   238.4236 1.2365e-01    18.4946      4.920      7.136    12.0226 0.0000e+00
      5.045      0.060     4.6293     42.641     52.456  38.793673     0.8582      8.055   238.6648 1.2370e-01    18.5674      4.949      7.178    12.0368 0.0000e+00
      5.069      0.061     4.6386     42.512     52.444  38.775329     0.8808      8.054   238.7858 1.2373e-01    18.6859      4.975      7.215    12.0294 0.0000e+00
      5.087      0.058     4.6342     42.475     52.424  38.757513     0.8830      8.054   238.7682 1.2373e-01    18.6635      4.991      7.237    12.0077 0.0000e+00
      5.100      0.055     4.6143     42.589     52.438  38.768636     0.8609      8.054   238.8821 1.2370e-01    18.5361      5.004      7.257    11.9874 0.0000e+00
      5.105      0.054     4.5958     42.840     52.458  38.782898     0.8634      8.052   239.0436 1.2372e-01    18.5805      5.009      7.264    11.9726 0.0000e+00
      5.110      0.054     4.5820     43.125     52.493  38.803023     0.9045      8.050   239.0009 1.2377e-01    18.8925      5.007      7.263    11.9623 0.0000e+00
      5.124      0.056     4.5747     43.399     52.525  38.821580     0.9496      8.050   238.9674 1.2377e-01    19.2340      5.021      7.284    11.9607 0.0000e+00
      5.147      0.059     4.5858     43.654     52.523  38.816884     0.9507      8.050   239.1551 1.2373e-01    19.2934      5.050      7.324    11.9650 0.0000e+00
      5.169      0.058     4.6205     43.869     52.513  38.809700     0.9174      8.049   239.3777 1.2373e-01    19.1669      5.073      7.358    11.9640 0.0000e+00
      5.185      0.052     4.6517     44.015     52.496  38.798171     0.9307      8.048   239.5090 1.2378e-01    19.1048      5.085      7.375    11.9574 0.0000e+00
      5.197      0.043     4.6824     44.111     52.505  38.804413     0.9945      8.046   239.6237 1.2382e-01    19.0897      5.097      7.393    11.9512 0.0000e+00
      5.206      0.035     4.7106     44.189     52.530  38.821717     1.0310      8.045   239.7316 1.2381e-01    19.0863      5.110      7.410    11.9484 0.0000e+00
      5.209      0.032     4.7356     44.237     52.525  38.817012     1.0152      8.045   239.6954 1.2381e-01    18.9950      5.108      7.410    11.9497 0.0000e+00
      5.212      0.034     4.7506     44.268     52.517  38.810987     0.9772      8.044   239.6159 1.2382e-01    18.8056      5.108      7.408    11.9510 0.0000e+00
      5.219      0.038     4.7579     44.339     52.521  38.812321     0.9552      8.043   239.7164 1.2381e-01    18.8464      5.116      7.420    11.9503 0.0000e+00
      5.231      0.044     4.7690     44.440     52.553  38.833143     0.9569      8.042   239.8782 1.2381e-01    19.1121      5.128      7.436    11.9482 0.0000e+00
      5.246      0.051     4.7737     44.482     52.612  38.872355     0.9640      8.041   239.9378 1.2377e-01    19.2512      5.144      7.462    11.9475 0.0000e+00
      5.262      0.055     4.7736     44.452     52.663  38.905660     0.9495      8.040   240.0064 1.2376e-01    19.1625      5.162      7.487    11.9489 0.0000e+00
      5.277      0.054     4.7804     44.445     52.683  38.918512     0.9067      8.039   240.1921 1.2382e-01    19.0304      5.175      7.506    11.9478 0.0000e+00
      5.291      0.049     4.7981     44.489     52.658  38.900827     0.8794      8.038   240.2900 1.2385e-01    19.0198      5.188      7.525    11.9445 0.0000e+00
      5.306      0.041     4.8043     44.525     52.631  38.882221     0.8863      8.037   240.2432 1.2383e-01    18.9660      5.203      7.547    11.9399 0.0000e+00
      5.318      0.035     4.7946     44.530     52.632  38.883936     0.8977      8.037   240.3146 1.2382e-01    18.8919      5.217      7.568    11.9343 0.0000e+00
      5.323      0.033     4.7937     44.522     52.597  38.858094     0.8842      8.036   240.4652 1.2378e-01    18.9442      5.222      7.574    11.9326 0.0000e+00
      5.323      0.034     4.8018     44.513     52.550  38.823610     0.8479      8.036   240.5151 1.2376e-01    19.0187      5.220      7.571    11.9343 0.0000e+00
      5.327      0.036     4.8069     44.521     52.585  38.847762     0.8425      8.035   240.5746 1.2375e-01    19.1430      5.221      7.573    11.9357 0.0000e+00
      5.338      0.041     4.8048     44.541     52.655  38.896268     0.8766      8.034   240.6679 1.2378e-01    19.1826      5.232      7.588    11.9364 0.0000e+00
      5.355      0.046     4.8049     44.542     52.669  38.902392     0.8861      8.032   240.6971 1.2384e-01    19.0875      5.252      7.617    11.9367 0.0000e+00
      5.372      0.048     4.8025     44.528     52.616  38.858339     0.8484      8.031   240.7548 1.2382e-01    19.0863      5.270      7.644    11.9373 0.0000e+00
      5.386      0.046     4.8030     44.506     52.553  38.807850     0.8036      8.030   240.8503 1.2377e-01    19.2027      5.282      7.661    11.9361 0.0000e+00
      5.397      0.041     4.8090     44.499     52.544  38.799623     0.7936      8.029   240.9043 1.2376e-01    19.3677      5.294      7.678    11.9323 0.0000e+00
      5.406      0.038     4.8071     44.550     52.577  38.822331     0.8032      8.029   240.9775 1.2376e-01    19.5433      5.304      7.693    11.9286 0.0000e+00
      5.411      0.037     4.8073     44.667     52.590  38.828557     0.8037      8.029   241.1333 1.2373e-01    19.7205      5.307      7.696    11.9239 0.0000e+00
      5.416      0.037     4.8043     44.823     52.575  38.811443     0.7995      8.028   241.3256 1.2375e-01    19.8714      5.309      7.699    11.9188 0.0000e+00
      5.427      0.036     4.8013     45.024     52.576  38.805778     0.7852      8.027   241.4963 1.2379e-01    19.9669      5.320      7.717    11.9175 0.0000e+00
      5.442      0.033     4.8065     45.303     52.606  38.823521     0.7727      8.026   241.5620 1.2379e-01    19.9524      5.338      7.742    11.9182 0.0000e+00
      5.454      0.029     4.8212     45.637     52.624  38.835590     0.7733      8.025   241.6042 1.2381e-01    19.5944      5.352      7.762    11.9150 0.0000e+00
      5.461      0.023     4.8393     45.966     52.606  38.824771     0.7678      8.023   241.7479 1.2379e-01    19.0196      5.358      7.770    11.9081 0.0000e+00
      5.463      0.015     4.8584     46.251     52.590  38.819636     0.7477      8.022   241.9234 1.2377e-01    18.7415      5.358      7.771    11.9011 0.0000e+00
      5.463      0.009     4.8909     46.485     52.600  38.836967     0.7296      8.022   242.0054 1.2379e-01    18.7258      5.358      7.770    11.8969 0.0000e+00
      5.464      0.007     4.9298     46.665     52.593  38.843955     0.7484      8.022   241.8790 1.2377e-01    18.7957      5.358      7.771    11.8953 0.0000e+00
      5.464      0.010     4.9666     46.757     52.576  38.840677     0.7916      8.022   241.7713 1.2378e-01    18.8692      5.359      7.772    11.8967 0.0000e+00
      5.464      0.015     4.9970     46.757     52.605  38.860807     0.7865      8.022   241.9079 1.2383e-01    18.7950      5.359      7.772    11.9033 0.0000e+00
      5.467      0.019     5.0200     46.668     52.665  38.896955     0.7441      8.020   242.0678 1.2382e-01    18.7185      5.358      7.771    11.9134 0.0000e+00
      5.477      0.022     5.0407     46.488     52.671  38.896969     0.7372      8.019   242.1557 1.2377e-01    18.7639      5.368      7.786    11.9269 0.0000e+00
      5.490      0.023     5.0491     46.283     52.617  38.860960     0.7698      8.018   242.2821 1.2372e-01    18.8649      5.387      7.813    11.9393 0.0000e+00
      5.497      0.022     5.0475     46.115     52.586  38.842353     0.8056      8.018   242.3918 1.2369e-01    18.8467      5.392      7.821    11.9375 0.0000e+00
      5.499      0.022     5.0427     45.990     52.613  38.862380     0.8039      8.017   242.4500 1.2374e-01    18.7149      5.392      7.820    11.9239 0.0000e+00
      5.501      0.022     5.0191     45.900     52.683  38.912717     0.7493      8.017   242.4694 1.2379e-01    18.6719      5.395      7.826    11.9178 0.0000e+00
      5.502      0.024     4.9936     45.819     52.720  38.943278     0.7025      8.017   242.4539 1.2378e-01    18.7707      5.394      7.824    11.9249 0.0000e+00
      5.508      0.031     4.9757     45.746     52.666  38.914588     0.7209      8.017   242.4357 1.2375e-01    18.9192      5.398      7.829    11.9312 0.0000e+00
      5.519      0.041     4.9614     45.697     52.606  38.883145     0.7562      8.017   242.4212 1.2371e-01    18.9300      5.413      7.851    11.9300 0.0000e+00
      5.531      0.051     4.9543     45.663     52.595  38.880428     0.7545      8.017   242.4503 1.2369e-01    18.8667      5.425      7.869    11.9272 0.0000e+00
      5.543      0.059     4.9453     45.635     52.604  38.881752     0.7500      8.016   242.5290 1.2374e-01    18.9744      5.433      7.880    11.9280 0.0000e+00
      5.560      0.061     4.9342     45.600     52.643  38.899142     0.7689      8.015   242.5988 1.2378e-01    19.1726      5.449      7.902    11.9405 0.0000e+00
      5.584      0.062     4.9288     45.559     52.660  38.900287     0.7828      8.015   242.6063 1.2378e-01    19.2817      5.476      7.943    11.9574 0.0000e+00
      5.606      0.062     4.9239     45.555     52.666  38.895582     0.7680      8.015   242.5338 1.2381e-01    19.2354      5.502      7.981    11.9629 0.0000e+00
      5.617      0.059     4.9224     45.571     52.691  38.905706     0.7402      8.015   242.4959 1.2378e-01    19.1251      5.510      7.992    11.9558 0.0000e+00
      5.624      0.053     4.9218     45.580     52.683  38.895756     0.7458      8.015   242.5777 1.2378e-01    19.2118      5.511      7.992    11.9432 0.0000e+00
      5.638      0.047     4.9138     45.599     52.691  38.902203     0.7691      8.015   242.5767 1.2378e-01    19.4288      5.527      8.016    11.9310 0.0000e+00
      5.654      0.047     4.9166     45.628     52.712  38.920201     0.7720      8.015   242.3977 1.2378e-01    19.5629      5.550      8.050    11.9230 0.0000e+00
      5.664      0.050     4.9214     45.664     52.714  38.922982     0.7479      8.014   242.3070 1.2380e-01    19.7753      5.556      8.059    11.9152 0.0000e+00
      5.671      0.052     4.9203     45.724     52.732  38.935832     0.7033      8.013   242.3410 1.2376e-01    20.1182      5.558      8.061    11.9097 0.0000e+00
      5.683      0.050     4.9230     45.802     52.751  38.948642     0.7058      8.012   242.2058 1.2369e-01    20.4289      5.570      8.079    11.9125 0.0000e+00
      5.703      0.049     4.9265     45.907     52.757  38.950940     0.7620      8.012   241.9623 1.2366e-01    21.1757      5.593      8.113    11.9160 0.0000e+00
      5.720      0.052     4.9281     46.022     52.780  38.963624     1.0992      8.012   241.8924 1.2372e-01    27.7804      5.615      8.143    11.9168 0.0000e+00
      5.730      0.054     4.9364     46.094     52.805  38.975069     1.7206      8.011   241.9626 1.2380e-01    39.7212      5.621      8.152    11.9163 0.0000e+00
      5.737      0.052     4.9437     46.143     52.798  38.962388     2.0580      8.010   242.1233 1.2385e-01    46.5061      5.621      8.153    11.9145 0.0000e+00
      5.751      0.047     4.9550     46.192     52.771  38.937214     2.1744      8.009   242.2868 1.2390e-01    51.8132      5.636      8.176    11.9133 0.0000e+00
      5.770      0.043     4.9726     46.227     52.759  38.924533     3.1689      8.008   242.3048 1.2393e-01   104.0251      5.663      8.212    11.9095 0.0000e+00
      5.784      0.040     4.9783     46.233     52.778  38.935977     4.9684      8.007   242.2551 1.2387e-01   199.4269      5.676      8.232    11.9019 0.0000e+00
      5.790      0.035     4.9834     46.216     52.796  38.948659     5.9465      8.006   242.2886 1.2380e-01   251.5777      5.678      8.236    11.8946 0.0000e+00
      5.795      0.026     4.9907     46.186     52.801  38.950956     5.9479      8.004   242.4513 1.2382e-01   258.6326      5.682      8.241    11.8893 0.0000e+00
      5.801      0.017     4.9955     46.154     52.819  38.963744     5.1095      8.003   242.5869 1.2387e-01   285.6833      5.689      8.251    11.8850 0.0000e+00
      5.806      0.012     4.9958     46.129     52.836  38.976340     3.6089      8.002   242.6379 1.2387e-01   334.6793      5.694      8.260    11.8831 0.0000e+00
      5.807      0.008     4.9936     46.093     52.832  38.976340     2.8104      8.002   242.7238 1.2386e-01   361.3982      5.695      8.261    11.8835 0.0000e+00
      5.808      0.005     4.9905     46.044     52.809  38.963743     2.7461      8.001   242.8512 1.2382e-01   363.7134      5.696      8.260    11.8824 0.0000e+00
      5.808      0.003     4.9859     46.016     52.785  38.950965     2.7067      8.000   242.9736 1.2374e-01   363.3885      5.696      8.261    11.8805 0.0000e+00
      5.808      0.001     4.9849     46.010     52.775  38.948763     2.5836      7.999   243.0845 1.2370e-01   358.6323      5.696      8.262    11.8808 0.0000e+00
      5.808      0.000     4.9812     46.022     52.749  38.937118     2.4307      7.998   243.1602 1.2378e-01   349.9989      5.696      8.261    11.8835 0.0000e+00
      5.808 4.3388e-07     4.9724     46.063     52.735  38.937107     2.3729      7.998   243.2003 1.2386e-01   345.3232      5.696      8.261    11.8887 0.0000e+00
      5.809      0.000     4.9697     46.109     52.738  38.948644     2.3763      7.998   243.2255 1.2387e-01   345.0370      5.696      8.262    11.8937 0.0000e+00
      5.809      0.000     4.9693     46.143     52.729  38.949703     2.3142      7.997   243.2930 1.2382e-01   346.6756      5.696      8.262    11.8965 0.0000e+00
      5.808      0.001     4.9677     46.160     52.723  38.949912     2.1877      7.996   243.4137 1.2377e-01   349.8659      5.696      8.261    11.9046 0.0000e+00
      5.808      0.001     4.9732     46.165     52.723  38.951179     2.1367      7.996   243.4797 1.2374e-01   351.6719      5.696      8.261    11.9157 0.0000e+00
      5.809      0.002     4.9777     46.178     52.739  38.965026     2.1637      7.995   243.4896 1.2379e-01   351.0900      5.696      8.261    11.9242 0.0000e+00
      5.810      0.002     4.9799     46.188     52.772  38.990410     2.0808      7.994   243.5331 1.2384e-01   342.1127      5.697      8.263    11.9322 0.0000e+00
      5.811      0.003     4.9825     46.171     52.791  39.004247     1.8755      7.994   243.6621 1.2382e-01   325.6579      5.699      8.265    11.9360 0.0000e+00
      5.811      0.003     4.9806     46.132     52.793  39.005411     1.7374      7.994   243.7583 1.2380e-01   316.3744      5.699      8.265    11.9367 0.0000e+00
      5.811      0.003     4.9827     46.085     52.793  39.004477     1.7010      7.994   243.7490 1.2377e-01   311.8495      5.699      8.265    11.9383 0.0000e+00
      5.812      0.003     4.9857     46.033     52.778  38.992949     1.4271      7.993   243.8078 1.2373e-01   269.7869      5.700      8.267    11.9393 0.0000e+00
      5.814      0.003     4.9825     45.986     52.772  38.992958     0.8816      7.991   243.9534 1.2374e-01   192.5706      5.701      8.270    11.9394 0.0000e+00
      5.816      0.003     4.9783     45.961     52.769  39.004591     0.5643      7.990   243.9613 1.2374e-01   150.3383      5.703      8.272    11.9387 0.0000e+00
      5.816      0.003     4.9730     45.946     52.749  39.006687     0.5039      7.990   243.9029 1.2374e-01   145.5376      5.703      8.272    11.9374 0.0000e+00
      5.816      0.002     4.9678     45.925     52.745  39.018318     0.4175      7.990   244.0209 1.2379e-01   135.4139      5.704      8.273    11.9356 0.0000e+00
      5.817      0.001     4.9608     45.902     52.730  39.018316     0.2941      7.989   244.1848 1.2381e-01   117.4993      5.704      8.274    11.9375 0.0000e+00
      5.817      0.001     4.9575     45.884     52.700  39.006673     0.2275      7.988   244.2495 1.2380e-01   107.6562      5.705      8.274    11.9529 0.0000e+00
      5.817      0.000     4.9547     45.875     52.678  39.004479     0.2021      7.987   244.2003 1.2371e-01   106.5483      5.705      8.274    11.9736 0.0000e+00
      5.817 1.8795e-08     4.9499     45.871     52.640  38.991804     0.1710      7.985   244.1069 1.2370e-01   104.3774      5.704      8.274    11.9865 0.0000e+00
      5.817 2.0675e-07     4.9468     45.862     52.606  38.980360     0.1757      7.984   244.1526 1.2378e-01   100.5708      5.704      8.274    11.9946 0.0000e+00
      5.817 2.0675e-07     4.9432     45.853     52.610  38.993060     0.2094      7.984   244.3227 1.2380e-01    98.4403      5.704      8.273    12.0033 0.0000e+00
      5.817 1.8796e-08     4.9410     45.837     52.635  39.018443     0.2115      7.985   244.4425 1.2378e-01    98.0891      5.705      8.274    12.0175 0.0000e+00
      5.817 1.7087e-09     4.9395     45.807     52.648  39.033424     0.1768      7.985   244.3962 1.2375e-01    97.7934      5.705      8.274    12.0343 0.0000e+00
      5.817 1.5534e-10     4.9364     45.773     52.660  39.047280     0.1395      7.984   244.3661 1.2367e-01    95.3767      5.704      8.274    12.0475 0.0000e+00
      5.817 1.4121e-11     4.9344     45.734     52.668  39.059045     0.1187      7.983   244.5083 1.2359e-01    90.9013      5.705      8.275    12.0570 0.0000e+00
      5.817 1.2838e-12     4.9335     45.674     52.646  39.048764     0.1322      7.982   244.6533 1.2360e-01    88.3966      5.704      8.274    12.0626 0.0000e+00
      5.818 1.1671e-13     4.9279     45.586     52.642  39.049909     0.1365      7.982   244.7420 1.2365e-01    87.8426      5.705      8.274    12.0670 0.0000e+00
      5.818 1.0610e-14     4.9243     45.475     52.671  39.072892     0.1050      7.981   244.8074 1.2372e-01    85.3647      5.705      8.275    12.0716 0.0000e+00
      5.818 9.7168e-16     4.9206     45.378     52.670  39.072798     0.0923      7.980   244.8419 1.2375e-01    81.1187      5.705      8.274    12.0771 0.0000e+00
      5.818 1.6668e-16     4.9126     45.296     52.633  39.048777     0.1153      7.980   244.9002 1.2378e-01    78.9298      5.705      8.274    12.0840 0.0000e+00
      5.818 8.7696e-16     4.9045     45.205     52.608  39.036303     0.1427      7.980   244.9962 1.2382e-01    78.6429      5.705      8.274    12.0887 0.0000e+00
      5.818 9.5596e-15     4.8886     45.099     52.616  39.048899     0.1231      7.979   245.0557 1.2379e-01    76.6255      5.705      8.274    12.0886 0.0000e+00
      5.818 1.0515e-13     4.8791     44.986     52.641  39.074160     0.0611      7.979   245.1037 1.2373e-01    72.9497      5.705      8.274    12.0880 0.0000e+00
      5.818 1.1566e-12     4.8720     44.904     52.653  39.087891     0.0259      7.979   245.1467 1.2374e-01    70.9890      5.706      8.275    12.0911 0.0000e+00
      5.818 1.2723e-11     4.8600     44.829     52.652  39.088003     0.0398      7.978   245.1448 1.2381e-01    70.8181      5.705      8.275    12.0974 0.0000e+00
      5.818 1.3995e-10     4.8501     44.739     52.639  39.075521     0.0622      7.977   245.1674 1.2380e-01    69.6876      5.705      8.274    12.1053 0.0000e+00
      5.818 1.5395e-09     4.8321     44.651     52.631  39.063889     0.0554      7.977   245.2484 1.2368e-01    67.4322      5.705      8.275    12.1121 0.0000e+00
      5.818 1.6934e-08     4.8259     44.564     52.655  39.074285     0.0404      7.977   245.3486 1.2366e-01    66.2302      5.706      8.276    12.1164 0.0000e+00
      5.818 1.8627e-07     4.8192     44.491     52.665  39.074285     0.0394      7.976   245.4330 1.2376e-01    66.1191      5.706      8.275    12.1180 0.0000e+00
      5.818 1.8627e-07     4.8070     44.445     52.656  39.063881     0.0601      7.976   245.4944 1.2381e-01    65.0646      5.706      8.276    12.1148 0.0000e+00
      5.818 1.6934e-08     4.8006     44.420     52.669  39.075409     0.0831      7.975   245.4890 1.2381e-01    63.0794      5.706      8.275    12.1087 0.0000e+00
      5.818 1.5395e-09     4.7897     44.421     52.675  39.086747     0.0668      7.975   245.4532 1.2376e-01    61.9283      5.706      8.275    12.1019 0.0000e+00
      5.819 1.3995e-10     4.7831     44.455     52.648  39.074045     0.0466      7.975   245.4053 1.2375e-01    61.8374      5.706      8.276    12.0933 0.0000e+00
      5.819 1.2723e-11     4.7788     44.486     52.604  39.048763     0.0470      7.974   245.2539 1.2381e-01    61.8444      5.706      8.276    12.0884 0.0000e+00
      5.819 1.1575e-12     4.7758     44.501     52.578  39.034927     0.0548      7.974   245.1714 1.2383e-01    60.9200      5.706      8.276    12.0911 0.0000e+00
      5.819 1.1471e-13     4.7739     44.518     52.568  39.033678     0.0746      7.973   245.1834 1.2381e-01    59.1663      5.706      8.276    12.0984 0.0000e+00
      5.819 1.1471e-13     4.7791     44.511     52.560  39.033678     0.0777      7.973   245.0546 1.2382e-01    58.1295      5.706      8.276    12.1060 0.0000e+00
      5.819 1.1575e-12     4.7832     44.467     52.556  39.034925     0.0513      7.972   245.0763 1.2380e-01    57.9830      5.707      8.277    12.1125 0.0000e+00
      5.819 1.2723e-11     4.7805     44.406     52.570  39.048760     0.0300      7.971   245.2747 1.2378e-01    57.4644      5.706      8.276    12.1186 0.0000e+00
      5.819 1.3995e-10     4.7850     44.328     52.600  39.074031     0.0442      7.971   245.3873 1.2380e-01    56.3331      5.706      8.276    12.1239 0.0000e+00
      5.819 1.5395e-09     4.7843     44.242     52.617  39.086627     0.0820      7.971   245.5768 1.2385e-01    55.5777      5.706      8.277    12.1298 0.0000e+00
      5.820 1.6934e-08     4.7766     44.173     52.602  39.074144     0.0867      7.971   245.6736 1.2386e-01    55.3340      5.707      8.278    12.1343 0.0000e+00
      5.820 1.8627e-07     4.7711     44.120     52.568  39.050018     0.0680      7.971   245.6118 1.2380e-01    54.8890      5.707      8.277    12.1374 0.0000e+00
      5.820 1.8627e-07     4.7619     44.062     52.560  39.048768     0.0650      7.970   245.6897 1.2380e-01    54.1595      5.707      8.277    12.1405 0.0000e+00
      5.819 1.6934e-08     4.7510     44.010     52.562  39.059038     0.0669      7.969   245.8407 1.2384e-01    53.7217      5.707      8.277    12.1407 0.0000e+00
      5.819 1.5395e-09     4.7438     43.981     52.535  39.047281     0.0825      7.969   245.8893 1.2386e-01    53.5920      5.707      8.277    12.1382 0.0000e+00
      5.820 1.3995e-10     4.7398     43.954     52.505  39.033548     0.0865      7.968   245.8467 1.2386e-01    53.1716      5.707      8.277    12.1376 0.0000e+00
      5.820 1.2723e-11     4.7327     43.907     52.476  39.019919     0.0658      7.968   245.8421 1.2380e-01    52.5326      5.707      8.277    12.1428 0.0000e+00
      5.819 1.1566e-12     4.7240     43.835     52.452  39.009429     0.0648      7.967   246.0061 1.2368e-01    52.2546      5.707      8.277    12.1518 0.0000e+00
      5.819 1.0515e-13     4.7225     43.756     52.474  39.033649     0.0823      7.967   246.1947 1.2366e-01    52.2350      5.707      8.277    12.1607 0.0000e+00
      5.820 9.5590e-15     4.7187     43.684     52.498  39.058928     0.0707      7.967   246.2300 1.2371e-01    51.8524      5.707      8.277    12.1682 0.0000e+00
      5.820 8.6900e-16     4.7137     43.608     52.494  39.061235     0.0241      7.967   246.1744 1.2373e-01    51.1804      5.707      8.277    12.1752 0.0000e+00
      5.820 7.8968e-17     4.7042     43.534     52.489  39.061547    -0.0069      7.967   246.2111 1.2373e-01    50.9081      5.707      8.277    12.1829 0.0000e+00
      5.819 6.8272e-18     4.6931     43.436     52.485  39.062709     0.0031      7.967   246.3301 1.2378e-01    50.9856      5.707      8.277    12.1906 0.0000e+00
      5.819 -3.249e-18     4.6877     43.315     52.495  39.075279     0.0211      7.967   246.3223 1.2383e-01    50.9220      5.707      8.277    12.1979 0.0000e+00
      5.820 -4.287e-17     4.6758     43.226     52.506  39.086609     0.0193      7.966   246.2888 1.2382e-01    50.5147      5.707      8.278    12.2028 0.0000e+00
      5.820 -4.722e-16     4.6705     43.182     52.489  39.072781     0.0061      7.966   246.3544 1.2376e-01    49.9549      5.707      8.277    12.2059 0.0000e+00
      5.820 -5.194e-15     4.6605     43.175     52.444  39.035018    -0.0138      7.966   246.4283 1.2373e-01    49.7555      5.707      8.277    12.2105 0.0000e+00
      5.819 -5.713e-14     4.6418     43.192     52.416  39.010788    -0.0048      7.966   246.4076 1.2373e-01    49.8458      5.707      8.277    12.2162 0.0000e+00
      5.819 -6.285e-13     4.6335     43.224     52.451  39.033657     0.0319      7.965   246.4472 1.2377e-01    49.7147      5.706      8.276    12.2195 0.0000e+00
      5.819 -6.913e-12     4.6284     43.275     52.486  39.057668     0.0467      7.964   246.7357 1.2378e-01    49.2975      5.707      8.277    12.2183 0.0000e+00
      5.819 -7.604e-11     4.6289     43.342     52.478  39.047264     0.0237      7.963   246.9705 1.2375e-01    48.9686      5.707      8.277    12.2138 0.0000e+00
      5.819 -8.365e-10     4.6320     43.405     52.469  39.034780    -0.0123      7.963   246.9635 1.2387e-01    48.9159      5.707      8.277    12.2090 0.0000e+00
      5.819 -9.201e-09     4.6346     43.441     52.477  39.033645    -0.0063      7.963   246.9090 1.2401e-01    48.8653      5.707      8.277    12.2068 0.0000e+00
      5.819 -1.012e-07     4.6408     43.445     52.485  39.033533     0.0139      7.963   247.0000 1.2395e-01    48.5615      5.707      8.277    12.2054 0.0000e+00
      5.819     -0.000     4.6490     43.439     52.491  39.033410     0.0066      7.963   247.2034 1.2384e-01    48.2826      5.706      8.276    12.2018 0.0000e+00
      5.819     -0.000     4.6574     43.449     52.493  39.032152    -0.0028      7.963   247.3031 1.2383e-01    48.3966      5.707      8.277    12.1960 0.0000e+00
      5.819     -0.000     4.6627     43.467     52.478  39.018327     0.0171      7.962   247.2586 1.2382e-01    50.2135      5.707      8.278    12.1884 0.0000e+00
      5.819     -0.001     4.6625     43.457     52.444  38.993174     0.0724      7.960   247.2680 1.2376e-01    53.4772      5.707      8.277    12.1816 0.0000e+00
      5.819     -0.006     4.6607     43.421     52.428  38.981878     0.0909      7.960   247.5031 1.2376e-01    55.2700      5.707      8.278    12.1781 0.0000e+00
      5.819     -0.019     4.6625     43.372     52.467  39.008664     0.1004      7.959   247.9505 1.2380e-01    56.7231      5.707      8.277    12.1751 0.0000e+00
      5.818     -0.047     4.6671     43.312     52.532  39.063198     0.4367      7.957   248.3741 1.2380e-01    72.8231      5.706      8.275    12.1731 0.0000e+00
      5.813     -0.091     4.6655     43.260     52.583  39.133558     1.0684      7.955   248.5815 1.2379e-01   102.5366      5.703      8.270    12.1724 0.0000e+00
      5.801     -0.143     4.6601     43.226     52.629  39.224798     1.4381      7.952   248.7374 1.2375e-01   118.8332      5.697      8.263    12.1751 0.0000e+00
      5.764     -0.195     4.6566     43.166     52.611  39.277973     1.4778      7.949   248.9684 1.2375e-01   120.1082      5.668      8.220    12.1711 0.0000e+00
      5.691     -0.240     4.6491     42.976     52.511  39.268859     1.4393      7.947   249.1369 1.2381e-01   117.8168      5.588      8.105    12.1659 0.0000e+00
      5.599     -0.275     4.6393     42.593     52.401  39.241608     1.2979      7.945   249.1408 1.2373e-01    92.5625      5.487      7.957    12.1989 0.0000e+00
      5.513     -0.295     4.6304     42.032     52.306  39.202394     1.0918      7.943   249.1021 1.2367e-01    46.4637      5.402      7.834    12.2606 0.0000e+00
      5.437     -0.296     4.6225     41.338     52.258  39.175543     1.0111      7.942   249.1841 1.2372e-01    21.4221      5.330      7.730    12.3244 0.0000e+00
      5.365     -0.282     4.5981     40.563     52.258  39.170813     1.0215      7.942   249.2723 1.2372e-01    19.0985      5.262      7.633    12.3925 0.0000e+00
      5.294     -0.267     4.5495     39.772     52.237  39.145200     1.0429      7.941   249.3080 1.2373e-01    18.7108      5.190      7.528    12.4499 0.0000e+00
      5.228     -0.257     4.4853     39.034     52.221  39.119690     1.0951      7.941   249.3581 1.2377e-01    18.6132      5.122      7.429    12.4793 0.0000e+00
      5.169     -0.256     4.4090     38.432     52.232  39.116217     1.1366      7.941   249.3617 1.2377e-01    18.7045      5.068      7.351    12.4836 0.0000e+00
      5.112     -0.256     4.3247     38.020     52.223  39.103190     1.1618      7.940   249.3516 1.2387e-01    18.8925      5.014      7.272    12.4765 0.0000e+00
      5.048     -0.256     4.2386     37.773     52.207  39.089106     1.1503      7.940   249.4074 1.2548e-01    18.7679      4.956      7.187    12.4670 0.0000e+00
      4.977     -0.259     4.1584     37.633     52.186  39.072846     1.0966      7.940   249.5201 1.3200e-01    18.3261      4.882      7.081    12.4532 0.0000e+00
      4.902     -0.267     4.0915     37.507     52.137  39.033519     1.0702      7.940   249.5959 1.4493e-01    18.0940      4.803      6.966    12.4400 0.0000e+00
      4.835     -0.275     4.0509     37.268     52.092  38.994382     1.0808      7.941   249.5500 1.6339e-01    18.1469      4.739      6.873    12.4344 0.0000e+00
      4.775     -0.280     4.0262     36.892     52.085  38.980411     1.1250      7.942   249.4820 1.9405e-01    18.1123      4.685      6.795    12.4333 0.0000e+00
      4.707     -0.284     4.0138     36.456     52.112  38.991513     1.1804      7.942   249.5479 2.4828e-01    17.7774      4.623      6.706    12.4337 0.0000e+00
      4.625     -0.291     4.0081     36.026     52.135  39.001678     1.1839      7.943   249.6581 3.2121e-01    17.4801      4.536      6.579    12.4322 0.0000e+00
      4.544     -0.302     3.9830     35.602     52.107  38.976396     1.1756      7.944   249.6098 3.9000e-01    17.4211      4.450      6.454    12.4266 0.0000e+00
      4.472     -0.313     3.9402     35.214     52.062  38.939673     1.2464      7.945   249.3938 4.5257e-01    17.3717      4.387      6.363    12.4173 0.0000e+00
      4.397     -0.317     3.8906     34.914     52.062  38.938425     1.3663      7.946   249.1975 5.2657e-01    17.2923      4.316      6.259    12.4071 0.0000e+00
      4.312     -0.314     3.8475     34.700     52.092  38.961314     1.4095      7.948   249.1292 6.2186e-01    17.1783      4.231      6.137    12.4000 0.0000e+00
      4.222     -0.311     3.8014     34.559     52.087  38.962580     1.3777      7.948   249.0838 7.3086e-01    16.9847      4.139      6.003    12.3968 0.0000e+00
      4.136     -0.308     3.7560     34.449     52.063  38.953737     1.3570      7.949   249.0789 8.3771e-01    16.8647      4.050      5.873    12.3947 0.0000e+00
      4.063     -0.303     3.7267     34.322     52.085  38.981330     1.4007      7.949   249.1562 9.5807e-01    16.8202      3.983      5.778    12.3922 0.0000e+00
      3.995     -0.296     3.7022     34.150     52.144  39.042375     1.4984      7.950   249.1577 1.1334e+00    16.7544      3.920      5.686    12.3930 0.0000e+00
      3.923     -0.289     3.6895     33.927     52.295  39.184153     1.5394      7.952   249.0110 1.3927e+00    16.6493      3.850      5.583    12.3973 0.0000e+00
      3.845     -0.286     3.6787     33.638     52.480  39.362875     1.5131      7.953   248.8450 1.7292e+00    16.5403      3.772      5.470    12.4070 0.0000e+00
      3.769     -0.287     3.6654     33.165     52.500  39.426390     1.5636      7.953   248.6998 2.1430e+00    16.5637      3.693      5.358    12.4164 0.0000e+00
      3.699     -0.288     3.6464     32.293     52.550  39.507931     1.7001      7.954   248.4599 2.7683e+00    16.6584      3.628      5.262    12.4296 0.0000e+00
      3.628     -0.284     3.6193     30.912     52.775  39.714197     1.7821      7.956   248.1812 3.7187e+00    16.6950      3.560      5.163    12.4577 0.0000e+00
      3.554     -0.278     3.5893     29.089     53.038  39.953007     1.7806      7.957   247.8252 4.9365e+00    16.6303      3.485      5.056    12.4964 0.0000e+00
      3.480     -0.273     3.5454     26.983     53.263  40.174166     1.7580      7.958   247.2539 6.3057e+00    16.4571      3.412      4.950    12.5480 0.0000e+00
      3.409     -0.273     3.4547     24.808     53.326  40.293927     1.7749      7.958   246.6938 7.5827e+00    16.3774      3.339      4.844    12.5927 0.0000e+00
      3.345     -0.275     3.3000     22.699     53.396  40.449132     1.8181      7.958   246.3022 8.7545e+00    16.4521      3.279      4.756    12.6197 0.0000e+00
      3.283     -0.280     3.1007     20.710     53.741  40.844990     1.8551      7.959   245.8739 1.0122e+01    16.4376      3.223      4.675    12.6574 0.0000e+00
      3.213     -0.283     2.8621     18.911     53.954  41.208868     2.1067      7.962   245.3012 1.1669e+01    15.6219      3.153      4.573    12.7053 0.0000e+00
      3.135     -0.283     2.6238     17.332     53.627  41.231331     2.5626      7.963   244.5393 1.3215e+01    14.1042      3.076      4.461    12.7641 0.0000e+00
      3.054     -0.285     2.3955     15.904     53.147  41.116921     2.8311      7.964   243.4597 1.4607e+01    13.3560      2.994      4.344    12.8694 0.0000e+00
      2.976     -0.288     2.1745     14.374     52.861  41.095219     2.9478      7.968   242.4000 1.5625e+01    13.4078      2.911      4.222    12.9761 0.0000e+00
      2.910     -0.287     1.9783     12.563     52.568  41.096089     3.5911      7.973   241.7077 1.6397e+01    12.8173      2.850      4.135    13.1449 0.0000e+00
      2.849     -0.274     1.7989     10.611     52.170  41.064239     4.7085      7.979   241.2837 1.7384e+01    11.5116      2.799      4.061    13.4566 0.0000e+00
      2.776     -0.249     1.6529      8.694     51.839  41.027797     5.2884      7.987   241.0583 1.8732e+01    10.7030      2.730      3.959    13.7138 0.0000e+00
      2.690     -0.213     1.5019      6.922     51.634  40.973084     5.3253      7.997   240.9618 2.0007e+01    10.6580      2.633      3.818    13.8511 0.0000e+00
      2.620     -0.172     1.2964      5.383     51.455  40.910557     5.0968      8.007   240.8921 2.0708e+01    11.2077      2.552      3.701    14.0505 0.0000e+00
      2.586     -0.128     1.0828      4.160     51.276  40.906551     4.6054      8.016   240.7308 2.0907e+01    12.0541      2.528      3.666    14.3800 0.0000e+00
      2.578     -0.093     0.8789      3.367     51.143  40.924817     4.3037      8.024   240.4742 2.0909e+01    12.3861      2.525      3.663    14.6249 0.0000e+00
      2.579     -0.076     0.6933      3.025     51.061  40.877701     4.2450      8.032   240.1984 2.0857e+01    12.2842      2.528      3.667    14.6843 0.0000e+00
      2.580     -0.083     0.5372      3.057     50.995  40.844627     4.2706      8.039   239.9779 2.0953e+01    12.4622      2.534      3.675    14.7098 0.0000e+00
      2.570     -0.105     0.4032      3.329     50.915  40.905737     4.5881      8.044   239.8736 2.1496e+01    14.4359      2.530      3.669    14.8798 0.0000e+00
      2.533     -0.126     0.3230      3.714     50.835  40.982052     5.1211      8.049   239.7972 2.2647e+01    17.8722      2.496      3.619    15.0795 0.0000e+00
      2.472     -0.141     0.2912      4.160     50.793  41.005932     5.3791      8.054   239.6566 2.4082e+01    19.6460      2.424      3.515    15.0201 0.0000e+00
      2.412     -0.154     0.2994      4.595     50.721  40.940666     5.3693      8.059   239.4638 2.5073e+01    19.5209      2.354      3.413    14.9783 0.0000e+00
      2.376     -0.166     0.3325      4.937     50.560  40.827582     5.4685      8.063   239.2728 2.5418e+01    17.8621      2.322      3.368    15.1678 0.0000e+00
      2.360     -0.176     0.3685      5.179     50.367  40.781061     5.6967      8.068   238.9825 2.5898e+01    14.9613      2.318      3.363    15.3450 0.0000e+00
      2.334     -0.181     0.4162      5.341     50.122  40.759113     5.8225      8.071   238.6200 2.7235e+01    13.3801      2.300      3.336    15.3894 0.0000e+00
      2.280     -0.187     0.4641      5.431     49.799  40.689372     5.8331      8.074   238.4185 2.9412e+01    13.0565      2.244      3.254    15.3460 0.0000e+00
      2.207     -0.198     0.4979      5.487     49.482  40.636188     5.9243      8.077   238.2669 3.1822e+01    11.6645      2.162      3.135    15.3281 0.0000e+00
      2.138     -0.209     0.5191      5.539     49.205  40.624063     6.1185      8.080   237.9910 3.3533e+01     9.3929      2.085      3.023    15.4544 0.0000e+00
      2.091     -0.212     0.5342      5.574     48.959  40.606503     6.2503      8.084   237.6640 3.4558e+01     8.3074      2.047      2.968    15.6604 0.0000e+00
      2.053     -0.207     0.5389      5.591     48.714  40.551025     6.2770      8.089   237.1533 3.5916e+01     8.2751      2.021      2.931    15.8437 0.0000e+00
      2.005     -0.202     0.5402      5.612     48.342  40.397722     6.2340      8.094   236.2898 3.7873e+01     8.0113      1.971      2.859    16.0481 0.0000e+00
      1.947     -0.202     0.5442      5.660     47.919  40.276268     6.1462      8.099   235.3110 3.9893e+01     7.5098      1.907      2.767    16.2922 0.0000e+00
      1.892     -0.204     0.5453      5.749     47.678  40.352127     6.1143      8.104   234.4388 4.1783e+01     7.3010      1.854      2.689    16.4846 0.0000e+00
      1.840     -0.202     0.5444      5.914     47.525  40.426789     6.1474      8.112   233.5734 4.3801e+01     7.4330      1.809      2.623    16.6188 0.0000e+00
      1.785     -0.199     0.5440      6.220     47.307  40.354232     6.2304      8.123   232.7635 4.5931e+01     7.4327      1.750      2.538    16.7462 0.0000e+00
      1.731     -0.200     0.5462      6.709     46.899  40.109625     6.3445      8.133   232.1316 4.7647e+01     7.1611      1.690      2.451    16.9833 0.0000e+00
      1.690     -0.206     0.5488      7.288     46.297  39.754091     6.3867      8.142   231.5260 4.8909e+01     6.9159      1.653      2.398    17.3612 0.0000e+00
      1.652     -0.210     0.5604      7.810     45.696  39.482727     6.3906      8.150   230.8618 5.0790e+01     6.8932      1.627      2.361    17.5715 0.0000e+00
      1.597     -0.209     0.5854      8.273     45.006  39.177034     6.4081      8.159   230.2095 5.3862e+01     6.9545      1.575      2.285    17.6412 0.0000e+00
      1.522     -0.213     0.6345      8.895     44.077  38.660273     6.2818      8.170   229.5760 5.7100e+01     6.7689      1.489      2.159    17.7412 0.0000e+00
      1.455     -0.226     0.6951      9.996     43.253  38.248302     6.0040      8.180   228.8809 5.9206e+01     6.2892      1.414      2.049    17.8845 0.0000e+00
      1.413     -0.236     0.7400     11.771     42.780  38.130802     5.8381      8.191   228.1713 6.0630e+01     5.9365      1.384      2.007    18.1809 0.0000e+00
      1.374     -0.232     0.7713     14.400     42.375  38.001504     5.8492      8.202   227.7073 6.3363e+01     5.9200      1.362      1.976    18.5347 0.0000e+00
      1.308     -0.218     0.8101     18.208     42.112  37.954415     6.0881      8.213   227.5724 6.7998e+01     6.0902      1.294      1.877    18.8375 0.0000e+00
      1.222     -0.207     0.9007     23.259     41.987  38.005900     6.4795      8.224   227.4011 7.2223e+01     6.1836      1.189      1.723    19.2092 0.0000e+00
      1.156     -0.203     1.0550     29.091     41.552  37.735815     6.6609      8.235   226.9273 7.4207e+01     6.1275      1.118      1.621    19.6072 0.0000e+00
      1.124     -0.200     1.2734     34.971     41.011  37.354167     6.6840      8.247   226.4896 7.5285e+01     6.0609      1.100      1.596    19.8509 0.0000e+00
      1.100     -0.193     1.6081     40.147     40.631  37.135465     6.9750      8.259   226.2388 7.7462e+01     5.9929      1.088      1.578    20.0565 0.0000e+00
      1.060     -0.190     2.0780     44.259     40.201  36.868411     7.5070      8.272   225.8740 8.1602e+01     5.9200      1.050      1.523    20.2853 0.0000e+00
      1.000     -0.201     2.6200     47.593     39.780  36.600086     7.7810      8.287   225.4337 8.6623e+01     5.8295      0.981      1.422    20.4083 0.0000e+00
      0.936     -0.221     3.1724     50.754     39.532  36.492903     7.8082      8.302   224.9594 9.1079e+01     5.6836      0.911      1.322    20.5189 0.0000e+00
      0.881     -0.233     3.6381     54.047     39.382  36.460982     8.1183      8.315   224.4411 9.5559e+01     5.4195      0.866      1.256    20.7017 0.0000e+00
      0.824     -0.232     3.9834     57.467     39.237  36.404628     8.7095      8.328   223.9851 1.0100e+02     5.1299      0.815      1.183    20.8576 0.0000e+00
      0.755     -0.226     4.2450     61.119     39.009  36.255800     9.0473      8.341   223.4043 1.0653e+02     5.0854      0.739      1.073    20.9908 0.0000e+00
      0.689     -0.220     4.5006     64.900     38.726  36.057535     9.0647      8.355   222.8388 1.1082e+02     5.1212      0.666      0.966    21.1597 0.0000e+00
      0.641     -0.214     4.7908     68.507     38.489  35.911039     9.0111      8.367   222.5687 1.1477e+02     5.1517      0.626      0.908    21.3042 0.0000e+00
      0.598     -0.200     5.0722     71.801     38.301  35.817093     8.8901      8.379   222.4611 1.1960e+02     5.2498      0.593      0.860    21.3911 0.0000e+00
      0.544     -0.178     5.3926     74.747     38.132  35.746600     8.7246      8.391   222.3984 1.2450e+02     5.2830      0.536      0.776    21.4635 0.0000e+00
      0.488     -0.151     5.7326     77.377     37.913  35.629883     8.6588      8.403   222.3265 1.2823e+02     5.3487      0.473      0.685    21.5445 0.0000e+00
      0.444     -0.121     6.0397     79.826     37.728  35.548074     8.6523      8.413   222.2799 1.3098e+02     5.3603      0.429      0.622    21.6436 0.0000e+00
      0.417     -0.087     6.3187     82.249     37.729  35.645865     8.5542      8.421   222.1795 1.3222e+02     5.3892      0.405      0.587    21.7476 0.0000e+00
      0.406     -0.051     6.5625     84.761     37.882  35.860671     8.4214      8.430   221.8869 1.3125e+02     5.5954      0.395      0.572    21.8663 0.0000e+00
      0.405     -0.020     6.7718     87.368     38.141  36.114999     8.3873      8.439   221.6671 1.2970e+02     5.7359      0.394      0.571    21.9863 0.0000e+00
      0.410     -0.000     6.9662     89.752     38.397  36.309829     8.4169      8.447   221.6730 1.2931e+02     5.8241      0.402      0.581    22.0949 0.0000e+00
      0.418      0.008     7.1540     91.335     38.553  36.376214     8.4124      8.456   221.7864 1.3137e+02     5.8765      0.409      0.594    22.2466 0.0000e+00
      0.425      0.012     7.3526     91.622     38.675  36.409933     8.3834      8.464   222.0062 1.3668e+02     5.8913      0.417      0.605    22.3619 0.0000e+00
      0.428      0.015     7.5887     90.414     38.796  36.463592     8.3826      8.470   222.3513 1.4539e+02     6.0033      0.423      0.613    22.3658 0.0000e+00
      0.424      0.017     7.8272     87.816     38.898  36.517309     8.3771      8.474   222.6893 1.5408e+02     6.1703      0.415      0.602    22.2940 0.0000e+00
      0.421      0.016     8.0006     84.348     39.035  36.615203     7.9505      8.475   222.7369 1.5945e+02     6.7149      0.407      0.590    22.1704 0.0000e+00
      0.429      0.011     8.0481     80.730     39.212  36.758839     7.1112      8.475   222.5831 1.6160e+02     7.6019      0.416      0.603    22.0517 0.0000e+00
      0.444      0.001     7.9529     77.433     39.279  36.794571     6.6194      8.476   222.2060 1.6174e+02     8.0812      0.439      0.636    21.9818 0.0000e+00
      0.454     -0.018     7.7166     74.705     39.177  36.666494     6.5735      8.477   221.3613 1.6282e+02     8.2060      0.452      0.656    21.9308 0.0000e+00
      0.449     -0.051     7.3901     72.635     38.932  36.415814     6.6315      8.480   220.4569 1.6359e+02     8.4285      0.444      0.644    21.8890 0.0000e+00
      0.431     -0.100     7.0642     71.095     38.599  36.111301     6.7125      8.485   219.7890 1.6258e+02     8.7553      0.424      0.615    21.8713 0.0000e+00
      0.405     -0.152     6.7733     70.060     38.329  35.903421     6.7541      8.490   219.3092 1.6495e+02     8.9467      0.401      0.582    21.8383 0.0000e+00
      0.364     -0.192     6.5343     69.735     38.151  35.805940     6.7261      8.496   219.0437 1.7613e+02     8.8975      0.368      0.534    21.7858 0.0000e+00
      0.298     -0.210     6.3663     70.330     38.021  35.757613     6.5823      8.504   218.8161 1.9974e+02     8.1609      0.301      0.439    21.7506 0.0000e+00
      0.212     -0.206     6.2325     71.935     37.952  35.763344     6.3469      8.512   218.5360 2.2561e+02     6.7021      0.204      0.296    21.7530 0.0000e+00
      0.135     -0.181     6.1240     74.504     37.865  35.748435     6.2109      8.520   218.2381 2.4056e+02     5.8111      0.118      0.171    21.8190 0.0000e+00
      0.090     -0.143     6.0765     77.719     37.678  35.640886     6.1942      8.528   217.6227 2.5168e+02     5.6877      0.077      0.113    21.9242 0.0000e+00
      0.074     -0.108     6.1150     81.055     37.557  35.605158     6.1622      8.534   216.6877 2.6048e+02     5.6206      0.070      0.101    22.0202 0.0000e+00
      0.071     -0.094     6.2443     84.171     37.579  35.697264     5.9904      8.539   215.9682 2.6379e+02     5.7514      0.068      0.098    22.1122 0.0000e+00
      0.075     -0.112     6.4650     86.906     37.594  35.739458     5.6976      8.545   215.3753 2.6803e+02     6.0388      0.076      0.109    22.2028 0.0000e+00
      0.070     -0.154     6.7577     89.167     37.536  35.671227     5.5187      8.551   214.5962 2.8166e+02     6.0896      0.084      0.121    22.2818 0.0000e+00
      0.027     -0.211     7.0398     90.852     37.446  35.570200     5.4754      8.560   214.6360 3.1591e+02     6.0242      0.046      0.068    22.3946 0.0000e+00
     -0.058     -0.272     7.2973     91.722     37.391  35.533113     5.4153      8.569   215.9423 3.7541e+02     5.8288     -0.052     -0.074    22.5177 0.0000e+00
     -0.158     -0.322     7.5331     91.682     37.345  35.540077     5.3335      8.575   214.9897 4.3862e+02     5.4350     -0.162     -0.234    22.5517 0.0000e+00
     -0.250     -0.342     7.7334     90.967     37.260  35.527574     5.2853      8.578   210.8612 4.7068e+02     5.1233     -0.245     -0.356    22.5095 0.0000e+00
     -0.343     -0.323     7.8972     89.877     37.174  35.508949     5.1575      8.582   208.0988 4.6591e+02     4.8952     -0.326     -0.474    22.4715 0.0000e+00
     -0.448     -0.276     7.9743     88.572     37.062  35.441868     3.9965      8.587   207.5730 4.4244e+02     4.2821     -0.445     -0.645    22.4909 0.0000e+00
     -0.533     -0.216     7.9478     87.029     36.427  34.843457     1.9262      8.590   207.7739 4.1637e+02     3.2789     -0.546     -0.792    22.5709 0.0000e+00
     -0.573     -0.156     7.8608     85.204     29.830  28.527422     0.8082      8.594   208.4629 3.9265e+02     2.7052     -0.572     -0.830    22.6726 0.0000e+00
     -0.582     -0.096     7.7478     83.275     17.019  16.269987     0.6749      8.598   209.0197 3.6505e+02     2.5379     -0.572     -0.828    22.7660 0.0000e+00
     -0.583     -0.046     7.6280     81.672      8.571   8.189199     0.4725      8.601   209.1727 3.2831e+02     2.0419     -0.572     -0.831    22.8257 0.0000e+00
     -0.583     -0.015     7.4996     80.893      6.893   6.583108     0.1747      8.603   209.0212 2.9012e+02     1.3537     -0.571     -0.829    22.8298 0.0000e+00
     -0.583     -0.002     7.3394     81.060      7.121   6.798640     0.0374      8.606   208.8235 2.5821e+02     1.0146     -0.572     -0.829    22.8050 0.0000e+00
     -0.583 -1.463e-09     7.1642     81.779      7.262   6.930413     0.0201      8.608   208.8465 2.3361e+02     0.8796     -0.572     -0.829    22.7814 0.0000e+00
     -0.583 -1.610e-08     7.0095     82.629      6.843   6.529188     0.0076      8.610   208.9548 2.2313e+02     0.6436     -0.571     -0.829    22.7633 0.0000e+00
     -0.583 -1.770e-07     6.9373     83.426      6.492   6.192310     0.0273      8.612   209.0148 2.2430e+02     0.4151     -0.571     -0.829    22.7477 0.0000e+00
     -0.583 -1.770e-07     6.9737     84.124      6.120   5.834889     0.0336      8.614   209.3999 2.2729e+02     0.2346     -0.572     -0.829    22.7310 0.0000e+00
     -0.583 -1.610e-08     7.0505     84.639      5.042   4.804946     0.0175      8.616   209.8264 2.2952e+02     0.0670     -0.571     -0.829    22.7147 0.0000e+00
     -0.583 -1.463e-09     7.1309     84.907      4.868   4.636151     0.0070      8.620   209.6108 2.2988e+02    -0.0056     -0.572     -0.829    22.6994 0.0000e+00
     -0.583 -1.330e-10     7.2012     84.982      9.781   9.306015     0.0064      8.622   209.2028 2.2722e+02     0.0405     -0.571     -0.828    22.6832 0.0000e+00
     -0.583 -1.209e-11     7.2667     84.946     17.244  16.396929     0.0279      8.625   209.0223 2.1696e+02     0.1465     -0.572     -0.829    22.6658 0.0000e+00
     -0.583 -1.099e-12     7.3182     84.848     20.419  19.390980     0.0331      8.628   208.9770 2.0119e+02     0.1482     -0.571     -0.828    22.6461 0.0000e+00
     -0.583 -9.995e-14     7.3402     84.583     24.762  23.456803     0.0032      8.632   209.0857 1.9340e+02     0.0268     -0.572     -0.829    22.6246 0.0000e+00
     -0.583 -9.085e-15     7.3500     84.040     32.853  31.054441    -0.0009      8.635   209.2180 1.9511e+02     0.0454     -0.571     -0.829    22.5926 0.0000e+00
     -0.583 -8.260e-16     7.3478     83.392     37.040  34.957249     0.0331      8.637   209.2859 1.9775e+02     0.1337     -0.571     -0.829    22.5542 0.0000e+00
     -0.583 -7.523e-17     7.3514     82.923     37.466  35.318295     0.0556      8.640   209.3047 1.9854e+02     0.1038     -0.572     -0.829    22.4993 0.0000e+00
     -0.583 -8.261e-18     7.3515     82.675     37.534  35.356318     0.0388      8.642   209.1867 1.9788e+02     0.0600     -0.572     -0.830    22.3922 0.0000e+00
     -0.583 -1.642e-17     7.3137     82.520     37.552  35.353495     0.0217      8.643   209.0635 1.9647e+02     0.0827     -0.572     -0.829    22.2665 0.0000e+00
     -0.583 -1.739e-16     7.2581     82.460     37.562  35.347585     0.0401      8.643   209.4495 1.9483e+02     0.2069     -0.572     -0.829    22.1713 0.0000e+00
     -0.583 -1.912e-15     7.2243     82.747     37.577  35.348284     0.0455      8.645   209.8105 1.9331e+02     0.2637     -0.572     -0.829    22.1199 0.0000e+00
     -0.583 -2.103e-14     7.2135     83.661     37.610  35.361937     0.0365      8.648   209.2981 1.9185e+02     0.1890     -0.571     -0.829    22.0929 0.0000e+00
     -0.583 -2.313e-13     7.2044     85.064     37.657  35.385742     0.0388      8.652   208.5896 1.8646e+02     0.1226     -0.572     -0.829    22.0654 0.0000e+00
     -0.583 -2.545e-12     7.1933     86.498     37.671  35.382279     0.0395      8.655   208.5568 1.8204e+02     0.1108     -0.571     -0.829    22.0460 0.0000e+00
     -0.583 -2.799e-11     7.2063     87.716     37.486  35.193148     0.0538      8.658   209.0735 1.9034e+02     0.1829     -0.572     -0.829    22.0320 0.0000e+00
     -0.583 -3.079e-10     7.2938     88.704     35.272  33.098952     0.0544      8.660   209.3305 2.0488e+02     0.1746     -0.571     -0.829    22.0086 0.0000e+00
     -0.583 -3.387e-09     7.4429     89.459     28.379  26.618528     0.0223      8.661   209.3410 2.1465e+02     0.0781     -0.572     -0.829    21.9767 0.0000e+00
     -0.583 -3.726e-08     7.5768     89.952     19.919  18.675589     0.0153      8.663   208.9432 2.1800e+02     0.1095     -0.572     -0.829    21.9543 0.0000e+00
     -0.582 -4.098e-07     7.6838     90.169     15.392  14.423239     0.0435      8.665   207.7033 2.1415e+02     0.2131     -0.571     -0.828    21.9387 0.0000e+00
     -0.582     -0.000     7.7749     90.131     15.224  14.257582     0.0553      8.668   206.6536 2.1153e+02     0.2375     -0.571     -0.828    21.9116 0.0000e+00
     -0.583     -0.000     7.8463     89.918     16.729  15.657819     0.0252      8.670   206.2316 2.1967e+02     0.1993     -0.572     -0.829    21.8868 0.0000e+00
     -0.583     -0.001     7.8927     89.659     16.779  15.697555    -0.0208      8.671   205.7845 2.6014e+02     0.6735     -0.572     -0.829    21.8681 0.0000e+00
     -0.583     -0.001     7.9147     89.450     14.339  13.407645    -0.0193      8.673   205.2053 3.4164e+02     1.7346     -0.571     -0.829    21.8474 0.0000e+00
     -0.583     -0.001     7.9133     89.340     10.458   9.773171     0.0191      8.674   205.3368 4.1753e+02     2.3038     -0.572     -0.829    21.8207 0.0000e+00
     -0.584     -0.001     7.8930     89.330      7.346   6.861711     0.0193      8.675   205.6538 4.6481e+02     2.2948     -0.572     -0.830    21.7948 0.0000e+00
     -0.584     -0.001     7.8715     89.401      6.179   5.769962     0.0078      8.676   205.0813 4.9619e+02     2.9580     -0.573     -0.830    21.7728 0.0000e+00
     -0.584     -0.001     7.8559     89.533      6.102   5.696618     0.0300      8.678   204.6095 5.1841e+02     4.3437     -0.572     -0.830    21.7402 0.0000e+00
     -0.584      0.000     7.8518     89.685      6.266   5.848203     0.0296      8.679   204.5960 5.3837e+02     5.0439     -0.572     -0.830    21.7101 0.0000e+00
     -0.584      0.000     7.8540     89.759      6.314   5.892179     0.0117      8.679   204.5735 5.5139e+02     5.0368     -0.573     -0.830    21.6919 0.0000e+00
     -0.584 -9.990e-29     7.8633 -9.990e-29 -9.990e-29 -9.990e-29 -9.990e-29 -9.990e-29 -9.990e-29 5.6432e+02 -9.990e-29     -0.573     -0.830    21.6777 0.0000e+00
     -0.584 -9.990e-29     7.8770 -9.990e-29 -9.990e-29 -9.990e-29 -9.990e-29 -9.990e-29 -9.990e-29 5.8426e+02 -9.990e-29     -0.573     -0.830    21.6681 0.0000e+00
     -0.584 -9.990e-29     7.8951 -9.990e-29 -9.990e-29 -9.990e-29 -9.990e-29 -9.990e-29 -9.990e-29 5.9446e+02 -9.990e-29     -0.572     -0.830    21.6570 0.0000e+00
     -0.584 -9.990e-29     7.9077 -9.990e-29 -9.990e-29 -9.990e-29 -9.990e-29 -9.990e-29 -9.990e-29 5.9443e+02 -9.990e-29     -0.572     -0.830    21.6489 0.0000e+00
