* Sea-Bird SBE19plus  Data File:
* FileName = C:\R\Reservoirs\Data\DataNotYetUploadedToEDI\Raw_CTD\RawDownloads\081324_fcr50_S7809_0003.hex
* Software version 2.8.0.119
* Temperature SN = 7809
* Conductivity SN = 7809
* System UpLoad Time = Aug 13 2024 13:55:11
* <ApplicationData>
* <Seaterm232>
* <SoftwareVersion>2.8.0.119</SoftwareVersion>
* <BuildDate>07-Nov-2018</BuildDate>
* </Seaterm232>
* </ApplicationData>
* <InstrumentState>
* <HardwareData DeviceType='SBE19plus' SerialNumber='01907809'>
*
*    <Manufacturer>Sea-Bird Electronics, Inc.</Manufacturer>
*
*    <FirmwareVersion>3.1.8</FirmwareVersion>
*
*    <FirmwareDate>Mar  9 2016 16:22:29</FirmwareDate>
*
*    <CommandSetVersion>1.4</CommandSetVersion>
*
*    <PCBAssembly PCBSerialNum='120721' AssemblyNum='41054J'/>
*
*    <PCBAssembly PCBSerialNum='120715' AssemblyNum='41967A'/>
*
*    <PCBAssembly PCBSerialNum='116699' AssemblyNum='41606'/>
*
*    <PCBAssembly PCBSerialNum='120719' AssemblyNum='41059D'/>
*
*    <MfgDate>28-Apr-2017</MfgDate>
*
*    <InternalSensors>
*
*       <Sensor id='Main Temperature'>
*
*          <type>temperature0</type>
*
*          <SerialNumber>01907809</SerialNumber>
*
*       </Sensor>
*
*       <Sensor id='Main Conductivity'>
*
*          <type>conductivity-0</type>
*
*          <SerialNumber>01907809</SerialNumber>
*
*       </Sensor>
*
*       <Sensor id='Main Pressure'>
*
*          <type>strain-0</type>
*
*          <SerialNumber>10586018</SerialNumber>
*
*       </Sensor>
*
*    </InternalSensors>
*
*    <ExternalSensors>
*
*       <Sensor id='volt 0'>
*
*          <type>pH</type>
*
*          <SerialNumber>27-0363</SerialNumber>
*
*       </Sensor>
*
*       <Sensor id='volt 1'>
*
*          <type>ORP</type>
*
*          <SerialNumber>27-0363</SerialNumber>
*
*       </Sensor>
*
*       <Sensor id='volt 2'>
*
*          <type>OXY</type>
*
*          <SerialNumber>43-0434</SerialNumber>
*
*       </Sensor>
*
*       <Sensor id='volt 3'>
*
*          <type>PAR</type>
*
*          <SerialNumber>1122</SerialNumber>
*
*       </Sensor>
*
*       <Sensor id='volt 4'>
*
*          <type>ECO AFL/FL</type>
*
*          <SerialNumber>FLNTURT-2496</SerialNumber>
*
*       </Sensor>
*
*       <Sensor id='volt 5'>
*
*          <type>ECO-NTU</type>
*
*          <SerialNumber>FLNTURT-2496</SerialNumber>
*
*       </Sensor>
*
*       <Sensor id='serial'>
*
*          <type>not assigned</type>
*
*          <SerialNumber>not assigned</SerialNumber>
*
*       </Sensor>
*
*    </ExternalSensors>
*
* </HardwareData>
* <StatusData DeviceType='SBE19plus' SerialNumber='01907809'>
*
*    <DateTime>2024-08-13T13:53:31</DateTime>
*
*    <LoggingState>not logging</LoggingState>
*
*    <EventSummary numEvents='0'/>
*
*    <Power>
*
*       <vMain>12.5</vMain>
*
*       <vLith>8.3</vLith>
*
*       <iMain>63.0</iMain>
*
*       <iPump>102.4</iPump>
*
*       <iExt01>20.8</iExt01>
*
*       <iExt2345>38.8</iExt2345>
*
*    </Power>
*
*    <MemorySummary>
*
*       <Bytes>139610</Bytes>
*
*       <Samples>6070</Samples>
*
*       <SamplesFree>2854718</SamplesFree>
*
*       <SampleLength>23</SampleLength>
*
*       <Profiles>6</Profiles>
*
*    </MemorySummary>
*
* </StatusData>
* <ConfigurationData DeviceType='SBE19plus' SerialNumber='01907809'>
*
*    <ProfileMode>
*
*       <ScansToAverage>1</ScansToAverage>
*
*       <MinimumCondFreq>0</MinimumCondFreq>
*
*       <PumpDelay>45</PumpDelay>
*
*       <AutoRun>no</AutoRun>
*
*       <IgnoreSwitch>no</IgnoreSwitch>
*
*    </ProfileMode>
*
*    <Battery>
*
*       <Type>alkaline</Type>
*
*       <CutOff>7.5</CutOff>
*
*    </Battery>
*
*    <DataChannels>
*
*       <ExtVolt0>yes</ExtVolt0>
*
*       <ExtVolt1>yes</ExtVolt1>
*
*       <ExtVolt2>yes</ExtVolt2>
*
*       <ExtVolt3>yes</ExtVolt3>
*
*       <ExtVolt4>yes</ExtVolt4>
*
*       <ExtVolt5>yes</ExtVolt5>
*
*       <SBE38>no</SBE38>
*
*       <WETLABS>no</WETLABS>
*
*       <OPTODE>no</OPTODE>
*
*       <SBE63>no</SBE63>
*
*       <SeaFET>no</SeaFET>
*
*       <GTD>no</GTD>
*
*    </DataChannels>
*
*    <EchoCharacters>yes</EchoCharacters>
*
*    <OutputExecutedTag>yes</OutputExecutedTag>
*
*    <OutputFormat>raw HEX</OutputFormat>
*
* </ConfigurationData>
* <CalibrationCoefficients DeviceType='SBE19plus' SerialNumber='01907809'>
*
*    <Calibration format='TEMP1' id='Main Temperature'>
*
*       <SerialNum>01907809</SerialNum>
*
*       <CalDate>31-Jan-23</CalDate>
*
*       <TA0>1.218232e-03</TA0>
*
*       <TA1>2.815090e-04</TA1>
*
*       <TA2>-1.578887e-06</TA2>
*
*       <TA3>1.972343e-07</TA3>
*
*       <TOFFSET>0.000000e+00</TOFFSET>
*
*    </Calibration>
*
*    <Calibration format='WBCOND0' id='Main Conductivity'>
*
*       <SerialNum>01907809</SerialNum>
*
*       <CalDate>31-Jan-23</CalDate>
*
*       <G>-1.005652e+00</G>
*
*       <H>1.267963e-01</H>
*
*       <I>-1.561708e-04</I>
*
*       <J>2.645944e-05</J>
*
*       <CPCOR>-9.570000e-08</CPCOR>
*
*       <CTCOR>3.250000e-06</CTCOR>
*
*       <CSLOPE>1.000000e+00</CSLOPE>
*
*    </Calibration>
*
*    <Calibration format='STRAIN0' id='Main Pressure'>
*
*       <SerialNum>10586018</SerialNum>
*
*       <CalDate>20-Jan-23</CalDate>
*
*       <PA0>4.416439e-02</PA0>
*
*       <PA1>4.850502e-04</PA1>
*
*       <PA2>-3.090426e-12</PA2>
*
*       <PTCA0>5.254757e+05</PTCA0>
*
*       <PTCA1>1.050255e+01</PTCA1>
*
*       <PTCA2>-2.922435e-01</PTCA2>
*
*       <PTCB0>2.516687e+01</PTCB0>
*
*       <PTCB1>3.750000e-04</PTCB1>
*
*       <PTCB2>0.000000e+00</PTCB2>
*
*       <PTEMPA0>-5.470820e+01</PTEMPA0>
*
*       <PTEMPA1>5.485421e+01</PTEMPA1>
*
*       <PTEMPA2>-3.446578e-01</PTEMPA2>
*
*       <POFFSET>8.500000e-01</POFFSET>
*
*       <PRANGE>1.600000e+02</PRANGE>
*
*    </Calibration>
*
*    <Calibration format='VOLT0' id='Volt 0'>
*
*       <OFFSET>-4.920000e-02</OFFSET>
*
*       <SLOPE>1.248122e+00</SLOPE>
*
*    </Calibration>
*
*    <Calibration format='VOLT0' id='Volt 1'>
*
*       <OFFSET>-4.784000e-02</OFFSET>
*
*       <SLOPE>1.248871e+00</SLOPE>
*
*    </Calibration>
*
*    <Calibration format='VOLT0' id='Volt 2'>
*
*       <OFFSET>-4.864632e-02</OFFSET>
*
*       <SLOPE>1.248714e+00</SLOPE>
*
*    </Calibration>
*
*    <Calibration format='VOLT0' id='Volt 3'>
*
*       <OFFSET>-4.743790e-02</OFFSET>
*
*       <SLOPE>1.248571e+00</SLOPE>
*
*    </Calibration>
*
*    <Calibration format='VOLT0' id='Volt 4'>
*
*       <OFFSET>-4.671263e-02</OFFSET>
*
*       <SLOPE>1.248951e+00</SLOPE>
*
*    </Calibration>
*
*    <Calibration format='VOLT0' id='Volt 5'>
*
*       <OFFSET>-4.871053e-02</OFFSET>
*
*       <SLOPE>1.249136e+00</SLOPE>
*
*    </Calibration>
*
*    <Calibration format='FREQ0' id='external frequency channel'>
*
*       <EXTFREQSF>1.000014e+00</EXTFREQSF>
*
*    </Calibration>
*
* </CalibrationCoefficients>
* <EventCounters DeviceType='SBE19plus' SerialNumber='01907809'>
*
*    <EventSummary numEvents='0'/>
*
* </EventCounters></InstrumentState>
* <Headers>
*
* cast   3 12 Aug 2024 10:45:22 samples 1737 to 2563, avg = 1, stop = mag switch
*
# nquan = 15
# nvalues = 641                         
# units = specified
# name 0 = depFM: Depth [fresh water, m]
# name 1 = dz/dtM: Descent Rate [m/s]
# name 2 = sbeox0Mg/L: Oxygen, SBE 43 [mg/l]
# name 3 = sbeox0PS: Oxygen, SBE 43 [% saturation]
# name 4 = specc: Specific Conductance [uS/cm]
# name 5 = c0uS/cm: Conductivity [uS/cm]
# name 6 = flECO-AFL: Fluorescence, WET Labs ECO-AFL/FL [mg/m^3]
# name 7 = ph: pH
# name 8 = orp: Oxidation Reduction Potential [mV]
# name 9 = par/sat/log: PAR/Logarithmic, Satlantic
# name 10 = turbWETntu0: Turbidity, WET Labs ECO [NTU]
# name 11 = prdM: Pressure, Strain Gauge [db]
# name 12 = prdE: Pressure, Strain Gauge [psi]
# name 13 = tv290C: Temperature [ITS-90, deg C]
# name 14 = flag:  0.000e+00
# span 0 =     -0.481,      2.096       
# span 1 =     -0.041,      0.184       
# span 2 =     1.7510,     7.9652       
# span 3 =     20.943,     96.606       
# span 4 =     41.310,     46.412       
# span 5 =  41.235655,  45.516252       
# span 6 =     2.0249,    15.3427       
# span 7 =      5.791,      7.331       
# span 8 =   116.6833,   253.0545       
# span 9 = 2.1249e+01, 1.0651e+03       
# span 10 =     7.6978,   170.8184      
# span 11 =     -0.482,      2.056      
# span 12 =     -0.698,      2.982      
# span 13 =    24.0229,    25.3833      
# span 14 = 0.0000e+00, 0.0000e+00      
# interval = seconds: 0.25
# start_time = Aug 12 2024 10:45:22 [Instrument's time stamp, header]
# bad_flag = -9.990e-29
# <Sensors count="9" >
#   <sensor Channel="1" >
#     <!-- Count, Temperature -->
#     <TemperatureSensor SensorID="58" >
#       <SerialNumber>7809</SerialNumber>
#       <CalibrationDate>31-Jan-23</CalibrationDate>
#       <A0>1.21823180e-003</A0>
#       <A1>2.81508993e-004</A1>
#       <A2>-1.57888696e-006</A2>
#       <A3>1.97234302e-007</A3>
#       <Slope>1.00000000</Slope>
#       <Offset>0.0000</Offset>
#     </TemperatureSensor>
#   </sensor>
#   <sensor Channel="2" >
#     <!-- Frequency 0, Conductivity -->
#     <ConductivitySensor SensorID="3" >
#       <SerialNumber>7809</SerialNumber>
#       <CalibrationDate>31-Jan-23</CalibrationDate>
#       <UseG_J>1</UseG_J>
#       <!-- Cell const and series R are applicable only for wide range sensors. -->
#       <SeriesR>0.0000</SeriesR>
#       <CellConst>2000.0000</CellConst>
#       <ConductivityType>0</ConductivityType>
#       <Coefficients equation="0" >
#         <A>0.00000000e+000</A>
#         <B>0.00000000e+000</B>
#         <C>0.00000000e+000</C>
#         <D>0.00000000e+000</D>
#         <M>0.0</M>
#         <CPcor>-9.57000000e-008</CPcor>
#       </Coefficients>
#       <Coefficients equation="1" >
#         <G>-1.00565232e+000</G>
#         <H>1.26796307e-001</H>
#         <I>-1.56170788e-004</I>
#         <J>2.64594368e-005</J>
#         <CPcor>-9.57000000e-008</CPcor>
#         <CTcor>3.2500e-006</CTcor>
#         <!-- WBOTC not applicable unless ConductivityType = 1. -->
#         <WBOTC>0.00000000e+000</WBOTC>
#       </Coefficients>
#       <Slope>1.00000000</Slope>
#       <Offset>0.00000</Offset>
#     </ConductivitySensor>
#   </sensor>
#   <sensor Channel="3" >
#     <!-- Count, Pressure, Strain Gauge -->
#     <PressureSensor SensorID="46" >
#       <SerialNumber>7809</SerialNumber>
#       <CalibrationDate>20-Jan-23</CalibrationDate>
#       <PA0>4.41643944e-002</PA0>
#       <PA1>4.85050239e-004</PA1>
#       <PA2>-3.09042623e-012</PA2>
#       <PTEMPA0>-5.47081996e+001</PTEMPA0>
#       <PTEMPA1>5.48542136e+001</PTEMPA1>
#       <PTEMPA2>-3.44657813e-001</PTEMPA2>
#       <PTCA0>5.25475731e+005</PTCA0>
#       <PTCA1>1.05025484e+001</PTCA1>
#       <PTCA2>-2.92243463e-001</PTCA2>
#       <PTCB0>2.51668750e+001</PTCB0>
#       <PTCB1>3.75000000e-004</PTCB1>
#       <PTCB2>0.00000000e+000</PTCB2>
#       <Offset>0.000000</Offset>
#     </PressureSensor>
#   </sensor>
#   <sensor Channel="4" >
#     <!-- A/D voltage 0, Oxygen, SBE 43 -->
#     <OxygenSensor SensorID="38" >
#       <SerialNumber>0434</SerialNumber>
#       <CalibrationDate>18-Feb-23</CalibrationDate>
#       <Use2007Equation>1</Use2007Equation>
#       <CalibrationCoefficients equation="0" >
#         <!-- Coefficients for Owens-Millard equation. -->
#         <Boc>0.0000</Boc>
#         <Soc>0.0000e+000</Soc>
#         <offset>0.0000</offset>
#         <Pcor>0.00e+000</Pcor>
#         <Tcor>0.0000</Tcor>
#         <Tau>0.0</Tau>
#       </CalibrationCoefficients>
#       <CalibrationCoefficients equation="1" >
#         <!-- Coefficients for Sea-Bird equation - SBE calibration in 2007 and later. -->
#         <Soc>5.1878e-001</Soc>
#         <offset>-0.5046</offset>
#         <A>-4.2788e-003</A>
#         <B> 1.5372e-004</B>
#         <C>-2.1853e-006</C>
#         <D0> 2.5826e+000</D0>
#         <D1> 1.92634e-004</D1>
#         <D2>-4.64803e-002</D2>
#         <E> 3.6000e-002</E>
#         <Tau20> 0.9900</Tau20>
#         <H1>-3.3000e-002</H1>
#         <H2> 5.0000e+003</H2>
#         <H3> 1.4500e+003</H3>
#       </CalibrationCoefficients>
#     </OxygenSensor>
#   </sensor>
#   <sensor Channel="5" >
#     <!-- A/D voltage 1, PAR/Logarithmic, Satlantic -->
#     <PARLog_SatlanticSensor SensorID="76" >
#       <SerialNumber>1122</SerialNumber>
#       <CalibrationDate>08-Sep-2021</CalibrationDate>
#       <a0>9.6751e-001</a0>
#       <a1>8.0992e-001</a1>
#       <Im>1.3589e+000</Im>
#       <Multiplier>1.0000e+000</Multiplier>
#     </PARLog_SatlanticSensor>
#   </sensor>
#   <sensor Channel="6" >
#     <!-- A/D voltage 2, pH -->
#     <pH_Sensor SensorID="43" >
#       <SerialNumber>0363</SerialNumber>
#       <CalibrationDate>28-Feb-23</CalibrationDate>
#       <Slope>4.7364</Slope>
#       <Offset>2.5433</Offset>
#     </pH_Sensor>
#   </sensor>
#   <sensor Channel="7" >
#     <!-- A/D voltage 3, Oxidation Reduction Potential -->
#     <OxidationReductionPotentialSensor SensorID="41" >
#       <SerialNumber>0363</SerialNumber>
#       <CalibrationDate>28-Feb-23</CalibrationDate>
#       <B>2.499480</B>
#       <M>-0.496195</M>
#       <Offset>0.0</Offset>
#     </OxidationReductionPotentialSensor>
#   </sensor>
#   <sensor Channel="8" >
#     <!-- A/D voltage 4, Fluorometer, WET Labs ECO-AFL/FL -->
#     <FluoroWetlabECO_AFL_FL_Sensor SensorID="20" >
#       <SerialNumber>FLNTURT-2496</SerialNumber>
#       <CalibrationDate>02-Sep-2021</CalibrationDate>
#       <ScaleFactor>4.80000000e+001</ScaleFactor>
#       <!-- Dark output -->
#       <Vblank>0.0550</Vblank>
#     </FluoroWetlabECO_AFL_FL_Sensor>
#   </sensor>
#   <sensor Channel="9" >
#     <!-- A/D voltage 5, Turbidity Meter, WET Labs, ECO-NTU -->
#     <TurbidityMeter SensorID="67" >
#       <SerialNumber>FLNTURT--2496</SerialNumber>
#       <CalibrationDate>02-Sep-2021</CalibrationDate>
#       <ScaleFactor>197.000000</ScaleFactor>
#       <!-- Dark output -->
#       <DarkVoltage>0.070000</DarkVoltage>
#     </TurbidityMeter>
#   </sensor>
# </Sensors>
# datcnv_date = Aug 13 2024 14:15:51, 7.26.7.129 [datcnv_vars = 14]
# datcnv_in = C:\R\Reservoirs\Data\DataNotYetUploadedToEDI\Raw_CTD\RawDownloads\081224_fcr40_S7809003.hex C:\R\Reservoirs\Data\DataNotYetUploadedToEDI\Raw_CTD\RawDownloads\SBE19plusV2_7809_start20230701.xmlcon
# datcnv_skipover = 0
# datcnv_ox_hysteresis_correction = yes
# datcnv_ox_tau_correction = yes
# filter_date = Aug 13 2024 14:17:34, 7.26.7.129
# filter_in = C:\R\Reservoirs\Data\DataNotYetUploadedToEDI\Raw_CTD\RawDownloads\081224_fcr40_S7809003.cnv
# filter_low_pass_tc_A = 0.030
# filter_low_pass_tc_B = 0.150
# filter_low_pass_A_vars = sbeox0Mg/L prdM prdE tv290C
# filter_low_pass_B_vars = depFM dz/dtM sbeox0PS specc c0uS/cm flECO-AFL ph orp par/sat/log turbWETntu0
# alignctd_date = Aug 13 2024 14:18:06, 7.26.7.129
# alignctd_in = C:\R\Reservoirs\Data\DataNotYetUploadedToEDI\Raw_CTD\RawDownloads\081224_fcr40_S7809003.cnv
# alignctd_adv = dz/dtM 1.000, sbeox0PS 1.000, specc 1.000, c0uS/cm 1.000, flECO-AFL 1.000, ph 1.000, orp 1.000, turbWETntu0 1.000                                                                                                   
# file_type = ascii
*END*
     -0.481      0.086     7.6284     92.613     41.752  41.932967     4.1924      5.791   116.6833 1.0382e+03     7.9131     -0.482     -0.698    24.5855 0.0000e+00
     -0.451      0.118     7.5952     93.174     41.688  41.932687     4.2304      5.977   122.2713 1.0480e+03     7.8753     -0.447     -0.650    24.8068 0.0000e+00
     -0.407      0.148     7.5765     93.594     41.619  41.902812     4.2532      6.073   124.8877 1.0576e+03     7.7973     -0.397     -0.576    24.9933 0.0000e+00
     -0.361      0.173     7.5875     93.952     41.519  41.825682     4.4935      6.129   128.0122 1.0651e+03     7.8587     -0.354     -0.513    25.1075 0.0000e+00
     -0.313      0.184     7.6167     94.345     41.444  41.761757     4.9548      6.166   131.7432 1.0639e+03     8.0362     -0.310     -0.451    25.2247 0.0000e+00
     -0.260      0.183     7.6648     94.744     41.443  41.764599     5.2117      6.191   135.3244 1.0421e+03     8.1335     -0.256     -0.372    25.2970 0.0000e+00
     -0.205      0.172     7.6851     95.118     41.477  41.796576     5.2440      6.207   138.7890 1.0082e+03     8.1128     -0.197     -0.286    25.3419 0.0000e+00
     -0.157      0.155     7.7071     95.423     41.516  41.831044     5.3119      6.218   141.9713 9.8048e+02     8.0255     -0.148     -0.215    25.3677 0.0000e+00
     -0.122      0.132     7.7418     95.658     41.557  41.864005     5.4332      6.227   144.3758 9.5227e+02     8.0000     -0.118     -0.170    25.3809 0.0000e+00
     -0.094      0.106     7.7722     95.878     41.585  41.877749     5.5044      6.234   146.0936 8.4228e+02     8.1117     -0.091     -0.132    25.3833 0.0000e+00
     -0.071      0.081     7.8070     96.149     41.596  41.870262     5.5068      6.241   147.8568 6.8315e+02     8.2147     -0.067     -0.097    25.3800 0.0000e+00
     -0.055      0.061     7.8319     96.446     41.588  41.836920     5.4702      6.246   150.1209 6.3540e+02     8.1178     -0.051     -0.075    25.3738 0.0000e+00
     -0.044      0.049     7.8508     96.606     41.580  41.791916     5.4033      6.249   152.5618 6.5889e+02     7.8971     -0.041     -0.060    25.3665 0.0000e+00
     -0.038      0.043     7.8693     96.585     41.602  41.770341     5.3633      6.249   154.9132 6.6181e+02     7.8350     -0.035     -0.051    25.3475 0.0000e+00
     -0.033      0.039     7.8932     96.525     41.636  41.766399     5.3697      6.244   157.1277 6.4587e+02     7.9135     -0.034     -0.049    25.3261 0.0000e+00
     -0.024      0.035     7.9302     96.530     41.640  41.744196     5.4059      6.236   158.9456 6.0710e+02     7.9925     -0.028     -0.041    25.2991 0.0000e+00
     -0.008      0.030     7.9518     96.523     41.604  41.692254     5.4434      6.232   160.2869 5.5916e+02     8.0385     -0.008     -0.011    25.2511 0.0000e+00
      0.007      0.023     7.9519     96.419     41.570  41.646097     5.4404      6.235   161.3858 5.3454e+02     8.0253      0.010      0.015    25.1934 0.0000e+00
      0.013      0.013     7.9501     96.269     41.568  41.630364     5.4269      6.238   162.6824 5.4546e+02     8.0381      0.016      0.023    25.1440 0.0000e+00
      0.012      0.004     7.9588     96.123     41.581  41.628935     5.4140      6.239   164.4350 5.7295e+02     8.0910      0.014      0.020    25.1144 0.0000e+00
      0.004     -0.002     7.9652     96.015     41.591  41.628805     5.3761      6.239   166.1423 5.9332e+02     8.1180      0.004      0.006    25.0990 0.0000e+00
     -0.003     -0.004     7.9539     96.002     41.596  41.628776     5.3429      6.239   167.4939 5.9439e+02     8.0905     -0.006     -0.008    25.0854 0.0000e+00
     -0.005     -0.003     7.9433     95.886     41.598  41.628578     5.3206      6.238   169.1622 5.8112e+02     8.0323     -0.008     -0.011    25.0702 0.0000e+00
     -0.001      0.000     7.9339     95.011     41.599  41.626409     5.2983      6.228   171.3425 5.5902e+02     7.9948     -0.001     -0.001    25.0508 0.0000e+00
      0.005      0.004     7.9238     92.902     41.579  41.602549     5.2890      6.210   173.0342 5.4981e+02     7.9447      0.006      0.010    25.0365 0.0000e+00
      0.006      0.006     7.9237     89.821     41.574  41.593948     5.2834      6.195   174.2157 5.6265e+02     7.9038      0.007      0.011    25.0329 0.0000e+00
      0.005      0.007     7.9405     86.438     41.629  41.649336     5.2714      6.184   175.3031 5.7716e+02     7.8770      0.005      0.006    25.0311 0.0000e+00
      0.004      0.008     7.8894     83.376     41.669  41.701046     5.2613      6.176   175.9428 5.8736e+02     7.8252      0.003      0.004    25.0275 0.0000e+00
      0.005      0.010     7.7012     80.918     41.662  41.711449     5.2606      6.175   176.4434 5.9076e+02     7.8926      0.005      0.007    25.0241 0.0000e+00
      0.009      0.012     7.4277     79.078     41.651  41.711670     5.2717      6.180   176.9686 5.7673e+02     8.0776      0.008      0.011    25.0164 0.0000e+00
      0.015      0.013     7.1271     77.832     41.642  41.703745     5.2797      6.190   177.3030 5.3495e+02     8.1823      0.014      0.020    25.0127 0.0000e+00
      0.022      0.012     6.8654     77.074     41.623  41.679087     5.2822      6.205   177.7327 4.7871e+02     8.1686      0.024      0.034    25.0289 0.0000e+00
      0.025      0.011     6.6616     76.597     41.619  41.667396     5.2927      6.219   178.3787 4.4452e+02     8.0483      0.027      0.040    25.0567 0.0000e+00
      0.025      0.008     6.5068     76.162     41.647  41.689321     5.3152      6.232   179.0905 4.3773e+02     7.9233      0.024      0.035    25.0730 0.0000e+00
      0.025      0.003     6.4072     75.544     41.652  41.690295     5.3387      6.243   179.7136 4.3474e+02     7.9209      0.023      0.034    25.0710 0.0000e+00
      0.026     -0.003     6.3526     74.617     41.645  41.679161     5.3434      6.250   180.2337 4.3679e+02     7.9512      0.025      0.036    25.0615 0.0000e+00
      0.028     -0.010     6.3215     73.527     41.652  41.681632     5.3140      6.254   181.0773 4.4887e+02     7.9488      0.028      0.040    25.0516 0.0000e+00
      0.028     -0.016     6.2923     72.532     41.631  41.656699     5.2658      6.255   182.2573 4.6729e+02     7.9599      0.030      0.043    25.0448 0.0000e+00
      0.022     -0.020     6.2490     71.782     41.606  41.631559     5.2525      6.258   183.0573 5.2381e+02     8.0178      0.024      0.036    25.0408 0.0000e+00
      0.010     -0.023     6.1662     71.262     41.605  41.631544     5.2700      6.263   183.4373 5.9184e+02     8.1015      0.009      0.014    25.0352 0.0000e+00
     -0.001     -0.023     6.0674     70.848     41.627  41.656510     5.2512      6.272   183.9254 6.1034e+02     8.0840     -0.003     -0.005    25.0284 0.0000e+00
     -0.008     -0.020     5.9824     70.532     41.647  41.679561     5.1920      6.282   184.5709 6.0927e+02     7.9424     -0.009     -0.013    25.0238 0.0000e+00
     -0.011     -0.012     5.9196     70.434     41.621  41.656385     5.1452      6.289   185.3922 6.1537e+02     7.8236     -0.011     -0.016    25.0234 0.0000e+00
     -0.011     -0.003     5.8835     70.619     41.591  41.630157     5.1348      6.292   186.4559 6.1884e+02     7.8093     -0.011     -0.016    25.0265 0.0000e+00
     -0.011      0.003     5.8487     71.003     41.573  41.616319     5.1911      6.290   187.2791 6.3184e+02     7.9413     -0.011     -0.016    25.0293 0.0000e+00
     -0.010      0.005     5.8169     71.393     41.570  41.616015     5.2936      6.287   187.6885 6.4759e+02     8.1211     -0.011     -0.016    25.0317 0.0000e+00
     -0.005      0.004     5.8063     71.629     41.577  41.626486     5.3335      6.288   188.0504 6.3331e+02     8.1383     -0.005     -0.007    25.0356 0.0000e+00
     -0.001      0.002     5.8233     71.701     41.562  41.615992     5.3159      6.293   188.4705 6.1085e+02     8.0474      0.002      0.003    25.0413 0.0000e+00
     -0.001     -0.000     5.8616     71.714     41.559  41.616077     5.3141      6.298   189.1554 6.0748e+02     8.0121      0.001      0.002    25.0467 0.0000e+00
     -0.005     -0.001     5.8985     71.733     41.568  41.627520     5.3779      6.301   189.9636 6.1258e+02     8.0188     -0.006     -0.008    25.0498 0.0000e+00
     -0.009     -0.001     5.9181     71.728     41.567  41.627415     5.4964      6.301   190.4988 6.2961e+02     7.9923     -0.009     -0.014    25.0534 0.0000e+00
     -0.010      0.002     5.9187     71.674     41.554  41.614809     5.5565      6.302   190.9809 6.3808e+02     7.8962     -0.010     -0.015    25.0584 0.0000e+00
     -0.009      0.007     5.9169     71.628     41.543  41.602040     5.5467      6.303   191.4046 6.3016e+02     7.7796     -0.010     -0.014    25.0634 0.0000e+00
     -0.005      0.012     5.9201     71.701     41.543  41.599951     5.5194      6.308   191.6639 6.1411e+02     7.7781     -0.006     -0.008    25.0671 0.0000e+00
     -0.000      0.015     5.9208     71.918     41.537  41.589546     5.4845      6.316   191.8786 5.7771e+02     7.8426     -0.001     -0.001    25.0680 0.0000e+00
      0.007      0.016     5.9148     72.184     41.555  41.603175     5.4658      6.323   192.1940 5.4413e+02     7.8771      0.007      0.010    25.0674 0.0000e+00
      0.013      0.019     5.9064     72.440     41.595  41.637793     5.4593      6.324   193.0681 5.3544e+02     7.8878      0.014      0.022    25.0664 0.0000e+00
      0.014      0.025     5.9116     72.706     41.590  41.627294     5.4235      6.315   194.3593 5.4352e+02     7.8697      0.015      0.022    25.0633 0.0000e+00
      0.014      0.033     5.9346     72.925     41.571  41.603157     5.3742      6.301   195.1583 5.4404e+02     7.9313      0.013      0.019    25.0580 0.0000e+00
      0.019      0.040     5.9597     72.973     41.573  41.599820     5.3540      6.292   195.4143 5.1343e+02     8.0526      0.016      0.023    25.0519 0.0000e+00
      0.034      0.040     5.9783     72.757     41.565  41.586927     5.3376      6.289   195.8209 4.5731e+02     8.0717      0.030      0.043    25.0465 0.0000e+00
      0.056      0.031     6.0034     72.273     41.554  41.574207     5.3167      6.288   196.4609 4.1764e+02     7.9582      0.055      0.079    25.0394 0.0000e+00
      0.077      0.016     6.0268     71.693     41.553  41.572948     5.3102      6.287   197.0434 4.1641e+02     7.8069      0.082      0.118    25.0331 0.0000e+00
      0.084     -0.003     6.0337     71.326     41.551  41.571708     5.3254      6.287   197.4439 4.3309e+02     7.7793      0.091      0.132    25.0271 0.0000e+00
      0.072     -0.021     6.0184     71.344     41.538  41.559213     5.3425      6.290   197.7756 4.4169e+02     7.8631      0.076      0.110    25.0179 0.0000e+00
      0.049     -0.035     5.9735     71.556     41.529  41.548818     5.3169      6.297   198.1290 4.4220e+02     7.8981      0.046      0.067    25.0172 0.0000e+00
      0.029     -0.041     5.9143     71.645     41.554  41.572947     5.2650      6.306   198.5330 4.7840e+02     7.8616      0.023      0.034    25.0196 0.0000e+00
      0.020     -0.036     5.8761     71.502     41.578  41.597085     5.2396      6.317   198.9607 5.3930e+02     7.8314      0.017      0.025    25.0186 0.0000e+00
      0.017     -0.025     5.8857     71.214     41.566  41.586803     5.2516      6.328   199.2560 5.8079e+02     7.8747      0.017      0.025    25.0206 0.0000e+00
      0.014     -0.014     5.9159     70.895     41.553  41.575567     5.2683      6.339   199.4366 6.0221e+02     7.9062      0.013      0.018    25.0194 0.0000e+00
      0.012     -0.007     5.9255     70.512     41.563  41.588164     5.2920      6.351   199.5094 6.0919e+02     7.8368      0.010      0.014    25.0153 0.0000e+00
      0.013     -0.002     5.9101     69.910     41.586  41.612189     5.3386      6.360   199.7065 6.0221e+02     7.7535      0.012      0.018    25.0158 0.0000e+00
      0.013      0.002     5.8814     69.119     41.586  41.612181     5.3656      6.365   200.1841 5.9183e+02     7.7187      0.013      0.019    25.0189 0.0000e+00
      0.012      0.006     5.8548     68.372     41.564  41.588063     5.3682      6.369   200.7241 5.8847e+02     7.7572      0.012      0.017    25.0218 0.0000e+00
      0.012      0.008     5.8314     67.821     41.554  41.574445     5.3951      6.373   201.1605 5.7723e+02     7.8428      0.011      0.016    25.0240 0.0000e+00
      0.015      0.007     5.7811     67.453     41.560  41.574455     5.4326      6.379   201.3297 5.2939e+02     7.8667      0.014      0.020    25.0244 0.0000e+00
      0.021      0.004     5.7051     67.168     41.580  41.588180     5.4386      6.385   201.3942 4.7160e+02     7.8069      0.022      0.032    25.0247 0.0000e+00
      0.026      0.001     5.6397     66.888     41.608  41.613443     5.4342      6.394   201.5956 4.7048e+02     7.7679      0.028      0.041    25.0252 0.0000e+00
      0.024     -0.002     5.5953     66.622     41.622  41.626041     5.4470      6.405   201.7861 5.4345e+02     7.8051      0.025      0.036    25.0200 0.0000e+00
      0.019     -0.003     5.5699     66.380     41.611  41.613556     5.4605      6.416   201.8042 6.1370e+02     7.8817      0.017      0.025    25.0095 0.0000e+00
      0.014     -0.003     5.5501     66.104     41.589  41.589428     5.4474      6.426   201.9007 6.0490e+02     7.9085      0.012      0.018    25.0027 0.0000e+00
      0.013     -0.001     5.5258     65.739     41.589  41.588180     5.4209      6.432   202.4364 5.7395e+02     7.8556      0.012      0.017    24.9999 0.0000e+00
      0.014      0.000     5.5029     65.286     41.600  41.598462     5.4149      6.434   203.1195 5.6207e+02     7.8229      0.013      0.019    24.9984 0.0000e+00
      0.018     -0.003     5.4856     64.755     41.588  41.586808     5.4258      6.434   203.5352 5.4057e+02     7.8544      0.016      0.023    24.9973 0.0000e+00
      0.023     -0.009     5.4653     64.202     41.576  41.574210     5.4354      6.433   203.9345 5.0414e+02     7.8949      0.023      0.033    24.9950 0.0000e+00
      0.023     -0.014     5.4341     63.759     41.577  41.573065     5.4312      6.432   204.4200 5.1885e+02     7.8687      0.027      0.039    24.9923 0.0000e+00
      0.015     -0.016     5.3978     63.587     41.582  41.572960     5.4081      6.432   204.7589 5.9760e+02     7.8116      0.018      0.026    24.9910 0.0000e+00
     -0.000     -0.015     5.3516     63.683     41.587  41.572942     5.3815      6.434   205.0203 6.4090e+02     7.8194     -0.003     -0.004    24.9939 0.0000e+00
     -0.010     -0.012     5.3026     63.813     41.587  41.572836     5.3757      6.439   205.2577 6.3676e+02     7.8604     -0.015     -0.022    24.9937 0.0000e+00
     -0.010     -0.007     5.2600     63.778     41.579  41.571680     5.3872      6.445   205.4792 6.3132e+02     7.8963     -0.011     -0.016    24.9891 0.0000e+00
     -0.003      0.001     5.2445     63.529     41.560  41.558976     5.3876      6.451   205.8044 6.2069e+02     7.8777     -0.002     -0.002    24.9830 0.0000e+00
      0.002      0.008     5.2643     63.095     41.545  41.546177     5.3722      6.457   206.0922 6.0043e+02     7.7724      0.003      0.005    24.9737 0.0000e+00
      0.003      0.011     5.2805     62.548     41.542  41.543870     5.3595      6.464   206.2921 5.9454e+02     7.7166      0.002      0.003    24.9737 0.0000e+00
      0.003      0.011     5.2772     61.942     41.529  41.531083     5.3665      6.471   206.5003 5.9453e+02     7.7836      0.001      0.003    24.9852 0.0000e+00
      0.006      0.011     5.2550     61.300     41.518  41.518494     5.3911      6.480   206.6309 5.8517e+02     7.8648      0.006      0.009    24.9942 0.0000e+00
      0.010      0.011     5.2165     60.676     41.521  41.518596     5.4067      6.491   206.6668 5.8041e+02     7.9124      0.011      0.016    24.9953 0.0000e+00
      0.014      0.011     5.1693     60.144     41.538  41.532319     5.4140      6.501   206.6756 5.8114e+02     7.9498      0.014      0.020    24.9963 0.0000e+00
      0.016      0.011     5.1193     59.715     41.567  41.557479     5.4215      6.510   206.9104 5.7337e+02     7.9753      0.016      0.023    24.9974 0.0000e+00
      0.018      0.008     5.0649     59.355     41.580  41.568923     5.4295      6.516   207.2680 5.5869e+02     8.0155      0.017      0.025    24.9948 0.0000e+00
      0.021      0.002     5.0104     59.020     41.555  41.543745     5.4451      6.520   207.4719 5.4149e+02     8.0263      0.020      0.030    24.9910 0.0000e+00
      0.025     -0.004     4.9672     58.720     41.519  41.506934     5.4440      6.523   207.7410 5.1125e+02     7.9350      0.025      0.036    24.9865 0.0000e+00
      0.025     -0.007     4.9332     58.578     41.521  41.504637     5.4249      6.523   208.1989 4.9503e+02     7.8350      0.028      0.040    24.9823 0.0000e+00
      0.018     -0.007     4.9050     58.716     41.539  41.515968     5.4223      6.520   208.7064 5.2391e+02     7.8079      0.020      0.030    24.9795 0.0000e+00
      0.008     -0.003     4.8784     59.067     41.546  41.516998     5.4444      6.516   208.8863 5.7196e+02     7.8804      0.004      0.007    24.9807 0.0000e+00
      0.003      0.003     4.8490     59.417     41.547  41.517083     5.4756      6.516   208.8244 5.9493e+02     8.0278     -0.001     -0.002    24.9804 0.0000e+00
      0.008      0.013     4.8321     59.592     41.542  41.516986     5.4925      6.520   208.9050 5.5898e+02     8.0867      0.005      0.007    24.9753 0.0000e+00
      0.018      0.023     4.8465     59.553     41.535  41.515841     5.4904      6.526   209.0862 4.8845e+02     8.0466      0.017      0.025    24.9678 0.0000e+00
      0.028      0.032     4.8848     59.357     41.516  41.503242     5.5005      6.531   209.3810 4.5289e+02     8.0208      0.028      0.041    24.9567 0.0000e+00
      0.037      0.037     4.9192     59.090     41.501  41.491588     5.5313      6.537   209.6307 4.6480e+02     8.0480      0.035      0.051    24.9553 0.0000e+00
      0.047      0.037     4.9336     58.799     41.508  41.501879     5.5539      6.544   209.6960 4.8668e+02     8.1022      0.045      0.066    24.9631 0.0000e+00
      0.057      0.035     4.9275     58.477     41.507  41.500734     5.5580      6.554   209.8272 5.0109e+02     8.0953      0.055      0.080    24.9713 0.0000e+00
      0.067      0.033     4.9078     58.145     41.487  41.477749     5.5471      6.561   210.0980 5.1040e+02     8.0330      0.067      0.096    24.9796 0.0000e+00
      0.075      0.033     4.8835     57.853     41.491  41.477834     5.5387      6.565   210.3035 5.1031e+02     7.9979      0.075      0.109    24.9837 0.0000e+00
      0.080      0.032     4.8603     57.617     41.518  41.501754     5.5492      6.569   210.4181 4.9736e+02     8.0128      0.078      0.114    24.9868 0.0000e+00
      0.087      0.030     4.8333     57.407     41.532  41.513085     5.5653      6.572   210.6240 4.9050e+02     8.0771      0.084      0.121    24.9876 0.0000e+00
      0.096      0.027     4.8036     57.168     41.511  41.487898     5.5665      6.577   210.8994 4.9294e+02     8.0912      0.095      0.136    24.9834 0.0000e+00
      0.106      0.025     4.7801     56.878     41.479  41.451087     5.5478      6.582   211.0810 4.7694e+02     7.9790      0.106      0.154    24.9775 0.0000e+00
      0.113      0.022     4.7615     56.655     41.480  41.448789     5.5299      6.587   211.1841 4.5534e+02     7.8466      0.112      0.162    24.9730 0.0000e+00
      0.116      0.020     4.7463     56.633     41.495  41.460109     5.5415      6.593   211.2865 4.4798e+02     7.8231      0.115      0.165    24.9711 0.0000e+00
      0.118      0.018     4.7289     56.752     41.500  41.461025     5.5720      6.599   211.4589 4.4286e+02     7.9000      0.116      0.168    24.9675 0.0000e+00
      0.121      0.016     4.7014     56.854     41.501  41.459862     5.5909      6.604   211.6339 4.3983e+02     7.8885      0.119      0.173    24.9606 0.0000e+00
      0.126      0.015     4.6764     56.844     41.487  41.446032     5.5954      6.610   211.6809 4.3646e+02     7.7870      0.123      0.178    24.9548 0.0000e+00
      0.132      0.013     4.6786     56.721     41.460  41.420751     5.5934      6.617   211.7691 4.2706e+02     7.7646      0.129      0.187    24.9515 0.0000e+00
      0.138      0.013     4.6946     56.570     41.446  41.408068     5.5995      6.625   212.0120 4.1473e+02     7.8235      0.137      0.199    24.9470 0.0000e+00
      0.140      0.014     4.7060     56.490     41.456  41.419615     5.6188      6.631   212.2950 3.9961e+02     7.8835      0.139      0.201    24.9422 0.0000e+00
      0.139      0.015     4.7054     56.496     41.466  41.433432     5.6187      6.637   212.5235 3.8597e+02     7.8759      0.135      0.195    24.9443 0.0000e+00
      0.141      0.015     4.6918     56.530     41.477  41.448193     5.5980      6.643   212.7101 3.7735e+02     7.8340      0.136      0.197    24.9481 0.0000e+00
      0.147      0.016     4.6754     56.516     41.497  41.471168     5.5852      6.650   212.8303 3.7032e+02     7.7863      0.144      0.208    24.9474 0.0000e+00
      0.155      0.017     4.6685     56.415     41.482  41.457350     5.5891      6.657   212.9448 3.6514e+02     7.7779      0.152      0.221    24.9495 0.0000e+00
      0.161      0.019     4.6706     56.254     41.436  41.408055     5.6120      6.662   213.3194 3.6418e+02     7.8351      0.159      0.231    24.9550 0.0000e+00
      0.164      0.019     4.6754     56.085     41.414  41.382879     5.6210      6.667   213.8320 3.6243e+02     7.8287      0.162      0.235    24.9598 0.0000e+00
      0.166      0.019     4.6758     55.947     41.439  41.406807     5.6065      6.672   214.1520 3.5269e+02     7.7681      0.162      0.235    24.9642 0.0000e+00
      0.169      0.019     4.6655     55.809     41.476  41.443504     5.6114      6.677   214.3498 3.4276e+02     7.8196      0.165      0.239    24.9659 0.0000e+00
      0.176      0.019     4.6516     55.606     41.480  41.445782     5.6464      6.682   214.5888 3.4826e+02     8.0074      0.172      0.250    24.9608 0.0000e+00
      0.183      0.019     4.6359     55.336     41.470  41.434346     5.6798      6.684   214.8043 3.6508e+02     8.1599      0.180      0.262    24.9549 0.0000e+00
      0.188      0.017     4.6258     55.024     41.469  41.432161     5.6822      6.686   214.9766 3.7522e+02     8.1612      0.185      0.268    24.9542 0.0000e+00
      0.192      0.013     4.6176     54.678     41.459  41.419365     5.6595      6.690   215.2095 3.7602e+02     8.0577      0.189      0.274    24.9543 0.0000e+00
      0.196      0.007     4.6003     54.312     41.449  41.406550     5.6047      6.693   216.2442 3.7561e+02     7.9330      0.193      0.280    24.9529 0.0000e+00
      0.197      0.002     4.5767     53.970     41.449  41.404157     5.5349      6.695   217.3342 3.7519e+02     7.8494      0.195      0.282    24.9512 0.0000e+00
      0.196     -0.002     4.5515     53.690     41.438  41.390422     5.5064      6.696   217.1163 3.7333e+02     7.8324      0.193      0.280    24.9499 0.0000e+00
      0.194     -0.003     4.5227     53.480     41.417  41.367409     5.4935      6.693   216.9655 3.7002e+02     7.8294      0.190      0.276    24.9479 0.0000e+00
      0.190     -0.002     4.4910     53.373     41.431  41.379768     5.4623      6.688   217.4049 3.7251e+02     7.8130      0.187      0.270    24.9440 0.0000e+00
      0.187      0.001     4.4620     53.398     41.465  41.412927     5.4377      6.681   217.7820 3.8038e+02     7.8052      0.181      0.263    24.9391 0.0000e+00
      0.188      0.005     4.4393     53.459     41.436  41.387531     5.4372      6.675   218.1693 3.7586e+02     7.8034      0.182      0.265    24.9352 0.0000e+00
      0.193      0.009     4.4217     53.481     41.371  41.326572     5.4558      6.670   218.4742 3.5591e+02     7.8589      0.191      0.276    24.9332 0.0000e+00
      0.198      0.013     4.4096     53.519     41.351  41.310549     5.4883      6.670   218.7160 3.3373e+02     7.8957      0.195      0.284    24.9320 0.0000e+00
      0.201      0.014     4.4164     53.586     41.359  41.320735     5.5223      6.673   218.9420 3.2010e+02     7.8388      0.197      0.286    24.9305 0.0000e+00
      0.203      0.014     4.4255     53.669     41.359  41.322805     5.5420      6.676   219.1415 3.0918e+02     7.7868      0.198      0.287    24.9342 0.0000e+00
      0.208      0.011     4.4214     53.759     41.370  41.335582     5.5601      6.678   219.4074 2.9040e+02     7.7789      0.204      0.296    24.9418 0.0000e+00
      0.214      0.009     4.4255     53.821     41.383  41.348293     5.5498      6.679   219.7476 2.7380e+02     7.8804      0.211      0.305    24.9449 0.0000e+00
      0.216      0.007     4.4315     53.849     41.386  41.349552     5.4847      6.679   220.1573 2.7069e+02     8.0231      0.213      0.308    24.9480 0.0000e+00
      0.215      0.006     4.4372     53.852     41.390  41.350801     5.4305      6.679   220.5756 2.8483e+02     8.0353      0.212      0.308    24.9516 0.0000e+00
      0.214      0.004     4.4470     53.814     41.405  41.363390     5.4266      6.679   220.7615 3.0903e+02     7.9937      0.210      0.305    24.9531 0.0000e+00
      0.214      0.002     4.4514     53.724     41.418  41.374827     5.4710      6.682   220.7698 3.2539e+02     7.9641      0.209      0.303    24.9530 0.0000e+00
      0.216      0.002     4.4536     53.575     41.406  41.362144     5.5344      6.686   220.7623 3.2991e+02     7.9157      0.212      0.307    24.9505 0.0000e+00
      0.219      0.003     4.4550     53.382     41.383  41.336976     5.5517      6.690   220.8426 3.2750e+02     7.8532      0.215      0.311    24.9462 0.0000e+00
      0.220      0.005     4.4524     53.220     41.373  41.324396     5.5391      6.692   221.0523 3.2161e+02     7.7883      0.216      0.314    24.9423 0.0000e+00
      0.219      0.009     4.4450     53.179     41.389  41.336966     5.5397      6.694   221.2324 3.1607e+02     7.7800      0.215      0.311    24.9406 0.0000e+00
      0.218      0.013     4.4332     53.260     41.418  41.362019     5.5431      6.697   221.2999 3.0763e+02     7.8896      0.212      0.307    24.9412 0.0000e+00
      0.221      0.016     4.4146     53.371     41.432  41.373444     5.5383      6.702   221.3525 2.9302e+02     8.0555      0.215      0.312    24.9402 0.0000e+00
      0.229      0.018     4.3980     53.433     41.406  41.348161     5.5232      6.709   221.4383 2.7801e+02     8.1122      0.224      0.325    24.9355 0.0000e+00
      0.238      0.019     4.3948     53.434     41.366  41.310197     5.5015      6.717   221.4760 2.6760e+02     8.0623      0.234      0.339    24.9317 0.0000e+00
      0.244      0.018     4.4058     53.389     41.352  41.295217     5.5349      6.724   221.5510 2.6526e+02     8.0671      0.241      0.349    24.9260 0.0000e+00
      0.248      0.016     4.4181     53.328     41.354  41.293969     5.6273      6.731   221.6562 2.7333e+02     8.1366      0.245      0.354    24.9207 0.0000e+00
      0.249      0.012     4.4225     53.282     41.358  41.295104     5.6862      6.738   221.7158 2.8603e+02     8.1843      0.245      0.355    24.9238 0.0000e+00
      0.250      0.010     4.4221     53.235     41.373  41.308938     5.6883      6.743   221.8416 2.9528e+02     8.1660      0.245      0.355    24.9281 0.0000e+00
      0.252      0.010     4.4176     53.155     41.399  41.334303     5.6787      6.748   221.9725 3.0059e+02     8.1195      0.247      0.359    24.9261 0.0000e+00
      0.256      0.011     4.4114     53.046     41.413  41.347923     5.7027      6.753   222.0075 3.0378e+02     8.1015      0.251      0.364    24.9213 0.0000e+00
      0.259      0.011     4.4085     52.914     41.411  41.346673     5.7377      6.759   222.0078 3.0092e+02     8.0845      0.254      0.369    24.9183 0.0000e+00
      0.263      0.010     4.4066     52.738     41.384  41.319198     5.7438      6.766   222.0617 2.9190e+02     8.0855      0.258      0.374    24.9166 0.0000e+00
      0.267      0.008     4.3994     52.541     41.335  41.269590     5.7441      6.773   222.1432 2.8134e+02     8.0792      0.263      0.380    24.9152 0.0000e+00
      0.268      0.006     4.3896     52.384     41.323  41.254598     5.7570      6.778   222.2189 2.6985e+02     8.0417      0.265      0.384    24.9148 0.0000e+00
      0.268      0.004     4.3804     52.279     41.336  41.264855     5.7751      6.783   222.2884 2.5757e+02     8.0423      0.264      0.382    24.9158 0.0000e+00
      0.268      0.003     4.3651     52.221     41.340  41.266678     5.7881      6.788   222.3816 2.4900e+02     8.0859      0.261      0.379    24.9169 0.0000e+00
      0.268      0.001     4.3459     52.212     41.350  41.276637     5.7723      6.793   222.5713 2.4955e+02     8.0576      0.261      0.379    24.9147 0.0000e+00
      0.269      0.001     4.3333     52.207     41.332  41.258324     5.7175      6.797   222.7749 2.5665e+02     7.9048      0.264      0.383    24.9105 0.0000e+00
      0.271      0.002     4.3261     52.187     41.310  41.235655     5.6742      6.802   222.9512 2.6568e+02     7.7753      0.266      0.386    24.9079 0.0000e+00
      0.271      0.004     4.3192     52.451     41.397  41.319883     5.6739      6.805   223.2396 2.7752e+02     7.7558      0.266      0.385    24.9057 0.0000e+00
      0.271      0.007     4.3219     54.218     41.535  41.451653     5.6965      6.806   223.5091 2.8893e+02     7.8059      0.264      0.383    24.9043 0.0000e+00
      0.271      0.012     4.3219     58.988     41.590  41.496068     5.7237      6.807   223.8004 2.9353e+02     7.8681      0.265      0.384    24.9058 0.0000e+00
      0.273      0.019     4.3186     66.451     41.582  41.476093     5.7278      6.807   224.5248 2.8879e+02     7.8586      0.267      0.387    24.9059 0.0000e+00
      0.279      0.027     4.3075     74.605     41.581  41.463977     5.7129      6.804   225.3847 2.8073e+02     7.7945      0.271      0.395    24.9025 0.0000e+00
      0.288      0.035     4.3822     81.794     41.603  41.476496     5.7189      6.801   225.9373 2.7528e+02     7.8102      0.281      0.409    24.8959 0.0000e+00
      0.299      0.041     4.7911     87.417     41.634  41.500514     5.7165      6.799   226.3882 2.6786e+02     7.9465      0.291      0.422    24.8827 0.0000e+00
      0.312      0.043     5.4915     91.327     41.639  41.500496     5.6753      6.799   226.7927 2.5380e+02     8.0756      0.306      0.443    24.8663 0.0000e+00
      0.327      0.043     6.2171     93.396     41.618  41.476264     5.6376      6.800   227.0415 2.3669e+02     8.0727      0.323      0.467    24.8519 0.0000e+00
      0.339      0.039     6.8254     93.687     41.605  41.461387     5.6184      6.802   227.3319 2.2161e+02     8.0145      0.333      0.484    24.8400 0.0000e+00
      0.349      0.033     7.2917     92.573     41.592  41.447550     5.6430      6.805   227.6366 2.0789e+02     7.9860      0.342      0.497    24.8322 0.0000e+00
      0.355      0.026     7.6251     90.759     41.580  41.435896     5.7099      6.808   227.8011 1.9469e+02     7.9338      0.349      0.507    24.8270 0.0000e+00
      0.360      0.020     7.7941     88.995     41.592  41.447425     5.7449      6.812   228.0297 1.8329e+02     7.8615      0.354      0.513    24.8221 0.0000e+00
      0.364      0.017     7.8093     87.590     41.606  41.460013     5.7329      6.814   228.5072 1.7478e+02     7.7941      0.357      0.519    24.8204 0.0000e+00
      0.366      0.018     7.6954     86.536     41.609  41.461157     5.6899      6.815   229.1005 1.6910e+02     7.8024      0.359      0.522    24.8215 0.0000e+00
      0.367      0.022     7.5162     85.799     41.609  41.461251     5.6414      6.815   229.5252 1.6459e+02     7.9623      0.360      0.521    24.8215 0.0000e+00
      0.370      0.027     7.3652     85.313     41.609  41.461147     5.6294      6.816   229.7705 1.6026e+02     8.1221      0.361      0.524    24.8200 0.0000e+00
      0.380      0.030     7.2516     84.994     41.608  41.459900     5.6363      6.818   230.0011 1.5682e+02     8.1627      0.371      0.538    24.8179 0.0000e+00
      0.394      0.032     7.1640     84.795     41.594  41.446167     5.6408      6.823   230.2480 1.5488e+02     8.1121      0.387      0.561    24.8164 0.0000e+00
      0.406      0.033     7.1055     84.655     41.571  41.422038     5.6506      6.825   230.6911 1.5340e+02     8.0229      0.400      0.581    24.8156 0.0000e+00
      0.413      0.035     7.0684     84.520     41.573  41.422029     5.6635      6.823   231.6588 1.5129e+02     8.0068      0.407      0.590    24.8161 0.0000e+00
      0.418      0.040     7.0421     84.387     41.599  41.446053     5.6801      6.813   233.0011 1.4838e+02     8.0876      0.410      0.595    24.8169 0.0000e+00
      0.422      0.049     7.0278     84.300     41.614  41.458642     5.7431      6.800   233.9280 1.4491e+02     8.1461      0.412      0.598    24.8163 0.0000e+00
      0.431      0.060     7.0185     84.255     41.605  41.447303     5.8515      6.793   234.0899 1.4100e+02     8.0979      0.419      0.609    24.8148 0.0000e+00
      0.448      0.068     7.0078     84.211     41.597  41.435877     5.9086      6.793   233.9265 1.3663e+02     8.0171      0.437      0.633    24.8122 0.0000e+00
      0.476      0.069     6.9946     84.142     41.612  41.447427     5.9094      6.796   233.7594 1.3079e+02     8.0234      0.464      0.672    24.8102 0.0000e+00
      0.508      0.062     6.9878     84.047     41.626  41.460017     5.9022      6.801   233.7039 1.2450e+02     8.0718      0.501      0.729    24.8084 0.0000e+00
      0.530      0.047     6.9869     83.987     41.626  41.461161     5.8965      6.805   233.8578 1.2017e+02     8.0220      0.527      0.765    24.8047 0.0000e+00
      0.537      0.030     6.9835     84.010     41.625  41.461265     5.8993      6.807   234.2440 1.1721e+02     7.8990      0.529      0.767    24.7996 0.0000e+00
      0.532      0.015     6.9801     84.084     41.623  41.461275     5.8944      6.808   234.6735 1.1564e+02     7.8143      0.523      0.760    24.7953 0.0000e+00
      0.524      0.005     6.9690     84.153     41.623  41.461276     5.8955      6.809   234.8354 1.1662e+02     7.8193      0.513      0.744    24.7939 0.0000e+00
      0.519     -0.001     6.9620     84.204     41.623  41.461275     5.9030      6.812   234.7389 1.1874e+02     7.9245      0.505      0.732    24.7950 0.0000e+00
      0.524     -0.003     6.9653     84.259     41.622  41.461274     5.9022      6.818   234.5380 1.1860e+02     8.0612      0.511      0.742    24.7975 0.0000e+00
      0.532     -0.002     6.9733     84.306     41.621  41.461265     5.9037      6.824   234.4718 1.1764e+02     8.1059      0.524      0.762    24.7994 0.0000e+00
      0.534      0.002     6.9794     84.321     41.619  41.461160     5.8873      6.828   234.7137 1.2024e+02     8.0550      0.527      0.766    24.7995 0.0000e+00
      0.527      0.007     6.9820     84.303     41.617  41.460005     5.8456      6.831   234.9665 1.2478e+02     8.0262      0.517      0.749    24.7999 0.0000e+00
      0.520      0.011     6.9873     84.260     41.605  41.447303     5.8066      6.832   235.1193 1.2719e+02     8.0317      0.505      0.732    24.8006 0.0000e+00
      0.522      0.014     6.9920     84.195     41.595  41.434516     5.7914      6.835   235.2713 1.2624e+02     8.0522      0.508      0.736    24.8020 0.0000e+00
      0.533      0.019     6.9927     84.145     41.594  41.432322     5.7785      6.838   235.3411 1.2356e+02     8.0699      0.523      0.758    24.8052 0.0000e+00
      0.546      0.023     6.9903     84.147     41.583  41.420783     5.7750      6.841   235.3602 1.2079e+02     8.0063      0.538      0.779    24.8068 0.0000e+00
      0.555      0.025     6.9879     84.190     41.583  41.421926     5.8147      6.845   235.3305 1.1794e+02     7.9325      0.547      0.792    24.8042 0.0000e+00
      0.557      0.024     6.9814     84.257     41.607  41.446147     5.8508      6.847   235.3270 1.1497e+02     7.8941      0.548      0.794    24.8008 0.0000e+00
      0.558      0.021     6.9756     84.330     41.622  41.459777     5.8625      6.852   235.4890 1.1202e+02     7.8498      0.546      0.793    24.7988 0.0000e+00
      0.562      0.019     6.9772     84.375     41.622  41.459778     5.9319      6.858   235.6558 1.0966e+02     7.8760      0.550      0.798    24.7990 0.0000e+00
      0.569      0.020     6.9808     84.367     41.610  41.446168     6.0565      6.863   235.7089 1.0852e+02     8.0058      0.558      0.810    24.8006 0.0000e+00
      0.576      0.023     6.9865     84.336     41.587  41.422146     6.1300      6.867   235.7868 1.0878e+02     8.1203      0.566      0.821    24.8008 0.0000e+00
      0.581      0.025     6.9939     84.293     41.590  41.423186     6.1452      6.871   235.9085 1.1013e+02     8.0985      0.570      0.827    24.7994 0.0000e+00
      0.587      0.026     6.9994     84.198     41.626  41.458749     6.1403      6.874   236.0623 1.1194e+02     8.0162      0.575      0.834    24.7981 0.0000e+00
      0.594      0.026     6.9972     84.057     41.640  41.471328     6.1212      6.878   236.1837 1.1343e+02     7.9796      0.583      0.845    24.7969 0.0000e+00
      0.602      0.026     6.9936     83.918     41.617  41.448353     6.1138      6.883   236.1722 1.1428e+02     7.9630      0.591      0.857    24.7950 0.0000e+00
      0.611      0.026     6.9932     83.802     41.605  41.434819     6.1268      6.886   236.2671 1.1445e+02     8.0210      0.600      0.870    24.7932 0.0000e+00
      0.617      0.026     6.9852     83.740     41.606  41.434621     6.1362      6.887   236.4712 1.1383e+02     8.1336      0.606      0.879    24.7925 0.0000e+00
      0.622      0.025     6.9705     83.757     41.618  41.445952     6.0941      6.888   236.5749 1.1235e+02     8.1301      0.609      0.884    24.7918 0.0000e+00
      0.628      0.024     6.9601     83.815     41.617  41.444894     6.0083      6.889   236.6608 1.1020e+02     8.0457      0.615      0.891    24.7908 0.0000e+00
      0.635      0.021     6.9492     83.870     41.594  41.421825     5.9561      6.891   236.8210 1.0798e+02     8.0020      0.622      0.903    24.7896 0.0000e+00
      0.643      0.019     6.9425     83.903     41.594  41.420889     5.9544      6.895   236.9639 1.0608e+02     8.0112      0.631      0.916    24.7880 0.0000e+00
      0.648      0.017     6.9464     83.920     41.606  41.433581     6.0209      6.899   237.0109 1.0492e+02     7.9866      0.637      0.923    24.7868 0.0000e+00
      0.650      0.017     6.9522     83.937     41.621  41.448354     6.1276      6.901   237.1314 1.0462e+02     7.9094      0.637      0.924    24.7865 0.0000e+00
      0.651      0.017     6.9576     83.957     41.646  41.472577     6.1706      6.901   237.3882 1.0489e+02     7.8636      0.637      0.924    24.7867 0.0000e+00
      0.654      0.018     6.9599     83.992     41.647  41.472585     6.1674      6.902   237.6203 1.0547e+02     7.8428      0.639      0.927    24.7863 0.0000e+00
      0.659      0.021     6.9607     84.048     41.623  41.448449     6.2050      6.904   237.7014 1.0632e+02     7.8969      0.646      0.937    24.7863 0.0000e+00
      0.667      0.024     6.9622     84.096     41.610  41.434612     6.2765      6.908   237.6800 1.0758e+02     8.0053      0.655      0.950    24.7863 0.0000e+00
      0.675      0.025     6.9638     84.113     41.609  41.432219     6.3154      6.910   237.7055 1.0902e+02     8.0596      0.662      0.960    24.7861 0.0000e+00
      0.681      0.024     6.9656     84.080     41.596  41.419518     6.3093      6.912   237.7510 1.1027e+02     8.0415      0.668      0.969    24.7855 0.0000e+00
      0.689      0.022     6.9724     83.990     41.585  41.407968     6.2519      6.913   237.8004 1.1095e+02     7.9919      0.675      0.980    24.7843 0.0000e+00
      0.695      0.020     6.9767     83.872     41.596  41.419506     6.1711      6.914   237.9594 1.1099e+02     8.0056      0.682      0.989    24.7832 0.0000e+00
      0.698      0.020     6.9786     83.771     41.608  41.432096     6.1393      6.916   238.2100 1.1052e+02     8.0370      0.685      0.994    24.7823 0.0000e+00
      0.701      0.020     6.9770     83.702     41.609  41.433258     6.1427      6.916   238.4218 1.0935e+02     8.0644      0.686      0.996    24.7818 0.0000e+00
      0.705      0.020     6.9678     83.646     41.608  41.433562     6.1372      6.917   238.5412 1.0773e+02     8.0971      0.690      1.001    24.7813 0.0000e+00
      0.711      0.021     6.9571     83.585     41.609  41.435765     6.1642      6.919   238.6207 1.0603e+02     8.0911      0.698      1.012    24.7815 0.0000e+00
      0.719      0.022     6.9474     83.530     41.632  41.459903     6.2519      6.921   238.6096 1.0455e+02     8.0940      0.706      1.023    24.7825 0.0000e+00
      0.725      0.022     6.9431     83.490     41.643  41.471538     6.3163      6.924   238.5788 1.0366e+02     8.0642      0.712      1.032    24.7834 0.0000e+00
      0.730      0.023     6.9390     83.500     41.622  41.449508     6.3271      6.927   238.6785 1.0330e+02     8.0374      0.716      1.039    24.7848 0.0000e+00
      0.735      0.023     6.9326     83.577     41.622  41.447409     6.3826      6.930   238.7821 1.0327e+02     8.0099      0.720      1.044    24.7860 0.0000e+00
      0.740      0.024     6.9284     83.684     41.622  41.446161     6.4959      6.933   238.7991 1.0364e+02     7.9364      0.725      1.051    24.7870 0.0000e+00
      0.746      0.025     6.9234     83.786     41.612  41.434414     6.5729      6.937   238.7983 1.0431e+02     7.9345      0.731      1.061    24.7876 0.0000e+00
      0.754      0.026     6.9231     83.867     41.610  41.432305     6.5982      6.941   238.8588 1.0507e+02     7.9529      0.739      1.072    24.7878 0.0000e+00
      0.761      0.026     6.9322     83.949     41.599  41.420660     6.5856      6.944   238.9273 1.0602e+02     7.9537      0.747      1.083    24.7859 0.0000e+00
      0.768      0.025     6.9415     84.011     41.599  41.420557     6.5447      6.947   238.8525 1.0707e+02     7.9785      0.753      1.092    24.7823 0.0000e+00
      0.774      0.024     6.9521     84.018     41.610  41.431056     6.5203      6.951   238.7288 1.0803e+02     8.0139      0.759      1.101    24.7803 0.0000e+00
      0.780      0.024     6.9565     84.022     41.600  41.420670     6.5155      6.955   238.7222 1.0886e+02     8.0738      0.765      1.110    24.7805 0.0000e+00
      0.785      0.024     6.9638     84.033     41.601  41.421910     6.4787      6.958   238.7727 1.0957e+02     8.0878      0.770      1.117    24.7806 0.0000e+00
      0.791      0.024     6.9727     84.010     41.625  41.446046     6.4076      6.961   238.8237 1.1013e+02     8.0122      0.776      1.125    24.7802 0.0000e+00
      0.797      0.024     6.9688     83.969     41.637  41.458634     6.3636      6.964   238.9079 1.1060e+02     7.9447      0.782      1.133    24.7800 0.0000e+00
      0.805      0.023     6.9694     83.929     41.625  41.447181     6.3542      6.967   238.9304 1.1100e+02     7.9555      0.789      1.144    24.7792 0.0000e+00
      0.812      0.019     6.9733     83.879     41.611  41.434506     6.3773      6.970   238.8376 1.1116e+02     8.0064      0.796      1.155    24.7789 0.0000e+00
      0.817      0.014     6.9696     83.839     41.609  41.432314     6.4259      6.972   238.7327 1.1140e+02     8.0136      0.802      1.163    24.7793 0.0000e+00
      0.821      0.009     6.9651     83.803     41.597  41.420670     6.4428      6.975   238.6949 1.1225e+02     7.9736      0.806      1.169    24.7800 0.0000e+00
      0.822      0.006     6.9636     83.762     41.597  41.420660     6.4241      6.977   238.8099 1.1403e+02     7.9674      0.808      1.172    24.7811 0.0000e+00
      0.819      0.005     6.9571     83.734     41.609  41.432190     6.4079      6.978   239.0052 1.1638e+02     8.0408      0.803      1.165    24.7817 0.0000e+00
      0.816      0.006     6.9545     83.724     41.611  41.433135     6.3960      6.979   239.1636 1.1798e+02     8.1439      0.798      1.157    24.7822 0.0000e+00
      0.817      0.008     6.9526     83.755     41.611  41.432087     6.3805      6.981   239.2621 1.1867e+02     8.1545      0.798      1.158    24.7830 0.0000e+00
      0.823      0.010     6.9469     83.839     41.599  41.419517     6.3618      6.984   239.3362 1.1919e+02     8.0672      0.807      1.170    24.7832 0.0000e+00
      0.830      0.012     6.9462     83.933     41.588  41.408083     6.3449      6.988   239.4575 1.1999e+02     8.0102      0.816      1.183    24.7820 0.0000e+00
      0.835      0.012     6.9440     84.000     41.600  41.420776     6.3678      6.990   239.5237 1.2146e+02     8.0466      0.819      1.189    24.7800 0.0000e+00
      0.835      0.012     6.9460     84.036     41.625  41.446058     6.4305      6.990   239.5342 1.2286e+02     8.1313      0.819      1.188    24.7783 0.0000e+00
      0.835      0.011     6.9552     84.033     41.639  41.459896     6.4710      6.991   239.5846 1.2341e+02     8.1462      0.817      1.186    24.7778 0.0000e+00
      0.836      0.011     6.9642     83.994     41.640  41.461153     6.4748      6.992   239.6168 1.2296e+02     8.0562      0.818      1.187    24.7779 0.0000e+00
      0.841      0.011     6.9691     83.929     41.640  41.461258     6.4260      6.994   239.6657 1.2176e+02     7.9994      0.823      1.194    24.7783 0.0000e+00
      0.847      0.012     6.9726     83.835     41.639  41.461164     6.3391      6.996   239.7451 1.2106e+02     8.0399      0.831      1.206    24.7789 0.0000e+00
      0.852      0.012     6.9726     83.767     41.637  41.460019     6.2978      6.999   239.8029 1.2123e+02     8.1020      0.836      1.213    24.7787 0.0000e+00
      0.853      0.011     6.9680     83.776     41.624  41.447421     6.3003      7.002   239.8484 1.2100e+02     8.1017      0.836      1.213    24.7789 0.0000e+00
      0.854      0.008     6.9645     83.828     41.612  41.435777     6.2952      7.006   239.8649 1.2005e+02     7.9676      0.837      1.213    24.7795 0.0000e+00
      0.855      0.005     6.9537     83.886     41.622  41.446172     6.2777      7.008   239.9158 1.1908e+02     7.7788      0.839      1.217    24.7805 0.0000e+00
      0.857      0.003     6.9455     83.941     41.622  41.446163     6.2713      7.010   240.0337 1.1864e+02     7.6978      0.841      1.220    24.7814 0.0000e+00
      0.858      0.003     6.9486     84.003     41.612  41.435673     6.2937      7.013   240.0860 1.1889e+02     7.7391      0.843      1.222    24.7819 0.0000e+00
      0.858      0.003     6.9537     84.076     41.623  41.446276     6.3564      7.015   240.0325 1.1947e+02     7.8341      0.842      1.221    24.7824 0.0000e+00
      0.858      0.004     6.9590     84.146     41.625  41.447430     6.4302      7.018   239.9882 1.2017e+02     7.9246      0.840      1.219    24.7827 0.0000e+00
      0.859      0.005     6.9625     84.166     41.629  41.449615     6.4540      7.020   239.9815 1.2095e+02     7.9793      0.842      1.220    24.7829 0.0000e+00
      0.861      0.006     6.9680     84.094     41.653  41.472694     6.4521      7.022   240.0370 1.2150e+02     7.9831      0.844      1.224    24.7830 0.0000e+00
      0.863      0.007     6.9741     83.977     41.653  41.472609     6.4573      7.024   240.1430 1.2181e+02     7.9364      0.846      1.227    24.7821 0.0000e+00
      0.865      0.007     6.9814     83.882     41.629  41.448576     6.4500      7.027   240.2309 1.2196e+02     7.8582      0.849      1.230    24.7805 0.0000e+00
      0.867      0.006     6.9861     83.826     41.615  41.435986     6.4301      7.029   240.3264 1.2181e+02     7.7895      0.850      1.233    24.7787 0.0000e+00
      0.868      0.005     6.9778     83.791     41.626  41.447326     6.4081      7.030   240.4366 1.2139e+02     7.7548      0.851      1.235    24.7772 0.0000e+00
      0.869      0.005     6.9657     83.783     41.636  41.458752     6.4003      7.031   240.5298 1.2076e+02     7.7453      0.853      1.237    24.7766 0.0000e+00
      0.870      0.005     6.9575     83.811     41.624  41.447212     6.3945      7.034   240.5932 1.1989e+02     7.7774      0.854      1.238    24.7770 0.0000e+00
      0.871      0.005     6.9537     83.862     41.610  41.434726     6.3795      7.037   240.6016 1.1906e+02     7.8016      0.854      1.239    24.7784 0.0000e+00
      0.872      0.006     6.9504     83.903     41.610  41.434716     6.3690      7.040   240.5442 1.1842e+02     7.7656      0.855      1.240    24.7802 0.0000e+00
      0.874      0.007     6.9488     83.894     41.621  41.447097     6.3597      7.042   240.5021 1.1778e+02     7.7517      0.857      1.243    24.7810 0.0000e+00
      0.876      0.008     6.9520     83.869     41.631  41.457482     6.3919      7.045   240.5230 1.1735e+02     7.8724      0.859      1.246    24.7815 0.0000e+00
      0.879      0.008     6.9560     83.859     41.606  41.433353     6.4754      7.048   240.5383 1.1719e+02     8.0633      0.862      1.250    24.7827 0.0000e+00
      0.881      0.008     6.9625     83.849     41.581  41.409226     6.5365      7.050   240.5149 1.1707e+02     8.1138      0.864      1.253    24.7839 0.0000e+00
      0.883      0.008     6.9593     83.873     41.591  41.419630     6.5485      7.052   240.4991 1.1720e+02     8.0388      0.866      1.256    24.7848 0.0000e+00
      0.885      0.008     6.9549     83.931     41.604  41.432209     6.5535      7.054   240.5196 1.1753e+02     8.0101      0.868      1.259    24.7861 0.0000e+00
      0.886      0.008     6.9574     84.004     41.608  41.434384     6.5717      7.056   240.5905 1.1785e+02     8.0392      0.869      1.261    24.7878 0.0000e+00
      0.888      0.009     6.9525     84.086     41.620  41.445923     6.5852      7.058   240.7535 1.1817e+02     8.0841      0.871      1.263    24.7888 0.0000e+00
      0.891      0.010     6.9556     84.126     41.619  41.444797     6.5923      7.061   240.9416 1.1827e+02     8.1082      0.873      1.267    24.7885 0.0000e+00
      0.894      0.011     6.9621     84.128     41.595  41.420773     6.5653      7.064   240.9716 1.1822e+02     8.0920      0.877      1.272    24.7872 0.0000e+00
      0.897      0.012     6.9662     84.147     41.583  41.409320     6.5093      7.065   240.9452 1.1826e+02     8.0933      0.879      1.275    24.7857 0.0000e+00
      0.900      0.012     6.9772     84.172     41.606  41.433249     6.4811      7.067   241.0521 1.1826e+02     8.1240      0.883      1.280    24.7849 0.0000e+00
      0.904      0.012     6.9799     84.182     41.629  41.456224     6.4819      7.069   241.1451 1.1818e+02     8.1207      0.886      1.286    24.7845 0.0000e+00
      0.907      0.012     6.9767     84.186     41.605  41.433250     6.4944      7.071   241.0385 1.1810e+02     8.0535      0.889      1.290    24.7846 0.0000e+00
      0.909      0.011     6.9798     84.197     41.581  41.409331     6.5083      7.072   240.9668 1.1791e+02     7.9953      0.892      1.293    24.7849 0.0000e+00
      0.912      0.011     6.9824     84.215     41.592  41.420889     6.5163      7.074   241.0530 1.1774e+02     8.0321      0.894      1.297    24.7858 0.0000e+00
      0.915      0.010     6.9826     84.222     41.618  41.446066     6.5162      7.076   241.0489 1.1769e+02     8.0886      0.897      1.301    24.7870 0.0000e+00
      0.918      0.009     6.9824     84.191     41.633  41.459886     6.5152      7.078   241.0025 1.1775e+02     8.0627      0.900      1.306    24.7876 0.0000e+00
      0.920      0.009     6.9834     84.118     41.634  41.461039     6.5540      7.079   241.0081 1.1802e+02     7.9930      0.902      1.308    24.7876 0.0000e+00
      0.922      0.009     6.9853     84.048     41.634  41.460008     6.6280      7.082   241.0302 1.1832e+02     7.9624      0.904      1.310    24.7875 0.0000e+00
      0.923      0.009     6.9869     84.011     41.622  41.447420     6.6768      7.084   241.0972 1.1851e+02     8.0005      0.905      1.313    24.7873 0.0000e+00
      0.926      0.009     6.9851     83.967     41.612  41.435777     6.6943      7.085   241.2164 1.1869e+02     8.0444      0.908      1.317    24.7869 0.0000e+00
      0.928      0.010     6.9770     83.883     41.623  41.446163     6.7231      7.087   241.3536 1.1874e+02     8.1171      0.910      1.320    24.7860 0.0000e+00
      0.931      0.011     6.9698     83.799     41.624  41.446058     6.7593      7.090   241.4647 1.1869e+02     8.2297      0.913      1.325    24.7846 0.0000e+00
      0.934      0.011     6.9691     83.765     41.613  41.434509     6.7648      7.091   241.5273 1.1852e+02     8.2446      0.916      1.329    24.7834 0.0000e+00
      0.937      0.011     6.9672     83.764     41.612  41.433459     6.7571      7.092   241.5953 1.1809e+02     8.2288      0.918      1.332    24.7828 0.0000e+00
      0.940      0.011     6.9585     83.747     41.612  41.433364     6.7578      7.093   241.6841 1.1746e+02     8.2439      0.921      1.337    24.7816 0.0000e+00
      0.943      0.010     6.9493     83.705     41.612  41.433356     6.7653      7.095   241.7397 1.1672e+02     8.1883      0.924      1.341    24.7797 0.0000e+00
      0.945      0.010     6.9478     83.650     41.612  41.433365     6.7722      7.096   241.7520 1.1592e+02     8.1029      0.926      1.344    24.7788 0.0000e+00
      0.947      0.009     6.9499     83.613     41.612  41.433470     6.7660      7.097   241.7468 1.1517e+02     8.0312      0.928      1.347    24.7790 0.0000e+00
      0.950      0.008     6.9480     83.624     41.613  41.434624     6.8160      7.099   241.7630 1.1447e+02     8.0043      0.930      1.351    24.7792 0.0000e+00
      0.952      0.008     6.9445     83.634     41.626  41.447317     6.9273      7.102   241.7754 1.1382e+02     8.0508      0.933      1.354    24.7793 0.0000e+00
      0.954      0.007     6.9393     83.611     41.640  41.460010     6.9873      7.103   241.8107 1.1330e+02     8.0814      0.935      1.356    24.7795 0.0000e+00
      0.955      0.007     6.9335     83.615     41.642  41.461164     6.9927      7.104   241.9321 1.1301e+02     8.0672      0.936      1.358    24.7798 0.0000e+00
      0.957      0.007     6.9373     83.671     41.643  41.461259     6.9666      7.106   242.0381 1.1276e+02     8.0492      0.938      1.361    24.7796 0.0000e+00
      0.958      0.008     6.9409     83.772     41.644  41.461155     6.9301      7.108   242.1459 1.1248e+02     8.0697      0.939      1.363    24.7790 0.0000e+00
      0.960      0.008     6.9341     83.881     41.644  41.459907     6.9259      7.108   242.2896 1.1223e+02     8.1087      0.941      1.366    24.7782 0.0000e+00
      0.962      0.008     6.9355     83.941     41.631  41.446163     6.9334      7.109   242.3122 1.1196e+02     8.1118      0.944      1.369    24.7769 0.0000e+00
      0.965      0.008     6.9401     83.941     41.607  41.421922     6.9285      7.110   242.3336 1.1163e+02     8.0730      0.946      1.373    24.7755 0.0000e+00
      0.967      0.008     6.9493     83.903     41.607  41.420673     6.9082      7.111   242.4623 1.1127e+02     8.0160      0.948      1.375    24.7739 0.0000e+00
      0.968      0.007     6.9619     83.840     41.619  41.431058     6.9048      7.113   242.5782 1.1084e+02     8.0365      0.950      1.377    24.7720 0.0000e+00
      0.970      0.007     6.9660     83.736     41.609  41.420549     6.9206      7.115   242.6159 1.1024e+02     8.1158      0.951      1.380    24.7712 0.0000e+00
      0.972      0.007     6.9659     83.602     41.609  41.420539     6.9248      7.116   242.5734 1.0941e+02     8.1548      0.953      1.382    24.7708 0.0000e+00
      0.974      0.008     6.9618     83.505     41.620  41.430943     6.9381      7.118   242.5813 1.0852e+02     8.1333      0.955      1.385    24.7695 0.0000e+00
      0.975      0.009     6.9579     83.466     41.608  41.419404     6.9561      7.121   242.6257 1.0770e+02     8.0601      0.957      1.387    24.7684 0.0000e+00
      0.978      0.010     6.9497     83.467     41.597  41.407950     6.9687      7.124   242.5938 1.0694e+02     8.0557      0.959      1.391    24.7682 0.0000e+00
      0.981      0.010     6.9350     83.518     41.609  41.419394     6.9818      7.126   242.6258 1.0625e+02     8.1140      0.962      1.395    24.7678 0.0000e+00
      0.984      0.011     6.9266     83.609     41.620  41.430840     6.9729      7.127   242.7541 1.0555e+02     8.1850      0.965      1.399    24.7673 0.0000e+00
      0.987      0.012     6.9255     83.697     41.609  41.419404     6.9533      7.128   242.7682 1.0480e+02     8.2645      0.967      1.403    24.7672 0.0000e+00
      0.990      0.012     6.9237     83.757     41.597  41.408063     6.9446      7.130   242.7102 1.0417e+02     8.2554      0.971      1.408    24.7669 0.0000e+00
      0.993      0.013     6.9288     83.806     41.609  41.420653     6.9422      7.132   242.7422 1.0380e+02     8.2457      0.974      1.412    24.7664 0.0000e+00
      0.996      0.015     6.9378     83.853     41.632  41.444686     6.9658      7.133   242.8100 1.0356e+02     8.2156      0.977      1.415    24.7662 0.0000e+00
      0.999      0.017     6.9462     83.877     41.632  41.444781     7.0224      7.132   242.9282 1.0315e+02     8.1305      0.979      1.420    24.7665 0.0000e+00
      1.004      0.019     6.9501     83.879     41.610  41.421808     7.0599      7.132   243.0532 1.0246e+02     8.1055      0.983      1.426    24.7671 0.0000e+00
      1.010      0.021     6.9532     83.851     41.610  41.420778     7.0529      7.131   243.1167 1.0168e+02     8.0839      0.990      1.435    24.7675 0.0000e+00
      1.015      0.021     6.9591     83.784     41.623  41.432327     7.0046      7.130   243.2652 1.0090e+02     8.0742      0.996      1.444    24.7684 0.0000e+00
      1.021      0.021     6.9596     83.698     41.626  41.434511     6.9339      7.129   243.4724 1.0011e+02     8.0912      1.002      1.453    24.7694 0.0000e+00
      1.028      0.020     6.9606     83.611     41.639  41.447184     6.8978      7.128   243.5574 9.9353e+01     8.0837      1.008      1.462    24.7686 0.0000e+00
      1.033      0.018     6.9594     83.537     41.651  41.458629     6.8918      7.127   243.6041 9.8658e+01     8.0514      1.013      1.469    24.7667 0.0000e+00
      1.037      0.017     6.9525     83.490     41.639  41.445946     6.8788      7.127   243.6928 9.8047e+01     8.0085      1.017      1.475    24.7655 0.0000e+00
      1.040      0.016     6.9454     83.467     41.614  41.420768     6.9149      7.126   243.7690 9.7448e+01     8.0430      1.020      1.480    24.7641 0.0000e+00
      1.043      0.016     6.9378     83.462     41.603  41.408075     7.0124      7.126   243.8371 9.6856e+01     8.1265      1.023      1.483    24.7630 0.0000e+00
      1.047      0.016     6.9313     83.471     41.615  41.419406     7.0674      7.125   243.8290 9.6206e+01     8.1301      1.026      1.488    24.7623 0.0000e+00
      1.052      0.017     6.9276     83.478     41.627  41.430831     7.0636      7.125   243.8435 9.5441e+01     8.0866      1.031      1.496    24.7619 0.0000e+00
      1.057      0.017     6.9258     83.464     41.616  41.419291     7.0170      7.125   243.9262 9.4693e+01     8.0453      1.036      1.502    24.7617 0.0000e+00
      1.062      0.017     6.9259     83.437     41.604  41.406806     6.9447      7.126   243.9684 9.4055e+01     8.0407      1.041      1.510    24.7602 0.0000e+00
      1.066      0.017     6.9269     83.391     41.604  41.406806     6.9293      7.127   244.0091 9.3539e+01     8.0993      1.046      1.517    24.7585 0.0000e+00
      1.070      0.018     6.9291     83.308     41.618  41.419291     6.9554      7.128   244.0737 9.3076e+01     8.1398      1.049      1.522    24.7581 0.0000e+00
      1.073      0.018     6.9268     83.206     41.632  41.430822     6.9534      7.128   244.1477 9.2508e+01     8.1194      1.052      1.527    24.7582 0.0000e+00
      1.078      0.019     6.9246     83.089     41.622  41.419293     6.9299      7.128   244.2149 9.1747e+01     8.0574      1.057      1.533    24.7581 0.0000e+00
      1.084      0.020     6.9227     82.954     41.610  41.406818     6.9199      7.129   244.2840 9.0909e+01     8.0397      1.062      1.540    24.7571 0.0000e+00
      1.090      0.020     6.9141     82.827     41.610  41.406923     6.9329      7.130   244.2948 9.0076e+01     8.1102      1.069      1.549    24.7546 0.0000e+00
      1.095      0.020     6.9065     82.712     41.624  41.420561     7.0129      7.131   244.3457 8.9213e+01     8.1586      1.074      1.558    24.7520 0.0000e+00
      1.100      0.019     6.8976     82.616     41.647  41.444784     7.1461      7.133   244.4693 8.8423e+01     8.1126      1.079      1.565    24.7501 0.0000e+00
      1.105      0.017     6.8849     82.578     41.647  41.445937     7.2118      7.135   244.4991 8.7714e+01     8.0313      1.083      1.572    24.7492 0.0000e+00
      1.109      0.015     6.8744     82.598     41.635  41.434511     7.2158      7.135   244.5341 8.7102e+01     8.0301      1.088      1.578    24.7490 0.0000e+00
      1.113      0.014     6.8653     82.615     41.634  41.433567     7.2202      7.136   244.5479 8.6681e+01     8.0983      1.092      1.585    24.7498 0.0000e+00
      1.116      0.014     6.8550     82.600     41.634  41.434522     7.2232      7.136   244.5794 8.6389e+01     8.1389      1.095      1.588    24.7516 0.0000e+00
      1.118      0.015     6.8513     82.581     41.644  41.446052     7.2273      7.136   244.8297 8.6134e+01     8.1106      1.096      1.590    24.7527 0.0000e+00
      1.121      0.018     6.8562     82.562     41.642  41.446051     7.2275      7.133   245.0789 8.5855e+01     8.0286      1.099      1.594    24.7532 0.0000e+00
      1.125      0.021     6.8581     82.517     41.628  41.434510     7.2506      7.132   245.1831 8.5387e+01     8.0020      1.102      1.598    24.7531 0.0000e+00
      1.130      0.023     6.8553     82.457     41.626  41.433452     7.3067      7.131   245.2296 8.4473e+01     8.0623      1.106      1.604    24.7536 0.0000e+00
      1.139      0.023     6.8532     82.447     41.627  41.433252     7.3409      7.131   245.2963 8.3326e+01     8.1088      1.118      1.621    24.7551 0.0000e+00
      1.149      0.022     6.8528     82.512     41.628  41.432090     7.3390      7.131   245.4741 8.2398e+01     8.0861      1.128      1.636    24.7589 0.0000e+00
      1.154      0.020     6.8487     82.615     41.617  41.419407     7.3245      7.131   245.5724 8.1854e+01     8.0266      1.132      1.642    24.7634 0.0000e+00
      1.157      0.017     6.8405     82.728     41.607  41.406827     7.2998      7.132   245.5374 8.1499e+01     8.0725      1.135      1.647    24.7632 0.0000e+00
      1.159      0.015     6.8389     82.831     41.610  41.406922     7.2652      7.132   245.5681 8.1109e+01     8.2316      1.137      1.650    24.7613 0.0000e+00
      1.161      0.014     6.8467     82.875     41.626  41.420552     7.2391      7.133   245.5987 8.0750e+01     8.3108      1.139      1.652    24.7596 0.0000e+00
      1.164      0.015     6.8564     82.820     41.652  41.444680     7.2340      7.133   245.6494 8.0197e+01     8.2780      1.141      1.654    24.7565 0.0000e+00
      1.169      0.016     6.8658     82.680     41.654  41.444784     7.2865      7.133   245.8370 7.9324e+01     8.1768      1.146      1.662    24.7534 0.0000e+00
      1.175      0.016     6.8768     82.494     41.630  41.421811     7.3911      7.133   246.0609 7.8525e+01     8.0779      1.153      1.673    24.7510 0.0000e+00
      1.181      0.015     6.8822     82.298     41.629  41.420781     7.4581      7.135   246.2059 7.7869e+01     8.0734      1.159      1.681    24.7487 0.0000e+00
      1.185      0.014     6.8775     82.134     41.641  41.432320     7.4642      7.135   246.2134 7.7426e+01     8.0878      1.162      1.685    24.7450 0.0000e+00
      1.187      0.012     6.8646     82.026     41.643  41.434401     7.4309      7.135   246.1510 7.7308e+01     8.0464      1.164      1.688    24.7420 0.0000e+00
      1.189      0.010     6.8487     81.988     41.655  41.445941     7.3889      7.136   246.1405 7.7144e+01     7.9834      1.166      1.691    24.7429 0.0000e+00
      1.191      0.010     6.8305     82.046     41.654  41.444909     7.3809      7.137   246.1723 7.7074e+01     8.0092      1.168      1.695    24.7444 0.0000e+00
      1.193      0.010     6.8159     82.136     41.631  41.421925     7.3922      7.138   246.1905 7.7258e+01     8.1189      1.170      1.698    24.7441 0.0000e+00
      1.196      0.011     6.8081     82.167     41.631  41.421916     7.3841      7.139   246.1884 7.7321e+01     8.1483      1.172      1.700    24.7434 0.0000e+00
      1.198      0.012     6.8019     82.145     41.654  41.444805     7.3571      7.142   246.2324 7.7349e+01     8.0575      1.176      1.704    24.7429 0.0000e+00
      1.201      0.013     6.8096     82.102     41.654  41.444805     7.3409      7.144   246.2931 7.7367e+01     7.9776      1.178      1.709    24.7430 0.0000e+00
      1.205      0.014     6.8213     82.018     41.631  41.421916     7.3385      7.146   246.3196 7.7227e+01     8.0025      1.182      1.714    24.7433 0.0000e+00
      1.210      0.015     6.8223     81.903     41.631  41.421916     7.3442      7.147   246.3819 7.7100e+01     8.1185      1.186      1.720    24.7433 0.0000e+00
      1.214      0.015     6.8191     81.838     41.655  41.444805     7.3524      7.149   246.4431 7.6976e+01     8.2539      1.190      1.726    24.7424 0.0000e+00
      1.218      0.015     6.8169     81.878     41.656  41.444795     7.3544      7.152   246.4579 7.6794e+01     8.3065      1.194      1.732    24.7420 0.0000e+00
      1.221      0.015     6.8106     82.007     41.636  41.421803     7.3515      7.153   246.4742 7.6607e+01     8.2767      1.197      1.737    24.7427 0.0000e+00
      1.225      0.014     6.7970     82.139     41.637  41.420668     7.3336      7.154   246.5537 7.6266e+01     8.2349      1.201      1.742    24.7430 0.0000e+00
      1.229      0.013     6.7902     82.185     41.649  41.431063     7.2959      7.155   246.6460 7.5787e+01     8.2104      1.205      1.747    24.7427 0.0000e+00
      1.232      0.013     6.7940     82.152     41.640  41.420555     7.2451      7.156   246.6430 7.5459e+01     8.1521      1.208      1.751    24.7409 0.0000e+00
      1.235      0.013     6.8082     82.100     41.640  41.420545     7.2186      7.159   246.6036 7.5224e+01     8.0417      1.212      1.757    24.7367 0.0000e+00
      1.238      0.014     6.8232     82.058     41.651  41.430940     7.2258      7.160   246.6002 7.4872e+01     7.9692      1.214      1.761    24.7335 0.0000e+00
      1.241      0.015     6.8264     82.016     41.639  41.419306     7.2745      7.161   246.6013 7.4490e+01     7.9923      1.217      1.765    24.7324 0.0000e+00
      1.245      0.016     6.8212     81.954     41.628  41.406813     7.3664      7.162   246.6176 7.4066e+01     8.0822      1.221      1.771    24.7309 0.0000e+00
      1.249      0.017     6.8165     81.886     41.630  41.406822     7.4126      7.162   246.7118 7.3556e+01     8.1001      1.225      1.777    24.7299 0.0000e+00
      1.254      0.018     6.8133     81.848     41.645  41.419410     7.3991      7.163   246.7929 7.3055e+01     8.0042      1.230      1.784    24.7300 0.0000e+00
      1.259      0.019     6.8107     81.823     41.659  41.432085     7.3867      7.163   246.7386 7.2566e+01     7.9470      1.234      1.791    24.7300 0.0000e+00
      1.264      0.019     6.8059     81.773     41.660  41.433133     7.3885      7.164   246.6568 7.2087e+01     7.9894      1.240      1.798    24.7285 0.0000e+00
      1.269      0.019     6.7980     81.691     41.659  41.432083     7.3961      7.165   246.7500 7.1618e+01     8.0728      1.244      1.805    24.7254 0.0000e+00
      1.274      0.019     6.7966     81.596     41.648  41.419391     7.3862      7.167   246.9190 7.1076e+01     8.1016      1.250      1.813    24.7227 0.0000e+00
      1.279      0.018     6.7961     81.498     41.638  41.406605     7.3105      7.168   246.9803 7.0443e+01     8.0295      1.255      1.820    24.7217 0.0000e+00
      1.284      0.017     6.7918     81.382     41.638  41.404421     7.1967      7.169   246.9748 6.9795e+01     7.9875      1.259      1.826    24.7221 0.0000e+00
      1.288      0.016     6.7844     81.252     41.627  41.392976     7.1499      7.170   246.8516 6.9114e+01     8.0375      1.263      1.832    24.7220 0.0000e+00
      1.292      0.014     6.7759     81.122     41.629  41.395160     7.1615      7.172   246.7813 6.8438e+01     8.0873      1.268      1.839    24.7204 0.0000e+00
      1.296      0.013     6.7696     80.993     41.666  41.430827     7.1703      7.172   247.0717 6.7896e+01     8.0777      1.271      1.843    24.7163 0.0000e+00
      1.299      0.012     6.7601     80.878     41.680  41.443425     7.1818      7.171   247.5242 6.7374e+01     8.0229      1.273      1.847    24.7128 0.0000e+00
      1.302      0.011     6.7483     80.806     41.659  41.420547     7.2007      7.169   247.7780 6.6787e+01     7.9721      1.276      1.851    24.7126 0.0000e+00
      1.304      0.011     6.7379     80.773     41.647  41.408072     7.2160      7.168   247.8165 6.6385e+01     7.9756      1.278      1.854    24.7136 0.0000e+00
      1.307      0.011     6.7270     80.744     41.658  41.419525     7.2249      7.167   247.8185 6.6162e+01     8.0312      1.281      1.859    24.7128 0.0000e+00
      1.309      0.012     6.7166     80.710     41.670  41.432087     7.2497      7.166   247.8877 6.5857e+01     8.0297      1.284      1.862    24.7098 0.0000e+00
      1.312      0.013     6.7106     80.672     41.671  41.433022     7.2910      7.166   248.0504 6.5534e+01     7.9917      1.286      1.865    24.7076 0.0000e+00
      1.315      0.014     6.7101     80.622     41.669  41.430828     7.3085      7.165   248.2377 6.5273e+01     8.0158      1.290      1.871    24.7066 0.0000e+00
      1.320      0.015     6.7074     80.582     41.645  41.405566     7.3033      7.162   248.4309 6.4992e+01     8.0818      1.295      1.878    24.7076 0.0000e+00
      1.324      0.017     6.7039     80.566     41.621  41.381438     7.2195      7.159   248.6657 6.4723e+01     8.1393      1.298      1.883    24.7092 0.0000e+00
      1.328      0.018     6.7023     80.574     41.632  41.392968     7.0440      7.155   248.8395 6.4425e+01     8.1311      1.302      1.889    24.7089 0.0000e+00
      1.333      0.018     6.6964     80.595     41.657  41.418050     6.9388      7.153   248.8977 6.4062e+01     8.0858      1.307      1.896    24.7074 0.0000e+00
      1.338      0.018     6.6933     80.644     41.668  41.430839     6.9289      7.153   248.9402 6.3762e+01     8.0357      1.312      1.903    24.7060 0.0000e+00
      1.343      0.018     6.6917     80.739     41.657  41.420661     6.9584      7.153   249.0084 6.3503e+01     8.0372      1.317      1.910    24.7058 0.0000e+00
      1.347      0.017     6.6930     80.851     41.658  41.421919     7.0197      7.153   249.0341 6.3248e+01     8.1379      1.322      1.918    24.7070 0.0000e+00
      1.351      0.017     6.6943     80.928     41.682  41.446048     7.0458      7.154   249.0787 6.3052e+01     8.1605      1.325      1.922    24.7081 0.0000e+00
      1.355      0.017     6.6966     80.945     41.694  41.458542     7.0419      7.156   249.2029 6.2881e+01     8.0714      1.329      1.927    24.7093 0.0000e+00
      1.359      0.017     6.7060     80.935     41.682  41.446048     7.0471      7.158   249.2458 6.2668e+01     8.0173      1.333      1.934    24.7103 0.0000e+00
      1.363      0.018     6.7166     80.928     41.658  41.421920     7.0492      7.160   249.1668 6.2419e+01     8.0190      1.337      1.939    24.7109 0.0000e+00
      1.368      0.018     6.7246     80.940     41.657  41.420681     7.0512      7.161   249.1091 6.2156e+01     8.0575      1.341      1.945    24.7117 0.0000e+00
      1.373      0.019     6.7236     80.975     41.669  41.431067     7.0471      7.162   249.1496 6.1829e+01     8.0730      1.346      1.953    24.7120 0.0000e+00
      1.379      0.019     6.7223     81.005     41.661  41.420558     7.0745      7.162   249.2270 6.1482e+01     8.0359      1.353      1.962    24.7119 0.0000e+00
      1.384      0.019     6.7214     80.989     41.663  41.420548     7.1487      7.163   249.1835 6.1192e+01     7.9835      1.357      1.968    24.7116 0.0000e+00
      1.388      0.019     6.7221     80.912     41.675  41.430943     7.1957      7.165   249.0545 6.0913e+01     7.9867      1.361      1.974    24.7105 0.0000e+00
      1.392      0.019     6.7263     80.790     41.665  41.419300     7.2101      7.166   249.0445 6.0612e+01     8.0747      1.366      1.980    24.7090 0.0000e+00
      1.396      0.020     6.7305     80.643     41.654  41.406702     7.2223      7.166   249.1487 6.0213e+01     8.0911      1.369      1.986    24.7060 0.0000e+00
      1.401      0.021     6.7304     80.490     41.655  41.405557     7.2528      7.167   249.2818 5.9691e+01     8.0478      1.374      1.993    24.7025 0.0000e+00
      1.407      0.021     6.7228     80.330     41.656  41.405454     7.3039      7.168   249.4484 5.9147e+01     8.1325      1.380      2.001    24.7003 0.0000e+00
      1.414      0.022     6.7131     80.185     41.657  41.405455     7.3320      7.168   249.5284 5.8701e+01     8.2615      1.387      2.011    24.6989 0.0000e+00
      1.420      0.022     6.6998     80.108     41.657  41.405568     7.3434      7.168   249.5617 5.8367e+01     8.3085      1.393      2.020    24.6970 0.0000e+00
      1.425      0.023     6.6881     80.104     41.658  41.406816     7.3744      7.168   249.6787 5.8056e+01     8.2914      1.397      2.026    24.6948 0.0000e+00
      1.430      0.023     6.6749     80.134     41.672  41.420550     7.4155      7.168   249.7385 5.7700e+01     8.2595      1.402      2.033    24.6934 0.0000e+00
      1.435      0.022     6.6599     80.168     41.696  41.444688     7.4321      7.168   249.6817 5.7277e+01     8.2644      1.407      2.041    24.6926 0.0000e+00
      1.441      0.022     6.6537     80.190     41.696  41.444802     7.4346      7.170   249.5943 5.6847e+01     8.2821      1.413      2.049    24.6920 0.0000e+00
      1.448      0.022     6.6554     80.212     41.672  41.421924     7.3946      7.171   249.6283 5.6480e+01     8.2690      1.421      2.062    24.6923 0.0000e+00
      1.454      0.022     6.6582     80.247     41.672  41.421934     7.2820      7.172   249.7490 5.6241e+01     8.1743      1.426      2.069    24.6926 0.0000e+00
      1.458      0.021     6.6615     80.231     41.695  41.444926     7.1967      7.174   249.7630 5.6111e+01     8.0252      1.430      2.074    24.6926 0.0000e+00
      1.463      0.020     6.6637     80.146     41.695  41.446061     7.1960      7.176   249.7979 5.5926e+01     7.9692      1.435      2.081    24.6930 0.0000e+00
      1.469      0.018     6.6628     80.077     41.685  41.435658     7.2645      7.178   249.8259 5.5691e+01     8.1126      1.440      2.089    24.6942 0.0000e+00
      1.474      0.017     6.6696     80.042     41.696  41.446071     7.3596      7.180   249.7581 5.5531e+01     8.3236      1.446      2.097    24.6950 0.0000e+00
      1.478      0.016     6.6698     80.004     41.696  41.445032     7.3971      7.182   249.7521 5.5412e+01     8.3684      1.450      2.103    24.6951 0.0000e+00
      1.482      0.015     6.6571     79.943     41.676  41.423090     7.3856      7.184   249.7546 5.5269e+01     8.3129      1.453      2.107    24.6952 0.0000e+00
      1.485      0.014     6.6521     79.833     41.688  41.434637     7.3941      7.185   249.7874 5.5158e+01     8.2676      1.456      2.111    24.6955 0.0000e+00
      1.488      0.014     6.6509     79.688     41.712  41.457716     7.4251      7.186   249.8909 5.5100e+01     8.2645      1.459      2.116    24.6952 0.0000e+00
      1.491      0.014     6.6477     79.566     41.702  41.448266     7.4445      7.186   249.9730 5.5037e+01     8.3440      1.463      2.121    24.6924 0.0000e+00
      1.494      0.015     6.6447     79.495     41.701  41.447320     7.4465      7.186   250.0060 5.4940e+01     8.3740      1.466      2.125    24.6902 0.0000e+00
      1.499      0.016     6.6351     79.446     41.698  41.446280     7.4399      7.187   250.0317 5.4792e+01     8.3211      1.470      2.131    24.6905 0.0000e+00
      1.504      0.016     6.6206     79.419     41.687  41.435687     7.4554      7.189   250.1115 5.4604e+01     8.2844      1.475      2.139    24.6900 0.0000e+00
      1.508      0.015     6.6095     79.457     41.697  41.446168     7.5100      7.190   250.1109 5.4444e+01     8.3062      1.480      2.146    24.6892 0.0000e+00
      1.512      0.013     6.6051     79.551     41.697  41.446073     7.5586      7.192   250.0248 5.4364e+01     8.3787      1.483      2.152    24.6899 0.0000e+00
      1.516      0.012     6.6017     79.683     41.685  41.434533     7.5611      7.195   249.9299 5.4379e+01     8.3755      1.486      2.156    24.6918 0.0000e+00
      1.518      0.012     6.5959     79.865     41.684  41.433578     7.4732      7.197   249.8245 5.4479e+01     8.2335      1.488      2.158    24.6928 0.0000e+00
      1.519      0.013     6.6005     80.051     41.685  41.434533     7.3358      7.198   249.8689 5.4521e+01     8.0963      1.489      2.159    24.6929 0.0000e+00
      1.521      0.014     6.6096     80.164     41.697  41.446073     7.2821      7.199   250.0361 5.4375e+01     8.0839      1.490      2.162    24.6930 0.0000e+00
      1.526      0.016     6.6182     80.189     41.698  41.446176     7.2979      7.201   250.1256 5.4105e+01     8.1514      1.496      2.170    24.6936 0.0000e+00
      1.532      0.018     6.6355     80.167     41.689  41.435781     7.2943      7.203   250.1764 5.3824e+01     8.1611      1.503      2.179    24.6940 0.0000e+00
      1.537      0.018     6.6541     80.137     41.703  41.447321     7.2724      7.203   250.2203 5.3533e+01     8.0656      1.507      2.186    24.6937 0.0000e+00
      1.542      0.017     6.6639     80.066     41.715  41.458764     7.2579      7.203   250.2258 5.3178e+01     7.9865      1.513      2.194    24.6929 0.0000e+00
      1.547      0.016     6.6644     79.914     41.704  41.447198     7.2604      7.202   250.2429 5.2768e+01     7.9905      1.517      2.201    24.6922 0.0000e+00
      1.551      0.015     6.6609     79.727     41.692  41.434409     7.3184      7.202   250.2559 5.2359e+01     8.0452      1.521      2.206    24.6907 0.0000e+00
      1.553      0.015     6.6600     79.563     41.690  41.431071     7.4023      7.203   250.3825 5.1969e+01     8.0668      1.523      2.209    24.6881 0.0000e+00
      1.556      0.016     6.6570     79.432     41.666  41.406840     7.4250      7.204   250.5686 5.1548e+01     8.0468      1.526      2.213    24.6861 0.0000e+00
      1.559      0.017     6.6418     79.324     41.656  41.395291     7.4189      7.203   250.5274 5.1114e+01     8.0429      1.529      2.218    24.6856 0.0000e+00
      1.564      0.019     6.6241     79.242     41.681  41.418370     7.4450      7.203   250.4012 5.0698e+01     8.0882      1.532      2.223    24.6854 0.0000e+00
      1.569      0.021     6.6110     79.176     41.696  41.432017     7.4914      7.204   250.4186 5.0224e+01     8.2190      1.538      2.230    24.6845 0.0000e+00
      1.576      0.023     6.6008     79.121     41.697  41.433361     7.5129      7.205   250.4792 4.9744e+01     8.2919      1.545      2.240    24.6831 0.0000e+00
      1.583      0.023     6.5913     79.060     41.698  41.434618     7.4889      7.206   250.4458 4.9355e+01     8.2173      1.552      2.251    24.6811 0.0000e+00
      1.589      0.022     6.5856     78.978     41.709  41.447218     7.3838      7.207   250.3598 4.9060e+01     8.1026      1.558      2.260    24.6794 0.0000e+00
      1.594      0.021     6.5799     78.872     41.719  41.458768     7.2324      7.208   250.3858 4.8829e+01     8.0673      1.564      2.268    24.6783 0.0000e+00
      1.599      0.019     6.5763     78.810     41.707  41.447342     7.1650      7.209   250.5021 4.8591e+01     8.1318      1.568      2.275    24.6776 0.0000e+00
      1.604      0.017     6.5714     78.904     41.696  41.436002     7.1600      7.210   250.5612 4.8382e+01     8.1318      1.574      2.283    24.6788 0.0000e+00
      1.608      0.015     6.5646     79.074     41.709  41.448592     7.1555      7.211   250.5838 4.8266e+01     8.0318      1.577      2.287    24.6802 0.0000e+00
      1.612      0.013     6.5556     79.154     41.734  41.472625     7.1773      7.212   250.6890 4.8187e+01     8.0509      1.580      2.292    24.6813 0.0000e+00
      1.615      0.013     6.5420     79.146     41.735  41.472711     7.2154      7.213   250.8010 4.8117e+01     8.2258      1.584      2.297    24.6825 0.0000e+00
      1.618      0.013     6.5545     79.180     41.713  41.449631     7.2333      7.213   250.7342 4.8038e+01     8.3707      1.586      2.300    24.6832 0.0000e+00
      1.621      0.014     6.5758     79.280     41.712  41.447438     7.2183      7.214   250.6547 4.7920e+01     8.3679      1.588      2.304    24.6832 0.0000e+00
      1.624      0.016     6.5817     79.298     41.711  41.446189     7.1588      7.215   250.7006 4.7731e+01     8.2263      1.591      2.308    24.6820 0.0000e+00
      1.628      0.017     6.5761     79.200     41.699  41.434535     7.0800      7.216   250.7729 4.7428e+01     8.1275      1.595      2.314    24.6804 0.0000e+00
      1.634      0.017     6.5760     79.071     41.699  41.433467     7.0489      7.217   250.8401 4.7062e+01     8.1640      1.601      2.322    24.6777 0.0000e+00
      1.639      0.017     6.5940     78.946     41.701  41.433277     7.0493      7.219   250.8253 4.6736e+01     8.1889      1.608      2.332    24.6753 0.0000e+00
      1.643      0.018     6.5955     78.836     41.703  41.432228     6.9596      7.221   250.8518 4.6491e+01     8.1205      1.612      2.338    24.6763 0.0000e+00
      1.647      0.018     6.5818     78.707     41.693  41.420783     6.7890      7.221   251.0747 4.6307e+01     8.0212      1.615      2.342    24.6778 0.0000e+00
      1.650      0.018     6.5730     78.566     41.697  41.421823     6.7084      7.221   251.2828 4.6088e+01     8.0127      1.618      2.346    24.6760 0.0000e+00
      1.654      0.018     6.5603     78.462     41.722  41.444798     6.7179      7.221   251.3898 4.5801e+01     8.0853      1.622      2.352    24.6729 0.0000e+00
      1.659      0.019     6.5542     78.378     41.724  41.444704     6.7709      7.220   251.4216 4.5535e+01     8.1475      1.627      2.360    24.6701 0.0000e+00
      1.665      0.020     6.5443     78.286     41.703  41.420682     6.8659      7.219   251.4094 4.5305e+01     8.2189      1.633      2.369    24.6674 0.0000e+00
      1.671      0.020     6.5289     78.181     41.693  41.408206     6.9181      7.219   251.4142 4.5095e+01     8.2644      1.639      2.377    24.6642 0.0000e+00
      1.676      0.019     6.5230     78.046     41.708  41.420795     6.9356      7.220   251.3929 4.4936e+01     8.2882      1.644      2.385    24.6617 0.0000e+00
      1.681      0.019     6.5168     77.875     41.733  41.445954     7.0036      7.220   251.4100 4.4785e+01     8.3708      1.649      2.391    24.6603 0.0000e+00
      1.685      0.019     6.5092     77.690     41.745  41.458532     7.1148      7.220   251.4496 4.4615e+01     8.4095      1.653      2.397    24.6566 0.0000e+00
      1.689      0.019     6.5020     77.543     41.734  41.445942     7.1736      7.220   251.4415 4.4401e+01     8.3111      1.656      2.402    24.6518 0.0000e+00
      1.694      0.018     6.4914     77.463     41.714  41.420670     7.1646      7.222   251.3979 4.4121e+01     8.2066      1.661      2.409    24.6487 0.0000e+00
      1.700      0.018     6.4764     77.413     41.706  41.406824     7.1565      7.224   251.3533 4.3872e+01     8.2043      1.668      2.420    24.6494 0.0000e+00
      1.705      0.018     6.4590     77.318     41.708  41.405464     7.1922      7.226   251.3314 4.3648e+01     8.2839      1.672      2.426    24.6527 0.0000e+00
      1.709      0.018     6.4454     77.165     41.710  41.404217     7.2551      7.227   251.3910 4.3395e+01     8.3824      1.676      2.430    24.6509 0.0000e+00
      1.712      0.018     6.4411     76.994     41.702  41.391742     7.2753      7.228   251.5582 4.3097e+01     8.3712      1.679      2.435    24.6436 0.0000e+00
      1.717      0.019     6.4408     76.822     41.698  41.381555     7.2541      7.229   251.6329 4.2691e+01     8.2846      1.683      2.441    24.6350 0.0000e+00
      1.722      0.019     6.4344     76.647     41.728  41.407973     7.1649      7.230   251.5198 4.2190e+01     8.2914      1.688      2.448    24.6306 0.0000e+00
      1.728      0.019     6.4189     76.415     41.777  41.457278     7.0036      7.230   251.3951 4.1700e+01     8.3512      1.694      2.457    24.6289 0.0000e+00
      1.733      0.020     6.4062     76.103     41.784  41.469971     6.9110      7.230   251.5018 4.1263e+01     8.3929      1.701      2.467    24.6234 0.0000e+00
      1.738      0.022     6.3917     75.795     41.742  41.434521     6.8852      7.230   251.8631 4.0871e+01     8.3854      1.705      2.473    24.6137 0.0000e+00
      1.742      0.025     6.3803     75.560     41.714  41.409457     6.7671      7.226   252.2360 4.0554e+01     8.3976      1.708      2.477    24.6073 0.0000e+00
      1.745      0.027     6.3633     75.433     41.728  41.420800     6.5819      7.222   252.3972 4.0168e+01     8.5402      1.710      2.480    24.6101 0.0000e+00
      1.752      0.028     6.3309     75.412     41.756  41.444721     6.4937      7.218   252.3494 3.9434e+01     8.6410      1.715      2.489    24.6184 0.0000e+00
      1.765      0.027     6.3033     75.415     41.758  41.444816     6.4830      7.218   252.2600 3.8633e+01     8.6254      1.732      2.511    24.6279 0.0000e+00
      1.778      0.023     6.2820     75.369     41.734  41.421945     6.5110      7.218   252.2623 3.8237e+01     8.5231      1.747      2.533    24.6323 0.0000e+00
      1.784      0.018     6.2715     75.321     41.733  41.422059     6.5819      7.218   252.3778 3.8103e+01     8.3266      1.751      2.539    24.6270 0.0000e+00
      1.784      0.012     6.2734     75.332     41.757  41.446196     6.6326      7.220   252.4519 3.8090e+01     8.2301      1.751      2.539    24.6199 0.0000e+00
      1.783      0.006     6.2782     75.399     41.772  41.459920     6.6584      7.222   252.3836 3.8145e+01     8.3131      1.748      2.536    24.6173 0.0000e+00
      1.782      0.003     6.2708     75.501     41.773  41.461055     6.7194      7.225   252.3264 3.8102e+01     8.4081      1.747      2.534    24.6193 0.0000e+00
      1.782      0.003     6.2641     75.627     41.773  41.459919     6.8199      7.227   252.3628 3.7970e+01     8.3879      1.748      2.535    24.6214 0.0000e+00
      1.783      0.005     6.2661     75.772     41.761  41.446186     6.8670      7.227   252.3937 3.7804e+01     8.3077      1.748      2.536    24.6218 0.0000e+00
      1.785      0.008     6.2720     75.923     41.739  41.421946     6.8648      7.227   252.3565 3.7629e+01     8.2926      1.750      2.538    24.6213 0.0000e+00
      1.787      0.012     6.2814     76.079     41.741  41.420698     6.8766      7.228   252.3431 3.7472e+01     8.4104      1.752      2.540    24.6199 0.0000e+00
      1.790      0.016     6.2912     76.195     41.755  41.431093     6.8844      7.229   252.4038 3.7296e+01     8.5699      1.755      2.545    24.6189 0.0000e+00
      1.794      0.021     6.3052     76.176     41.747  41.420688     6.8751      7.230   252.4019 3.6987e+01     8.6155      1.758      2.549    24.6178 0.0000e+00
      1.800      0.025     6.3168     76.003     41.752  41.421823     6.8645      7.230   252.4057 3.6600e+01     8.5868      1.764      2.559    24.6156 0.0000e+00
      1.808      0.027     6.3313     75.753     41.778  41.444807     6.8644      7.231   252.5359 3.6235e+01     8.5982      1.773      2.572    24.6111 0.0000e+00
      1.816      0.027     6.3460     75.499     41.778  41.444712     6.8238      7.233   252.5995 3.5804e+01     8.7195      1.780      2.583    24.6059 0.0000e+00
      1.825      0.027     6.3454     75.270     41.751  41.420679     6.7235      7.234   252.5729 3.5414e+01     8.8572      1.791      2.598    24.6025 0.0000e+00
      1.832      0.026     6.3282     75.095     41.736  41.408090     6.6503      7.234   252.5575 3.5225e+01     8.8282      1.797      2.607    24.5988 0.0000e+00
      1.836      0.023     6.3054     75.004     41.746  41.419439     6.6295      7.234   252.4997 3.5109e+01     8.7448      1.800      2.611    24.5941 0.0000e+00
      1.841      0.021     6.2841     75.020     41.757  41.430969     6.6475      7.235   252.5621 3.4945e+01     8.7373      1.805      2.618    24.5941 0.0000e+00
      1.847      0.019     6.2636     75.122     41.749  41.420565     6.6930      7.235   252.7961 3.4781e+01     8.7037      1.811      2.627    24.5990 0.0000e+00
      1.852      0.017     6.2478     75.245     41.753  41.420574     6.7222      7.236   252.9197 3.4639e+01     8.6459      1.817      2.635    24.6014 0.0000e+00
      1.856      0.016     6.2391     75.322     41.767  41.431075     6.7175      7.238   252.8515 3.4483e+01     8.5853      1.822      2.641    24.6032 0.0000e+00
      1.860      0.014     6.2404     75.299     41.760  41.420587     6.7530      7.240   252.7470 3.4357e+01     8.5176      1.824      2.645    24.6050 0.0000e+00
      1.862      0.013     6.2523     75.192     41.761  41.420692     6.8684      7.241   252.6876 3.4252e+01     8.5450      1.826      2.649    24.6015 0.0000e+00
      1.865      0.013     6.2643     75.070     41.773  41.432343     6.9473      7.241   252.6491 3.4068e+01     8.6084      1.829      2.653    24.5956 0.0000e+00
      1.868      0.013     6.2739     74.969     41.776  41.434538     6.9489      7.242   252.6265 3.3828e+01     8.6353      1.831      2.657    24.5907 0.0000e+00
      1.871      0.013     6.2719     74.896     41.789  41.447223     6.8790      7.244   252.6732 3.3590e+01     8.7670      1.835      2.662    24.5875 0.0000e+00
      1.875      0.014     6.2596     74.834     41.800  41.458781     6.7525      7.245   252.7835 3.3282e+01     9.0064      1.838      2.667    24.5866 0.0000e+00
      1.879      0.016     6.2495     74.763     41.788  41.447348     6.6919      7.245   252.8408 3.2928e+01     9.2073      1.843      2.673    24.5866 0.0000e+00
      1.882      0.018     6.2402     74.683     41.775  41.435922     6.7121      7.245   252.8505 3.2623e+01     9.3168      1.846      2.677    24.5857 0.0000e+00
      1.885      0.020     6.2354     74.619     41.786  41.447564     6.8052      7.246   252.8141 3.2253e+01     9.3736      1.848      2.680    24.5848 0.0000e+00
      1.892      0.020     6.2308     74.621     41.800  41.461184     6.9517      7.247   252.7443 3.1809e+01     9.4165      1.855      2.691    24.5856 0.0000e+00
      1.899      0.019     6.2245     74.682     41.815  41.473669     7.0191      7.247   252.7815 3.1412e+01     9.4253      1.864      2.703    24.5869 0.0000e+00
      1.905      0.018     6.2177     74.767     41.815  41.471580     7.0294      7.248   252.8340 3.1087e+01     9.4458      1.869      2.710    24.5884 0.0000e+00
      1.910      0.017     6.2092     74.847     41.781  41.435923     7.0512      7.249   252.8623 3.0861e+01     9.4936      1.874      2.718    24.5893 0.0000e+00
      1.913      0.015     6.2101     74.841     41.768  41.423336     7.0080      7.250   252.9518 3.0724e+01     9.5247      1.876      2.721    24.5887 0.0000e+00
      1.914      0.013     6.2175     74.709     41.789  41.446330     6.8905      7.250   252.9688 3.0626e+01     9.5140      1.876      2.721    24.5870 0.0000e+00
      1.916      0.013     6.2240     74.529     41.803  41.460075     6.8122      7.251   252.9825 3.0491e+01     9.4666      1.878      2.725    24.5839 0.0000e+00
      1.921      0.012     6.2348     74.377     41.807  41.462594     6.8104      7.251   253.0317 3.0321e+01     9.4645      1.884      2.732    24.5808 0.0000e+00
      1.925      0.012     6.2364     74.266     41.823  41.476784     6.8684      7.251   252.9618 3.0195e+01     9.4875      1.888      2.738    24.5813 0.0000e+00
      1.929      0.012     6.2212     74.185     41.853  41.504702     6.9554      7.251   252.9109 3.0089e+01     9.5065      1.892      2.745    24.5840 0.0000e+00
      1.932      0.012     6.2033     74.102     41.897  41.546283     6.9889      7.252   252.9324 2.9986e+01     9.5235      1.894      2.747    24.5843 0.0000e+00
      1.933      0.012     6.1916     73.980     41.952  41.598738     6.9746      7.254   252.9644 2.9898e+01     9.4876      1.895      2.749    24.5824 0.0000e+00
      1.935      0.012     6.1826     73.811     41.988  41.631185     7.0154      7.256   252.9525 2.9765e+01     9.4831      1.897      2.752    24.5800 0.0000e+00
      1.938      0.011     6.1772     73.594     42.047  41.684717     7.1155      7.258   252.8753 2.9539e+01     9.5036      1.900      2.756    24.5778 0.0000e+00
      1.943      0.011     6.1719     73.250     42.170  41.801715     7.1772      7.259   252.8918 2.9303e+01     9.4956      1.905      2.763    24.5759 0.0000e+00
      1.947      0.011     6.1621     72.677     42.279  41.903360     7.1789      7.260   252.9785 2.9145e+01     9.4888      1.910      2.770    24.5732 0.0000e+00
      1.949      0.012     6.1477     71.880     42.347  41.961677     7.1860      7.261   252.9772 2.9001e+01     9.5580      1.912      2.773    24.5700 0.0000e+00
      1.951      0.013     6.1323     70.898     42.396  41.999060     7.2380      7.262   252.9630 2.8810e+01     9.7861      1.913      2.775    24.5641 0.0000e+00
      1.952      0.015     6.1099     69.718     42.384  41.974521     7.2829      7.262   252.9786 2.8555e+01     9.9583      1.914      2.776    24.5582 0.0000e+00
      1.956      0.018     6.0609     68.320     42.335  41.918841     7.2965      7.264   252.9932 2.8200e+01    10.0005      1.916      2.780    24.5509 0.0000e+00
      1.962      0.020     5.9941     66.753     42.313  41.897046     7.3355      7.265   253.0545 2.7751e+01    10.2271      1.923      2.789    24.5393 0.0000e+00
      1.970      0.022     5.9150     65.222     42.312  41.901401     7.3970      7.265   253.0309 2.7326e+01    10.6491      1.932      2.802    24.5273 0.0000e+00
      1.977      0.022     5.8186     63.997     42.313  41.908036     7.4325      7.265   252.9660 2.7000e+01    10.9016      1.940      2.813    24.5098 0.0000e+00
      1.983      0.021     5.7041     63.291     42.314  41.913804     7.4480      7.266   252.9576 2.6714e+01    10.9574      1.946      2.821    24.4975 0.0000e+00
      1.987      0.020     5.5653     63.149     42.371  41.971149     7.4600      7.266   252.9302 2.6442e+01    10.9819      1.949      2.827    24.5010 0.0000e+00
      1.990      0.019     5.4286     63.414     42.498  42.093648     7.5520      7.266   252.8930 2.6204e+01    11.3339      1.951      2.830    24.5086 0.0000e+00
      1.994      0.018     5.3188     63.863     42.605  42.189017     7.7288      7.267   252.8525 2.5962e+01    12.0711      1.955      2.835    24.5165 0.0000e+00
      2.000      0.018     5.2572     64.293     42.666  42.235663     7.8336      7.268   252.8703 2.5675e+01    12.5165      1.961      2.845    24.5221 0.0000e+00
      2.006      0.017     5.2517     64.509     42.782  42.340278     7.8698      7.268   252.9367 2.5420e+01    12.6200      1.968      2.855    24.5243 0.0000e+00
      2.011      0.016     5.2805     64.263     43.019  42.565327     8.0173      7.269   252.9672 2.5256e+01    12.8785      1.973      2.862    24.5216 0.0000e+00
      2.014      0.015     5.3258     63.462     43.274  42.798700     8.2599      7.270   252.9805 2.5125e+01    13.2513      1.975      2.865    24.5070 0.0000e+00
      2.016      0.014     5.3672     62.247     43.440  42.940480     8.3733      7.269   252.9251 2.4985e+01    13.4040      1.977      2.867    24.4880 0.0000e+00
      2.019      0.013     5.3957     60.644     43.591  43.073588     8.3900      7.269   252.8136 2.4818e+01    13.4608      1.980      2.872    24.4778 0.0000e+00
      2.023      0.013     5.3811     58.485     43.733  43.202104     8.5029      7.271   252.7509 2.4609e+01    13.6649      1.984      2.877    24.4718 0.0000e+00
      2.027      0.014     5.3068     55.702     43.836  43.288365     8.6808      7.273   252.6838 2.4384e+01    13.9244      1.988      2.883    24.4476 0.0000e+00
      2.031      0.014     5.2079     52.519     43.925  43.354880     8.7680      7.273   252.6035 2.4195e+01    14.0364      1.993      2.890    24.4150 0.0000e+00
      2.035      0.013     5.0835     49.297     43.963  43.371571     8.7758      7.274   252.5541 2.4055e+01    14.0293      1.995      2.894    24.3989 0.0000e+00
      2.038      0.012     4.9074     46.231     43.967  43.363198     8.9331      7.275   252.5174 2.3935e+01    14.4870      1.998      2.898    24.3892 0.0000e+00
      2.040      0.010     4.6690     43.431     43.998  43.380564     9.2382      7.278   252.5030 2.3790e+01    15.3686      2.001      2.902    24.3745 0.0000e+00
      2.043      0.010     4.3903     41.019     44.095  43.454584     9.4017      7.280   252.5525 2.3624e+01    15.8409      2.004      2.905    24.3444 0.0000e+00
      2.045      0.009     4.1204     39.123     44.225  43.559926     9.4528      7.281   252.6001 2.3494e+01    15.9280      2.006      2.910    24.3148 0.0000e+00
      2.047      0.009     3.8617     37.894     44.320  43.638646     9.9231      7.283   252.5616 2.3398e+01    16.4213      2.008      2.912    24.3070 0.0000e+00
      2.049      0.009     3.6229     37.271     44.398  43.708141    10.7941      7.283   252.5179 2.3293e+01    17.3646      2.009      2.914    24.2985 0.0000e+00
      2.052      0.009     3.4223     36.952     44.462  43.765445    11.2857      7.284   252.5015 2.3201e+01    17.9405      2.012      2.919    24.2691 0.0000e+00
      2.054      0.010     3.2564     36.656     44.525  43.823705    11.3469      7.286   252.4504 2.3128e+01    18.0554      2.014      2.921    24.2359 0.0000e+00
      2.057      0.011     3.1565     36.269     44.616  43.904747    11.4350      7.287   252.4152 2.3068e+01    18.2074      2.017      2.925    24.2234 0.0000e+00
      2.059      0.011     3.1159     35.780     44.718  43.983611    12.4176      7.289   252.4204 2.3055e+01    20.1541      2.020      2.929    24.2177 0.0000e+00
      2.062      0.011     3.0988     35.194     44.845  44.078990    14.2379      7.290   252.3409 2.3057e+01    23.8631      2.022      2.933    24.2084 0.0000e+00
      2.066      0.011     3.0770     34.500     44.966  44.169275    15.2494      7.292   252.2297 2.3026e+01    25.9906      2.027      2.939    24.2084 0.0000e+00
      2.069      0.011     3.0432     33.612     45.070  44.250016    15.3427      7.294   252.1935 2.2986e+01    26.7480      2.029      2.943    24.2033 0.0000e+00
      2.072      0.011     3.0053     32.547     45.193  44.356957    15.1580      7.294   252.2471 2.2957e+01    32.4405      2.032      2.947    24.1775 0.0000e+00
      2.074      0.010     2.9556     31.458     45.360  44.510142    14.7891      7.294   252.3613 2.2925e+01    42.7927      2.034      2.951    24.1407 0.0000e+00
      2.076      0.009     2.9048     30.383     45.567  44.705664    14.5777      7.295   252.3706 2.2892e+01    48.5493      2.036      2.952    24.1045 0.0000e+00
      2.079      0.009     2.8324     29.284     45.748  44.880150    14.5164      7.297   252.2733 2.2865e+01    50.2231      2.039      2.957    24.0802 0.0000e+00
      2.081      0.008     2.7338     28.142     45.971  45.096372    14.0814      7.298   252.2169 2.2839e+01    62.7237      2.041      2.961    24.0687 0.0000e+00
      2.083      0.007     2.6448     26.959     46.239  45.352157    13.2796      7.299   252.2914 2.2808e+01    85.5321      2.043      2.963    24.0573 0.0000e+00
      2.085      0.006     2.5558     25.769     46.394  45.497137    12.8283      7.301   252.3137 2.2779e+01    98.0176      2.045      2.967    24.0467 0.0000e+00
      2.086      0.005     2.4637     24.567     46.412  45.516252    12.7042      7.302   252.2287 2.2744e+01    99.9679      2.046      2.968    24.0455 0.0000e+00
      2.087      0.004     2.3689     23.381     46.337  45.456307    11.8626      7.303   252.2102 2.2702e+01   109.2484      2.047      2.968    24.0453 0.0000e+00
      2.089      0.004     2.2664     22.328     46.203  45.343689    10.3346      7.304   252.1762 2.2652e+01   126.0931      2.048      2.970    24.0356 0.0000e+00
      2.089      0.003     2.1691     21.553     46.006  45.170303     9.5021      7.304   252.1613 2.2597e+01   135.2991      2.049      2.971    24.0229 0.0000e+00
      2.090      0.002     2.0667     21.108     45.825  45.010379     9.4201      7.305   252.2015 2.2562e+01   136.2851      2.050      2.972    24.0243 0.0000e+00
      2.090      0.002     1.9629     20.943     45.802  44.997051     9.3275      7.307   252.2323 2.2536e+01   138.4936      2.050      2.973    24.0424 0.0000e+00
      2.091      0.002     1.8682     21.057     45.880  45.072642     9.1730      7.310   252.2763 2.2512e+01   142.5314      2.051      2.974    24.0646 0.0000e+00
      2.091      0.001     1.8000     21.518     45.920  45.099134     9.1075      7.312   252.3019 2.2487e+01   144.7972      2.050      2.974    24.0873 0.0000e+00
      2.091      0.001     1.7662     22.361     45.902  45.063428     9.1187      7.312   252.2844 2.2454e+01   145.0862      2.051      2.974    24.1089 0.0000e+00
      2.092      0.001     1.7510     23.496     45.877  45.021768     9.0926      7.313   252.3228 2.2422e+01   145.2057      2.051      2.975    24.1202 0.0000e+00
      2.092      0.001     1.7581     24.710     45.842  44.976275     8.8743      7.314   252.4217 2.2387e+01   146.3111      2.052      2.976    24.1177 0.0000e+00
      2.092      0.001     1.7954     25.736     45.827  44.957706     8.5028      7.314   252.4486 2.2347e+01   148.4767      2.051      2.975    24.1025 0.0000e+00
      2.092      0.001     1.8698     26.421     45.853  44.987684     8.2954      7.315   252.4751 2.2299e+01   149.7669      2.051      2.975    24.0801 0.0000e+00
      2.092      0.001     1.9723     26.795     45.873  45.021350     8.1896      7.317   252.4851 2.2264e+01   150.2628      2.051      2.975    24.0595 0.0000e+00
      2.093      0.001     2.0842     26.947     45.876  45.047385     7.2406      7.318   252.3974 2.2222e+01   153.8570      2.052      2.977    24.0473 0.0000e+00
      2.094      0.001     2.1763     26.949     45.847  45.048593     5.5019      7.319   252.3609 2.2149e+01   160.3967      2.053      2.978    24.0433 0.0000e+00
      2.094      0.001     2.2309     26.883     45.807  45.035995     4.5540      7.320   252.3024 2.2076e+01   163.9870      2.053      2.978    24.0470 0.0000e+00
      2.094      0.001     2.2587     26.831     45.777  45.022070     4.4437      7.322   252.2058 2.2021e+01   164.5077      2.054      2.979    24.0618 0.0000e+00
      2.094      0.000     2.2689     26.840     45.759  45.007196     4.1270      7.324   252.2252 2.1964e+01   166.0779      2.054      2.979    24.0880 0.0000e+00
      2.094      0.000     2.2651     26.929     45.740  44.983117     3.5633      7.325   252.1923 2.1897e+01   168.7621      2.053      2.977    24.1237 0.0000e+00
      2.094      0.000     2.2551     27.065     45.687  44.921359     3.2452      7.325   252.1528 2.1828e+01   170.1803      2.054      2.978    24.1576 0.0000e+00
      2.094      0.001     2.2491     27.176     45.673  44.895253     3.1771      7.326   252.2643 2.1764e+01   170.2791      2.053      2.979    24.1758 0.0000e+00
      2.094      0.001     2.2490     27.207     45.711  44.921363     2.9400      7.327   252.3350 2.1700e+01   170.3668      2.053      2.978    24.1755 0.0000e+00
      2.095      0.001     2.2575     27.130     45.713  44.919651     2.5178      7.328   252.4054 2.1621e+01   170.5563      2.054      2.979    24.1687 0.0000e+00
      2.095      0.001     2.2723     26.957     45.731  44.938027     2.2846      7.329   252.5130 2.1542e+01   170.6242      2.054      2.980    24.1592 0.0000e+00
      2.095      0.001     2.2837     26.741     45.813  45.016589     2.2587      7.329   252.4315 2.1486e+01   170.5726      2.055      2.981    24.1417 0.0000e+00
      2.095      0.001     2.2878     26.526     45.913  45.107796     2.1381      7.330   252.2809 2.1441e+01   170.6848      2.054      2.980    24.1263 0.0000e+00
      2.095      0.001     2.2816     26.422     45.963  45.152091     2.0249      7.331   252.2400 2.1415e+01   170.8184      2.054      2.979    24.1254 0.0000e+00
      2.096 -9.990e-29     2.2639 -9.990e-29 -9.990e-29 -9.990e-29 -9.990e-29 -9.990e-29 -9.990e-29 2.1404e+01 -9.990e-29      2.055      2.981    24.1279 0.0000e+00
      2.096 -9.990e-29     2.2463 -9.990e-29 -9.990e-29 -9.990e-29 -9.990e-29 -9.990e-29 -9.990e-29 2.1371e+01 -9.990e-29      2.055      2.981    24.1273 0.0000e+00
      2.096 -9.990e-29     2.2253 -9.990e-29 -9.990e-29 -9.990e-29 -9.990e-29 -9.990e-29 -9.990e-29 2.1297e+01 -9.990e-29      2.055      2.981    24.1173 0.0000e+00
      2.096 -9.990e-29     2.2104 -9.990e-29 -9.990e-29 -9.990e-29 -9.990e-29 -9.990e-29 -9.990e-29 2.1249e+01 -9.990e-29      2.056      2.982    24.1060 0.0000e+00
