* Sea-Bird SBE19plus  Data File:
* FileName = C:\R\Reservoirs\Data\DataNotYetUploadedToEDI\Raw_CTD\RawDownloads\081324_fcr50_S7809_0004.hex
* Software version 2.8.0.119
* Temperature SN = 7809
* Conductivity SN = 7809
* System UpLoad Time = Aug 13 2024 13:55:40
* <ApplicationData>
* <Seaterm232>
* <SoftwareVersion>2.8.0.119</SoftwareVersion>
* <BuildDate>07-Nov-2018</BuildDate>
* </Seaterm232>
* </ApplicationData>
* <InstrumentState>
* <HardwareData DeviceType='SBE19plus' SerialNumber='01907809'>
*
*    <Manufacturer>Sea-Bird Electronics, Inc.</Manufacturer>
*
*    <FirmwareVersion>3.1.8</FirmwareVersion>
*
*    <FirmwareDate>Mar  9 2016 16:22:29</FirmwareDate>
*
*    <CommandSetVersion>1.4</CommandSetVersion>
*
*    <PCBAssembly PCBSerialNum='120721' AssemblyNum='41054J'/>
*
*    <PCBAssembly PCBSerialNum='120715' AssemblyNum='41967A'/>
*
*    <PCBAssembly PCBSerialNum='116699' AssemblyNum='41606'/>
*
*    <PCBAssembly PCBSerialNum='120719' AssemblyNum='41059D'/>
*
*    <MfgDate>28-Apr-2017</MfgDate>
*
*    <InternalSensors>
*
*       <Sensor id='Main Temperature'>
*
*          <type>temperature0</type>
*
*          <SerialNumber>01907809</SerialNumber>
*
*       </Sensor>
*
*       <Sensor id='Main Conductivity'>
*
*          <type>conductivity-0</type>
*
*          <SerialNumber>01907809</SerialNumber>
*
*       </Sensor>
*
*       <Sensor id='Main Pressure'>
*
*          <type>strain-0</type>
*
*          <SerialNumber>10586018</SerialNumber>
*
*       </Sensor>
*
*    </InternalSensors>
*
*    <ExternalSensors>
*
*       <Sensor id='volt 0'>
*
*          <type>pH</type>
*
*          <SerialNumber>27-0363</SerialNumber>
*
*       </Sensor>
*
*       <Sensor id='volt 1'>
*
*          <type>ORP</type>
*
*          <SerialNumber>27-0363</SerialNumber>
*
*       </Sensor>
*
*       <Sensor id='volt 2'>
*
*          <type>OXY</type>
*
*          <SerialNumber>43-0434</SerialNumber>
*
*       </Sensor>
*
*       <Sensor id='volt 3'>
*
*          <type>PAR</type>
*
*          <SerialNumber>1122</SerialNumber>
*
*       </Sensor>
*
*       <Sensor id='volt 4'>
*
*          <type>ECO AFL/FL</type>
*
*          <SerialNumber>FLNTURT-2496</SerialNumber>
*
*       </Sensor>
*
*       <Sensor id='volt 5'>
*
*          <type>ECO-NTU</type>
*
*          <SerialNumber>FLNTURT-2496</SerialNumber>
*
*       </Sensor>
*
*       <Sensor id='serial'>
*
*          <type>not assigned</type>
*
*          <SerialNumber>not assigned</SerialNumber>
*
*       </Sensor>
*
*    </ExternalSensors>
*
* </HardwareData>
* <StatusData DeviceType='SBE19plus' SerialNumber='01907809'>
*
*    <DateTime>2024-08-13T13:53:31</DateTime>
*
*    <LoggingState>not logging</LoggingState>
*
*    <EventSummary numEvents='0'/>
*
*    <Power>
*
*       <vMain>12.5</vMain>
*
*       <vLith>8.3</vLith>
*
*       <iMain>63.0</iMain>
*
*       <iPump>102.4</iPump>
*
*       <iExt01>20.8</iExt01>
*
*       <iExt2345>38.8</iExt2345>
*
*    </Power>
*
*    <MemorySummary>
*
*       <Bytes>139610</Bytes>
*
*       <Samples>6070</Samples>
*
*       <SamplesFree>2854718</SamplesFree>
*
*       <SampleLength>23</SampleLength>
*
*       <Profiles>6</Profiles>
*
*    </MemorySummary>
*
* </StatusData>
* <ConfigurationData DeviceType='SBE19plus' SerialNumber='01907809'>
*
*    <ProfileMode>
*
*       <ScansToAverage>1</ScansToAverage>
*
*       <MinimumCondFreq>0</MinimumCondFreq>
*
*       <PumpDelay>45</PumpDelay>
*
*       <AutoRun>no</AutoRun>
*
*       <IgnoreSwitch>no</IgnoreSwitch>
*
*    </ProfileMode>
*
*    <Battery>
*
*       <Type>alkaline</Type>
*
*       <CutOff>7.5</CutOff>
*
*    </Battery>
*
*    <DataChannels>
*
*       <ExtVolt0>yes</ExtVolt0>
*
*       <ExtVolt1>yes</ExtVolt1>
*
*       <ExtVolt2>yes</ExtVolt2>
*
*       <ExtVolt3>yes</ExtVolt3>
*
*       <ExtVolt4>yes</ExtVolt4>
*
*       <ExtVolt5>yes</ExtVolt5>
*
*       <SBE38>no</SBE38>
*
*       <WETLABS>no</WETLABS>
*
*       <OPTODE>no</OPTODE>
*
*       <SBE63>no</SBE63>
*
*       <SeaFET>no</SeaFET>
*
*       <GTD>no</GTD>
*
*    </DataChannels>
*
*    <EchoCharacters>yes</EchoCharacters>
*
*    <OutputExecutedTag>yes</OutputExecutedTag>
*
*    <OutputFormat>raw HEX</OutputFormat>
*
* </ConfigurationData>
* <CalibrationCoefficients DeviceType='SBE19plus' SerialNumber='01907809'>
*
*    <Calibration format='TEMP1' id='Main Temperature'>
*
*       <SerialNum>01907809</SerialNum>
*
*       <CalDate>31-Jan-23</CalDate>
*
*       <TA0>1.218232e-03</TA0>
*
*       <TA1>2.815090e-04</TA1>
*
*       <TA2>-1.578887e-06</TA2>
*
*       <TA3>1.972343e-07</TA3>
*
*       <TOFFSET>0.000000e+00</TOFFSET>
*
*    </Calibration>
*
*    <Calibration format='WBCOND0' id='Main Conductivity'>
*
*       <SerialNum>01907809</SerialNum>
*
*       <CalDate>31-Jan-23</CalDate>
*
*       <G>-1.005652e+00</G>
*
*       <H>1.267963e-01</H>
*
*       <I>-1.561708e-04</I>
*
*       <J>2.645944e-05</J>
*
*       <CPCOR>-9.570000e-08</CPCOR>
*
*       <CTCOR>3.250000e-06</CTCOR>
*
*       <CSLOPE>1.000000e+00</CSLOPE>
*
*    </Calibration>
*
*    <Calibration format='STRAIN0' id='Main Pressure'>
*
*       <SerialNum>10586018</SerialNum>
*
*       <CalDate>20-Jan-23</CalDate>
*
*       <PA0>4.416439e-02</PA0>
*
*       <PA1>4.850502e-04</PA1>
*
*       <PA2>-3.090426e-12</PA2>
*
*       <PTCA0>5.254757e+05</PTCA0>
*
*       <PTCA1>1.050255e+01</PTCA1>
*
*       <PTCA2>-2.922435e-01</PTCA2>
*
*       <PTCB0>2.516687e+01</PTCB0>
*
*       <PTCB1>3.750000e-04</PTCB1>
*
*       <PTCB2>0.000000e+00</PTCB2>
*
*       <PTEMPA0>-5.470820e+01</PTEMPA0>
*
*       <PTEMPA1>5.485421e+01</PTEMPA1>
*
*       <PTEMPA2>-3.446578e-01</PTEMPA2>
*
*       <POFFSET>8.500000e-01</POFFSET>
*
*       <PRANGE>1.600000e+02</PRANGE>
*
*    </Calibration>
*
*    <Calibration format='VOLT0' id='Volt 0'>
*
*       <OFFSET>-4.920000e-02</OFFSET>
*
*       <SLOPE>1.248122e+00</SLOPE>
*
*    </Calibration>
*
*    <Calibration format='VOLT0' id='Volt 1'>
*
*       <OFFSET>-4.784000e-02</OFFSET>
*
*       <SLOPE>1.248871e+00</SLOPE>
*
*    </Calibration>
*
*    <Calibration format='VOLT0' id='Volt 2'>
*
*       <OFFSET>-4.864632e-02</OFFSET>
*
*       <SLOPE>1.248714e+00</SLOPE>
*
*    </Calibration>
*
*    <Calibration format='VOLT0' id='Volt 3'>
*
*       <OFFSET>-4.743790e-02</OFFSET>
*
*       <SLOPE>1.248571e+00</SLOPE>
*
*    </Calibration>
*
*    <Calibration format='VOLT0' id='Volt 4'>
*
*       <OFFSET>-4.671263e-02</OFFSET>
*
*       <SLOPE>1.248951e+00</SLOPE>
*
*    </Calibration>
*
*    <Calibration format='VOLT0' id='Volt 5'>
*
*       <OFFSET>-4.871053e-02</OFFSET>
*
*       <SLOPE>1.249136e+00</SLOPE>
*
*    </Calibration>
*
*    <Calibration format='FREQ0' id='external frequency channel'>
*
*       <EXTFREQSF>1.000014e+00</EXTFREQSF>
*
*    </Calibration>
*
* </CalibrationCoefficients>
* <EventCounters DeviceType='SBE19plus' SerialNumber='01907809'>
*
*    <EventSummary numEvents='0'/>
*
* </EventCounters></InstrumentState>
* <Headers>
*
* cast   4 12 Aug 2024 10:53:14 samples 2564 to 3600, avg = 1, stop = mag switch
*
# nquan = 15
# nvalues = 816                         
# units = specified
# name 0 = depFM: Depth [fresh water, m]
# name 1 = dz/dtM: Descent Rate [m/s]
# name 2 = sbeox0Mg/L: Oxygen, SBE 43 [mg/l]
# name 3 = sbeox0PS: Oxygen, SBE 43 [% saturation]
# name 4 = specc: Specific Conductance [uS/cm]
# name 5 = c0uS/cm: Conductivity [uS/cm]
# name 6 = flECO-AFL: Fluorescence, WET Labs ECO-AFL/FL [mg/m^3]
# name 7 = ph: pH
# name 8 = orp: Oxidation Reduction Potential [mV]
# name 9 = par/sat/log: PAR/Logarithmic, Satlantic
# name 10 = turbWETntu0: Turbidity, WET Labs ECO [NTU]
# name 11 = prdM: Pressure, Strain Gauge [db]
# name 12 = prdE: Pressure, Strain Gauge [psi]
# name 13 = tv290C: Temperature [ITS-90, deg C]
# name 14 = flag:  0.000e+00
# span 0 =     -0.533,      3.398       
# span 1 =     -0.044,      0.262       
# span 2 =     0.1094,     8.1358       
# span 3 =      1.152,     98.721       
# span 4 =     40.804,    113.024       
# span 5 =  40.765930,  95.508736       
# span 6 =    -0.0673,    25.1501       
# span 7 =      7.247,      7.635       
# span 8 =  -162.0961,   250.8344       
# span 9 = 1.2360e-01, 9.7665e+02       
# span 10 =    -0.2932,   154.4740      
# span 11 =     -0.529,      3.334      
# span 12 =     -0.767,      4.835      
# span 13 =    17.0627,    25.2853      
# span 14 = 0.0000e+00, 0.0000e+00      
# interval = seconds: 0.25
# start_time = Aug 12 2024 10:53:14 [Instrument's time stamp, header]
# bad_flag = -9.990e-29
# <Sensors count="9" >
#   <sensor Channel="1" >
#     <!-- Count, Temperature -->
#     <TemperatureSensor SensorID="58" >
#       <SerialNumber>7809</SerialNumber>
#       <CalibrationDate>31-Jan-23</CalibrationDate>
#       <A0>1.21823180e-003</A0>
#       <A1>2.81508993e-004</A1>
#       <A2>-1.57888696e-006</A2>
#       <A3>1.97234302e-007</A3>
#       <Slope>1.00000000</Slope>
#       <Offset>0.0000</Offset>
#     </TemperatureSensor>
#   </sensor>
#   <sensor Channel="2" >
#     <!-- Frequency 0, Conductivity -->
#     <ConductivitySensor SensorID="3" >
#       <SerialNumber>7809</SerialNumber>
#       <CalibrationDate>31-Jan-23</CalibrationDate>
#       <UseG_J>1</UseG_J>
#       <!-- Cell const and series R are applicable only for wide range sensors. -->
#       <SeriesR>0.0000</SeriesR>
#       <CellConst>2000.0000</CellConst>
#       <ConductivityType>0</ConductivityType>
#       <Coefficients equation="0" >
#         <A>0.00000000e+000</A>
#         <B>0.00000000e+000</B>
#         <C>0.00000000e+000</C>
#         <D>0.00000000e+000</D>
#         <M>0.0</M>
#         <CPcor>-9.57000000e-008</CPcor>
#       </Coefficients>
#       <Coefficients equation="1" >
#         <G>-1.00565232e+000</G>
#         <H>1.26796307e-001</H>
#         <I>-1.56170788e-004</I>
#         <J>2.64594368e-005</J>
#         <CPcor>-9.57000000e-008</CPcor>
#         <CTcor>3.2500e-006</CTcor>
#         <!-- WBOTC not applicable unless ConductivityType = 1. -->
#         <WBOTC>0.00000000e+000</WBOTC>
#       </Coefficients>
#       <Slope>1.00000000</Slope>
#       <Offset>0.00000</Offset>
#     </ConductivitySensor>
#   </sensor>
#   <sensor Channel="3" >
#     <!-- Count, Pressure, Strain Gauge -->
#     <PressureSensor SensorID="46" >
#       <SerialNumber>7809</SerialNumber>
#       <CalibrationDate>20-Jan-23</CalibrationDate>
#       <PA0>4.41643944e-002</PA0>
#       <PA1>4.85050239e-004</PA1>
#       <PA2>-3.09042623e-012</PA2>
#       <PTEMPA0>-5.47081996e+001</PTEMPA0>
#       <PTEMPA1>5.48542136e+001</PTEMPA1>
#       <PTEMPA2>-3.44657813e-001</PTEMPA2>
#       <PTCA0>5.25475731e+005</PTCA0>
#       <PTCA1>1.05025484e+001</PTCA1>
#       <PTCA2>-2.92243463e-001</PTCA2>
#       <PTCB0>2.51668750e+001</PTCB0>
#       <PTCB1>3.75000000e-004</PTCB1>
#       <PTCB2>0.00000000e+000</PTCB2>
#       <Offset>0.000000</Offset>
#     </PressureSensor>
#   </sensor>
#   <sensor Channel="4" >
#     <!-- A/D voltage 0, Oxygen, SBE 43 -->
#     <OxygenSensor SensorID="38" >
#       <SerialNumber>0434</SerialNumber>
#       <CalibrationDate>18-Feb-23</CalibrationDate>
#       <Use2007Equation>1</Use2007Equation>
#       <CalibrationCoefficients equation="0" >
#         <!-- Coefficients for Owens-Millard equation. -->
#         <Boc>0.0000</Boc>
#         <Soc>0.0000e+000</Soc>
#         <offset>0.0000</offset>
#         <Pcor>0.00e+000</Pcor>
#         <Tcor>0.0000</Tcor>
#         <Tau>0.0</Tau>
#       </CalibrationCoefficients>
#       <CalibrationCoefficients equation="1" >
#         <!-- Coefficients for Sea-Bird equation - SBE calibration in 2007 and later. -->
#         <Soc>5.1878e-001</Soc>
#         <offset>-0.5046</offset>
#         <A>-4.2788e-003</A>
#         <B> 1.5372e-004</B>
#         <C>-2.1853e-006</C>
#         <D0> 2.5826e+000</D0>
#         <D1> 1.92634e-004</D1>
#         <D2>-4.64803e-002</D2>
#         <E> 3.6000e-002</E>
#         <Tau20> 0.9900</Tau20>
#         <H1>-3.3000e-002</H1>
#         <H2> 5.0000e+003</H2>
#         <H3> 1.4500e+003</H3>
#       </CalibrationCoefficients>
#     </OxygenSensor>
#   </sensor>
#   <sensor Channel="5" >
#     <!-- A/D voltage 1, PAR/Logarithmic, Satlantic -->
#     <PARLog_SatlanticSensor SensorID="76" >
#       <SerialNumber>1122</SerialNumber>
#       <CalibrationDate>08-Sep-2021</CalibrationDate>
#       <a0>9.6751e-001</a0>
#       <a1>8.0992e-001</a1>
#       <Im>1.3589e+000</Im>
#       <Multiplier>1.0000e+000</Multiplier>
#     </PARLog_SatlanticSensor>
#   </sensor>
#   <sensor Channel="6" >
#     <!-- A/D voltage 2, pH -->
#     <pH_Sensor SensorID="43" >
#       <SerialNumber>0363</SerialNumber>
#       <CalibrationDate>28-Feb-23</CalibrationDate>
#       <Slope>4.7364</Slope>
#       <Offset>2.5433</Offset>
#     </pH_Sensor>
#   </sensor>
#   <sensor Channel="7" >
#     <!-- A/D voltage 3, Oxidation Reduction Potential -->
#     <OxidationReductionPotentialSensor SensorID="41" >
#       <SerialNumber>0363</SerialNumber>
#       <CalibrationDate>28-Feb-23</CalibrationDate>
#       <B>2.499480</B>
#       <M>-0.496195</M>
#       <Offset>0.0</Offset>
#     </OxidationReductionPotentialSensor>
#   </sensor>
#   <sensor Channel="8" >
#     <!-- A/D voltage 4, Fluorometer, WET Labs ECO-AFL/FL -->
#     <FluoroWetlabECO_AFL_FL_Sensor SensorID="20" >
#       <SerialNumber>FLNTURT-2496</SerialNumber>
#       <CalibrationDate>02-Sep-2021</CalibrationDate>
#       <ScaleFactor>4.80000000e+001</ScaleFactor>
#       <!-- Dark output -->
#       <Vblank>0.0550</Vblank>
#     </FluoroWetlabECO_AFL_FL_Sensor>
#   </sensor>
#   <sensor Channel="9" >
#     <!-- A/D voltage 5, Turbidity Meter, WET Labs, ECO-NTU -->
#     <TurbidityMeter SensorID="67" >
#       <SerialNumber>FLNTURT--2496</SerialNumber>
#       <CalibrationDate>02-Sep-2021</CalibrationDate>
#       <ScaleFactor>197.000000</ScaleFactor>
#       <!-- Dark output -->
#       <DarkVoltage>0.070000</DarkVoltage>
#     </TurbidityMeter>
#   </sensor>
# </Sensors>
# datcnv_date = Aug 13 2024 14:15:50, 7.26.7.129 [datcnv_vars = 14]
# datcnv_in = C:\R\Reservoirs\Data\DataNotYetUploadedToEDI\Raw_CTD\RawDownloads\081224_fcr30_S7809004.hex C:\R\Reservoirs\Data\DataNotYetUploadedToEDI\Raw_CTD\RawDownloads\SBE19plusV2_7809_start20230701.xmlcon
# datcnv_skipover = 0
# datcnv_ox_hysteresis_correction = yes
# datcnv_ox_tau_correction = yes
# filter_date = Aug 13 2024 14:17:34, 7.26.7.129
# filter_in = C:\R\Reservoirs\Data\DataNotYetUploadedToEDI\Raw_CTD\RawDownloads\081224_fcr30_S7809004.cnv
# filter_low_pass_tc_A = 0.030
# filter_low_pass_tc_B = 0.150
# filter_low_pass_A_vars = sbeox0Mg/L prdM prdE tv290C
# filter_low_pass_B_vars = depFM dz/dtM sbeox0PS specc c0uS/cm flECO-AFL ph orp par/sat/log turbWETntu0
# alignctd_date = Aug 13 2024 14:18:06, 7.26.7.129
# alignctd_in = C:\R\Reservoirs\Data\DataNotYetUploadedToEDI\Raw_CTD\RawDownloads\081224_fcr30_S7809004.cnv
# alignctd_adv = dz/dtM 1.000, sbeox0PS 1.000, specc 1.000, c0uS/cm 1.000, flECO-AFL 1.000, ph 1.000, orp 1.000, turbWETntu0 1.000                                                                                                   
# file_type = ascii
*END*
     -0.533      0.059     7.8303     94.095     41.295  41.391835     3.1503      7.499   175.2062 8.5557e+02     7.6218     -0.529     -0.767    24.4932 0.0000e+00
     -0.515      0.084     7.7933     94.443     41.372  41.511760     3.1653      7.479   175.3616 8.8778e+02     7.6178     -0.509     -0.739    24.7260 0.0000e+00
     -0.487      0.108     7.7702     94.895     41.409  41.583376     3.1785      7.453   175.3434 9.2464e+02     7.6234     -0.478     -0.695    24.9320 0.0000e+00
     -0.453      0.131     7.7503     95.371     41.421  41.623117     3.3267      7.431   175.4162 9.5221e+02     7.6213     -0.446     -0.647    25.0427 0.0000e+00
     -0.413      0.153     7.7487     95.732     41.390  41.611509     3.6181      7.407   175.8117 9.7062e+02     7.6608     -0.406     -0.589    25.1217 0.0000e+00
     -0.372      0.173     7.7793     96.024     41.336  41.569981     3.7969      7.379   176.4255 9.7665e+02     7.6564     -0.363     -0.528    25.1644 0.0000e+00
     -0.330      0.192     7.8059     96.379     41.265  41.501824     3.8314      7.355   176.9876 9.7235e+02     7.6026     -0.325     -0.472    25.2074 0.0000e+00
     -0.283      0.207     7.8517     96.763     41.190  41.422101     3.9276      7.339   177.3597 9.5669e+02     7.6254     -0.282     -0.410    25.2398 0.0000e+00
     -0.225      0.210     7.8736     97.157     41.145  41.367648     4.1188      7.329   177.3966 9.2391e+02     7.6594     -0.224     -0.327    25.2658 0.0000e+00
     -0.157      0.197     7.8876     97.576     41.144  41.351160     4.2463      7.320   177.3477 8.0896e+02     7.6721     -0.154     -0.224    25.2805 0.0000e+00
     -0.090      0.170     7.9220     97.982     41.164  41.349654     4.2790      7.313   177.6292 6.5338e+02     7.6757     -0.083     -0.120    25.2853 0.0000e+00
     -0.038      0.132     7.9540     98.331     41.186  41.349406     4.2969      7.307   178.1322 6.1442e+02     7.6344     -0.029     -0.041    25.2765 0.0000e+00
     -0.012      0.090     7.9867     98.596     41.196  41.348128     4.3048      7.303   178.6112 6.3881e+02     7.5831     -0.003     -0.004    25.2649 0.0000e+00
     -0.011      0.051     8.0250     98.721     41.186  41.334188     4.2989      7.300   178.9477 6.1847e+02     7.5686     -0.007     -0.010    25.2510 0.0000e+00
     -0.019      0.021     8.0650     98.683     41.161  41.307773     4.3099      7.299   179.1024 5.8023e+02     7.5950     -0.022     -0.031    25.2191 0.0000e+00
     -0.023      0.003     8.0977     98.542     41.141  41.282608     4.3297      7.300   179.1055 5.7970e+02     7.5611     -0.025     -0.037    25.1870 0.0000e+00
     -0.023     -0.004     8.1242     98.347     41.148  41.283781     4.3305      7.301   179.2433 6.2273e+02     7.4321     -0.023     -0.033    25.1745 0.0000e+00
     -0.020     -0.003     8.1358     98.100     41.191  41.321956     4.3185      7.301   179.6492 6.3890e+02     7.3323     -0.019     -0.028    25.1741 0.0000e+00
     -0.018      0.000     8.1301     97.846     41.236  41.363373     4.3018      7.301   180.0556 6.0193e+02     7.2777     -0.015     -0.023    25.1734 0.0000e+00
     -0.021      0.002     8.1171     97.645     41.277  41.403750     4.2952      7.300   180.4579 5.9832e+02     7.3517     -0.020     -0.028    25.1663 0.0000e+00
     -0.025      0.002     8.1041     97.481     41.300  41.429345     4.3049      7.300   180.8130 6.3160e+02     7.5444     -0.026     -0.037    25.1578 0.0000e+00
     -0.025      0.001     8.0831     97.364     41.286  41.418979     4.3110      7.301   180.9942 6.1858e+02     7.6267     -0.025     -0.036    25.1522 0.0000e+00
     -0.021      0.000     8.0587     97.094     41.270  41.405352     4.3030      7.302   181.2715 5.8156e+02     7.5954     -0.020     -0.029    25.1478 0.0000e+00
     -0.017      0.000     8.0459     96.077     41.256  41.391526     4.2999      7.303   181.6715 5.8836e+02     7.5752     -0.016     -0.023    25.1459 0.0000e+00
     -0.017     -0.000     8.0302     94.019     41.244  41.378739     4.3141      7.302   181.9580 6.1726e+02     7.5873     -0.015     -0.022    25.1498 0.0000e+00
     -0.020     -0.001     8.0191     91.294     41.242  41.377680     4.3246      7.302   182.1555 6.2871e+02     7.5718     -0.018     -0.026    25.1554 0.0000e+00
     -0.023     -0.001     8.0233     88.344     41.240  41.378716     4.3108      7.303   182.3377 6.2184e+02     7.5244     -0.025     -0.036    25.1586 0.0000e+00
     -0.023     -0.001     7.9516     85.334     41.249  41.391275     4.2886      7.304   182.6124 6.0294e+02     7.5261     -0.024     -0.035    25.1584 0.0000e+00
     -0.021      0.001     7.7637     82.503     41.259  41.402604     4.2895      7.306   182.8954 6.0376e+02     7.5926     -0.020     -0.029    25.1562 0.0000e+00
     -0.020      0.005     7.5239     80.362     41.248  41.388756     4.3138      7.308   183.0059 6.1659e+02     7.6449     -0.019     -0.028    25.1573 0.0000e+00
     -0.020      0.008     7.2795     79.197     41.216  41.350773     4.3324      7.311   183.1744 6.1062e+02     7.6122     -0.020     -0.029    25.1625 0.0000e+00
     -0.019      0.009     7.0280     78.837     41.196  41.324148     4.3238      7.315   183.3850 5.9692e+02     7.5386     -0.019     -0.028    25.1681 0.0000e+00
     -0.015      0.009     6.7726     78.948     41.198  41.320687     4.3007      7.320   183.4007 5.8206e+02     7.4722     -0.016     -0.022    25.1699 0.0000e+00
     -0.010      0.009     6.5871     79.239     41.189  41.308921     4.2952      7.324   183.4500 5.7808e+02     7.4237     -0.009     -0.012    25.1661 0.0000e+00
     -0.006      0.009     6.5011     79.474     41.190  41.308807     4.3064      7.326   183.7234 5.8368e+02     7.4313     -0.004     -0.006    25.1582 0.0000e+00
     -0.005      0.008     6.4828     79.477     41.202  41.319315     4.3190      7.329   184.1250 5.7875e+02     7.4280     -0.005     -0.008    25.1480 0.0000e+00
     -0.005      0.006     6.5009     79.142     41.193  41.309033     4.3308      7.332   184.5201 5.6982e+02     7.4185     -0.006     -0.009    25.1413 0.0000e+00
     -0.004      0.004     6.5318     78.386     41.197  41.311417     4.3415      7.335   184.7147 5.6939e+02     7.4527     -0.005     -0.007    25.1394 0.0000e+00
     -0.003      0.004     6.5571     77.278     41.235  41.348133     4.3490      7.338   184.7562 5.7459e+02     7.4995     -0.003     -0.004    25.1386 0.0000e+00
     -0.001      0.004     6.5588     76.054     41.260  41.372166     4.3630      7.341   184.9369 5.7459e+02     7.5743     -0.001     -0.001    25.1369 0.0000e+00
     -0.000      0.004     6.5357     74.867     41.236  41.348132     4.3767      7.343   185.2649 5.7106e+02     7.5373      0.000      0.001    25.1348 0.0000e+00
      0.000      0.004     6.4729     73.820     41.200  41.311407     4.3648      7.346   185.5386 5.6607e+02     7.3598      0.001      0.002    25.1334 0.0000e+00
      0.001      0.004     6.3704     73.060     41.198  41.308919     4.3529      7.349   185.6650 5.6291e+02     7.2723     -0.000      0.001    25.1318 0.0000e+00
      0.002      0.003     6.2675     72.736     41.207  41.318056     4.3578      7.352   185.7603 5.6638e+02     7.2989      0.002      0.003    25.1303 0.0000e+00
      0.004      0.002     6.1676     72.931     41.183  41.294949     4.3663      7.355   185.9159 5.6820e+02     7.4087      0.004      0.006    25.1286 0.0000e+00
      0.005      0.001     6.0760     73.567     41.171  41.283398     4.3794      7.357   186.1704 5.6243e+02     7.5407      0.004      0.007    25.1277 0.0000e+00
      0.005      0.000     6.0098     74.479     41.193  41.305332     4.3836      7.359   186.5147 5.5665e+02     7.5291      0.005      0.007    25.1280 0.0000e+00
      0.004     -0.001     5.9784     75.478     41.196  41.306278     4.3756      7.362   186.8090 5.5668e+02     7.4731      0.004      0.005    25.1290 0.0000e+00
      0.002     -0.001     5.9984     76.381     41.188  41.294834     4.3664      7.365   187.0620 5.5664e+02     7.5123      0.002      0.003    25.1302 0.0000e+00
      0.002      0.000     6.0554     77.099     41.191  41.293897     4.3639      7.367   187.2509 5.5654e+02     7.6270      0.002      0.003    25.1314 0.0000e+00
      0.003      0.001     6.1359     77.615     41.194  41.294937     4.3781      7.370   187.3719 5.6315e+02     7.7329      0.003      0.004    25.1312 0.0000e+00
      0.003      0.002     6.2252     77.932     41.209  41.307413     4.3885      7.373   187.5779 5.7297e+02     7.7686      0.003      0.004    25.1279 0.0000e+00
      0.004      0.002     6.3020     78.072     41.221  41.317807     4.3809      7.376   187.9353 5.7345e+02     7.7850      0.003      0.005    25.1232 0.0000e+00
      0.005      0.002     6.3617     78.041     41.198  41.293680     4.3856      7.377   188.3369 5.6565e+02     7.7606      0.005      0.007    25.1192 0.0000e+00
      0.005      0.002     6.4049     77.870     41.174  41.269552     4.4125      7.378   188.5622 5.6212e+02     7.6787      0.006      0.008    25.1162 0.0000e+00
      0.005      0.003     6.4300     77.619     41.185  41.279947     4.4401      7.379   188.5952 5.6198e+02     7.6145      0.005      0.008    25.1140 0.0000e+00
      0.005      0.004     6.4420     77.301     41.198  41.292432     4.4451      7.379   188.6488 5.6149e+02     7.5649      0.004      0.006    25.1122 0.0000e+00
      0.006      0.005     6.4392     76.861     41.200  41.293567     4.4314      7.380   188.8666 5.5779e+02     7.5234      0.005      0.007    25.1105 0.0000e+00
      0.007      0.006     6.4223     76.269     41.201  41.293671     4.4234      7.382   189.1639 5.4627e+02     7.5566      0.007      0.009    25.1097 0.0000e+00
      0.010      0.006     6.4013     75.625     41.203  41.293690     4.4315      7.384   189.4037 5.3627e+02     7.6244      0.010      0.013    25.1100 0.0000e+00
      0.013      0.006     6.3773     75.099     41.204  41.293794     4.4465      7.386   189.5288 5.2819e+02     7.5920      0.013      0.019    25.1098 0.0000e+00
      0.015      0.005     6.3433     74.786     41.206  41.294928     4.4461      7.388   189.5581 5.1145e+02     7.4380      0.015      0.022    25.1080 0.0000e+00
      0.015      0.004     6.2911     74.700     41.221  41.307403     4.4361      7.391   189.6722 5.0192e+02     7.2995      0.016      0.023    25.1061 0.0000e+00
      0.014      0.003     6.2318     74.804     41.234  41.317685     4.4250      7.394   189.8758 5.0742e+02     7.3178      0.015      0.021    25.1043 0.0000e+00
      0.014      0.002     6.1861     74.996     41.211  41.292309     4.4200      7.396   190.0415 5.0412e+02     7.4200      0.014      0.020    25.1029 0.0000e+00
      0.015      0.002     6.1610     75.230     41.174  41.254448     4.4256      7.398   190.2122 4.9167e+02     7.4761      0.014      0.021    25.1012 0.0000e+00
      0.017      0.002     6.1540     75.549     41.162  41.240705     4.4259      7.400   190.4771 4.8783e+02     7.5179      0.016      0.023    25.0979 0.0000e+00
      0.019      0.002     6.1676     75.924     41.176  41.253075     4.4324      7.401   190.7495 4.8807e+02     7.5839      0.018      0.026    25.0947 0.0000e+00
      0.019      0.002     6.1859     76.253     41.201  41.277079     4.4376      7.402   190.9246 4.8686e+02     7.6595      0.019      0.027    25.0924 0.0000e+00
      0.019      0.001     6.2016     76.429     41.202  41.277068     4.4226      7.404   191.1312 4.8558e+02     7.6462      0.018      0.026    25.0906 0.0000e+00
      0.018      0.000     6.2294     76.375     41.179  41.252939     4.4170      7.406   191.4406 4.8441e+02     7.4917      0.018      0.026    25.0894 0.0000e+00
      0.018      0.000     6.2641     76.086     41.166  41.239192     4.4279      7.407   191.7405 4.8667e+02     7.3287      0.017      0.025    25.0887 0.0000e+00
      0.018      0.001     6.2944     75.596     41.166  41.237787     4.4383      7.407   191.9184 4.8853e+02     7.2806      0.018      0.024    25.0875 0.0000e+00
      0.019      0.002     6.3116     74.932     41.165  41.235956     4.4427      7.407   192.0426 4.8713e+02     7.3201      0.018      0.026    25.0861 0.0000e+00
      0.019      0.003     6.3078     74.189     41.147  41.217048     4.4644      7.408   192.2959 4.8879e+02     7.4306      0.018      0.026    25.0844 0.0000e+00
      0.019      0.003     6.2813     73.449     41.131  41.199569     4.5173      7.409   192.6569 5.0346e+02     7.5576      0.019      0.027    25.0829 0.0000e+00
      0.020      0.003     6.2427     72.752     41.147  41.215022     4.5410      7.408   193.0527 5.3065e+02     7.5575      0.020      0.030    25.0817 0.0000e+00
      0.022      0.002     6.1837     72.138     41.147  41.213487     4.5267      7.406   193.5535 5.4386e+02     7.5320      0.022      0.032    25.0806 0.0000e+00
      0.023      0.000     6.1193     71.572     41.116  41.181005     4.5031      7.404   194.0661 5.2746e+02     7.5568      0.023      0.033    25.0795 0.0000e+00
      0.023     -0.004     6.0598     71.002     41.078  41.139610     4.4721      7.401   194.4330 5.0950e+02     7.5841      0.023      0.033    25.0783 0.0000e+00
      0.023     -0.010     5.9979     70.398     41.036  41.093783     4.4513      7.398   194.6334 5.0278e+02     7.6228      0.023      0.033    25.0767 0.0000e+00
      0.022     -0.015     5.9510     69.743     41.016  41.071165     4.4338      7.396   194.7681 5.0449e+02     7.6143      0.023      0.034    25.0749 0.0000e+00
      0.017     -0.020     5.9056     69.035     41.004  41.056520     4.4357      7.395   195.0297 5.4475e+02     7.5839      0.018      0.025    25.0736 0.0000e+00
      0.008     -0.023     5.8592     68.254     40.993  41.043650     4.4578      7.395   195.3010 5.9989e+02     7.5967      0.008      0.011    25.0702 0.0000e+00
     -0.001     -0.023     5.8118     67.471     40.994  41.042481     4.4688      7.397   195.3812 6.1850e+02     7.6330     -0.002     -0.003    25.0645 0.0000e+00
     -0.009     -0.022     5.7561     66.815     40.995  41.042383     4.4762      7.400   195.4828 6.2692e+02     7.6473     -0.010     -0.014    25.0598 0.0000e+00
     -0.014     -0.019     5.7009     66.277     40.996  41.042467     4.4645      7.403   195.7553 6.2798e+02     7.5640     -0.015     -0.021    25.0575 0.0000e+00
     -0.017     -0.016     5.6347     65.810     40.999  41.043497     4.4436      7.404   196.0945 6.0751e+02     7.4460     -0.017     -0.024    25.0556 0.0000e+00
     -0.018     -0.013     5.5630     65.408     41.012  41.054826     4.4404      7.403   196.4872 6.0239e+02     7.4159     -0.017     -0.024    25.0536 0.0000e+00
     -0.021     -0.009     5.5121     65.065     41.011  41.052518     4.4424      7.401   196.8039 6.1432e+02     7.4046     -0.019     -0.028    25.0518 0.0000e+00
     -0.026     -0.007     5.4693     64.782     40.975  41.015592     4.4421      7.399   196.9114 6.2433e+02     7.3777     -0.025     -0.038    25.0499 0.0000e+00
     -0.028     -0.007     5.4299     64.507     40.949  40.989147     4.4285      7.398   197.0991 6.2812e+02     7.3644     -0.031     -0.045    25.0478 0.0000e+00
     -0.026     -0.007     5.3986     64.172     40.948  40.986632     4.4278      7.396   197.4395 6.2313e+02     7.3807     -0.028     -0.039    25.0456 0.0000e+00
     -0.024     -0.007     5.3687     63.776     40.948  40.985175     4.4427      7.396   197.6709 6.1688e+02     7.4377     -0.021     -0.031    25.0444 0.0000e+00
     -0.028     -0.008     5.3473     63.349     40.936  40.971537     4.4409      7.397   197.7458 6.1413e+02     7.4396     -0.027     -0.038    25.0434 0.0000e+00
     -0.034     -0.010     5.3283     62.908     40.915  40.948666     4.4316      7.400   197.7431 6.1275e+02     7.3687     -0.037     -0.053    25.0423 0.0000e+00
     -0.037     -0.010     5.2994     62.478     40.930  40.962492     4.4223      7.403   197.8096 6.1553e+02     7.3318     -0.037     -0.054    25.0416 0.0000e+00
     -0.038     -0.006     5.2660     62.090     40.981  41.011778     4.4278      7.405   197.9489 6.2535e+02     7.3689     -0.034     -0.050    25.0401 0.0000e+00
     -0.042      0.003     5.2308     61.800     41.006  41.036851     4.4408      7.406   198.1362 6.3237e+02     7.4416     -0.042     -0.060    25.0377 0.0000e+00
     -0.046      0.013     5.1937     61.694     40.981  41.011789     4.4378      7.409   198.4391 6.3217e+02     7.5277     -0.049     -0.071    25.0358 0.0000e+00
     -0.041      0.021     5.1575     61.728     40.935  40.962608     4.4324      7.412   198.6860 6.1732e+02     7.5907     -0.045     -0.065    25.0344 0.0000e+00
     -0.029      0.027     5.1248     61.724     40.925  40.949925     4.4256      7.416   198.5410 5.7757e+02     7.5887     -0.028     -0.042    25.0323 0.0000e+00
     -0.015      0.032     5.0966     61.621     40.963  40.985374     4.4302      7.419   198.2340 5.4422e+02     7.6062     -0.011     -0.018    25.0316 0.0000e+00
     -0.005      0.037     5.0880     61.475     40.988  41.010420     4.4633      7.419   198.2440 5.4516e+02     7.6647     -0.002     -0.004    25.0322 0.0000e+00
      0.000      0.039     5.1006     61.374     40.978  40.998891     4.4934      7.420   198.4035 5.4740e+02     7.6809     -0.000     -0.001    25.0287 0.0000e+00
      0.006      0.037     5.1006     61.343     40.953  40.972901     4.4939      7.422   198.6131 5.0205e+02     7.6321      0.003      0.004    25.0236 0.0000e+00
      0.018      0.035     5.0907     61.261     40.932  40.950041     4.4775      7.423   199.0577 4.4233e+02     7.5533      0.015      0.022    25.0209 0.0000e+00
      0.033      0.035     5.0759     61.064     40.957  40.976353     4.4614      7.419   199.6496 4.2283e+02     7.5475      0.035      0.050    25.0211 0.0000e+00
      0.043      0.036     5.0645     60.859     41.017  41.037178     4.4493      7.414   200.1769 4.1237e+02     7.6308      0.045      0.065    25.0206 0.0000e+00
      0.048      0.036     5.0690     60.771     41.030  41.050815     4.4481      7.410   200.6158 3.9937e+02     7.7061      0.046      0.068    25.0170 0.0000e+00
      0.053      0.033     5.0649     60.806     40.994  41.014307     4.4470      7.409   200.8261 4.0066e+02     7.6717      0.051      0.073    25.0165 0.0000e+00
      0.063      0.030     5.0435     60.845     40.957  40.976558     4.4278      7.410   200.7405 4.0996e+02     7.5571      0.059      0.087    25.0173 0.0000e+00
      0.074      0.030     5.0221     60.779     40.955  40.975187     4.3990      7.412   200.7856 4.2008e+02     7.5502      0.074      0.107    25.0177 0.0000e+00
      0.082      0.034     5.0146     60.649     40.975  40.997723     4.3817      7.414   201.1128 4.2738e+02     7.6570      0.084      0.121    25.0195 0.0000e+00
      0.087      0.038     5.0220     60.549     40.970  40.995186     4.3852      7.415   201.5131 4.3029e+02     7.7212      0.085      0.124    25.0183 0.0000e+00
      0.093      0.041     5.0299     60.455     40.917  40.944516     4.3912      7.415   201.7542 4.1736e+02     7.6763      0.089      0.129    25.0173 0.0000e+00
      0.104      0.043     5.0226     60.297     40.865  40.892807     4.3876      7.416   201.7909 3.9387e+02     7.5247      0.100      0.145    25.0184 0.0000e+00
      0.121      0.045     5.0063     60.032     40.850  40.877692     4.3920      7.417   201.8712 3.7742e+02     7.3913      0.119      0.172    25.0202 0.0000e+00
      0.138      0.047     4.9999     59.665     40.861  40.888698     4.4015      7.420   202.0366 3.6809e+02     7.3612      0.138      0.200    25.0250 0.0000e+00
      0.150      0.046     4.9944     59.254     40.873  40.898950     4.4029      7.423   202.1558 3.6068e+02     7.3658      0.149      0.216    25.0295 0.0000e+00
      0.158      0.039     4.9819     58.845     40.851  40.874707     4.3929      7.425   202.1083 3.5085e+02     7.3445      0.154      0.223    25.0295 0.0000e+00
      0.166      0.025     4.9613     58.480     40.834  40.849435     4.3712      7.428   201.9787 3.3366e+02     7.3090      0.161      0.233    25.0285 0.0000e+00
      0.178      0.007     4.9278     58.202     40.857  40.847236     4.3653      7.431   201.9645 3.1444e+02     7.3463      0.175      0.254    25.0279 0.0000e+00
      0.186     -0.009     4.8933     58.035     40.894  40.848083     4.3804      7.435   202.0232 3.0903e+02     7.4198      0.189      0.274    25.0249 0.0000e+00
      0.180     -0.023     4.8589     58.044     40.934  40.859627     4.3954      7.437   202.1727 3.1870e+02     7.4463      0.183      0.264    25.0239 0.0000e+00
      0.161     -0.035     4.8266     58.345     40.947  40.859837     4.3964      7.438   202.4816 3.2590e+02     7.3931      0.157      0.228    25.0225 0.0000e+00
      0.141     -0.043     4.8067     58.955     40.942  40.850607     4.3853      7.438   202.8321 3.2837e+02     7.2888      0.135      0.196    24.9897 0.0000e+00
      0.129     -0.044     4.7968     59.756     40.966  40.874954     4.3859      7.438   203.2281 3.3381e+02     7.2781      0.124      0.180    24.9325 0.0000e+00
      0.121     -0.035     4.7953     60.624     40.991  40.900349     4.3956      7.437   203.7408 3.4958e+02     7.3328      0.118      0.172    24.8952 0.0000e+00
      0.114     -0.020     4.8210     61.528     40.993  40.903803     4.3937      7.436   204.1269 3.7189e+02     7.3348      0.112      0.163    24.8831 0.0000e+00
      0.106     -0.006     4.8761     62.454     41.003  40.916716     4.3797      7.436   204.2825 3.7419e+02     7.3021      0.102      0.148    24.8817 0.0000e+00
      0.104      0.004     4.9467     63.321     41.012  40.929551     4.3679      7.436   204.3316 3.6020e+02     7.2787      0.097      0.142    24.8821 0.0000e+00
      0.112      0.012     5.0191     64.053     41.008  40.932069     4.3926      7.438   204.3767 3.6299e+02     7.4278      0.110      0.158    24.8827 0.0000e+00
      0.122      0.019     5.0921     64.566     41.016  40.947164     4.4529      7.440   204.6558 3.8257e+02     7.7050      0.123      0.177    24.8852 0.0000e+00
      0.128      0.028     5.1732     64.822     41.044  40.985146     4.4901      7.440   205.0388 3.9889e+02     7.8294      0.126      0.183    24.8880 0.0000e+00
      0.132      0.038     5.2454     64.966     41.054  41.010521     4.4842      7.437   205.3076 4.0265e+02     7.8383      0.130      0.188    24.8923 0.0000e+00
      0.136      0.048     5.3075     65.106     41.028  41.000135     4.4647      7.435   205.5821 3.9356e+02     7.8125      0.132      0.191    24.9014 0.0000e+00
      0.147      0.058     5.3536     65.203     41.000  40.986524     4.4385      7.434   205.8634 3.7332e+02     7.7575      0.140      0.202    24.9093 0.0000e+00
      0.167      0.068     5.3658     65.190     40.979  40.972904     4.4086      7.435   206.1270 3.4283e+02     7.7193      0.161      0.235    24.9194 0.0000e+00
      0.194      0.075     5.3718     65.001     40.965  40.962395     4.3863      7.436   206.4470 3.0578e+02     7.6917      0.191      0.276    24.9397 0.0000e+00
      0.219      0.077     5.3847     64.632     40.985  40.986398     4.3687      7.437   206.8932 2.6994e+02     7.6292      0.218      0.315    24.9619 0.0000e+00
      0.239      0.074     5.3916     64.176     41.003  41.009264     4.3621      7.440   207.2192 2.4295e+02     7.5440      0.238      0.345    24.9801 0.0000e+00
      0.254      0.066     5.3927     63.714     40.973  40.985021     4.3726      7.444   207.2919 2.2384e+02     7.5499      0.249      0.361    24.9891 0.0000e+00
      0.268      0.056     5.3773     63.258     40.933  40.947151     4.3869      7.448   207.4279 2.0924e+02     7.6311      0.262      0.379    24.9905 0.0000e+00
      0.283      0.046     5.3431     62.843     40.917  40.932169     4.3767      7.452   207.7456 1.9855e+02     7.6378      0.279      0.405    24.9945 0.0000e+00
      0.296      0.038     5.3008     62.513     40.914  40.930806     4.3416      7.455   208.1213 1.9085e+02     7.5628      0.293      0.424    25.0023 0.0000e+00
      0.303      0.032     5.2638     62.285     40.914  40.930673     4.3113      7.457   208.4434 1.8518e+02     7.5111      0.298      0.433    25.0089 0.0000e+00
      0.308      0.026     5.2244     62.190     40.914  40.930557     4.3107      7.459   208.7144 1.8177e+02     7.5588      0.303      0.439    25.0117 0.0000e+00
      0.312      0.021     5.1873     62.190     40.913  40.929411     4.3346      7.461   208.9884 1.7963e+02     7.6617      0.306      0.444    25.0134 0.0000e+00
      0.317      0.018     5.1617     62.223     40.900  40.916813     4.3668      7.464   209.2622 1.7706e+02     7.5939      0.311      0.451    25.0148 0.0000e+00
      0.321      0.017     5.1394     62.259     40.888  40.905159     4.4012      7.466   209.6147 1.7321e+02     7.3538      0.316      0.457    25.0152 0.0000e+00
      0.326      0.018     5.1339     62.252     40.898  40.915439     4.4173      7.468   210.0681 1.6808e+02     7.2523      0.320      0.463    25.0148 0.0000e+00
      0.331      0.021     5.1365     62.193     40.898  40.914179     4.4280      7.471   210.4422 1.6483e+02     7.3223      0.325      0.471    25.0143 0.0000e+00
      0.335      0.024     5.1388     62.143     40.876  40.889928     4.4301      7.474   210.7824 1.6366e+02     7.3465      0.328      0.476    25.0148 0.0000e+00
      0.340      0.026     5.1440     62.116     40.862  40.876071     4.4006      7.476   211.0833 1.6153e+02     7.3060      0.332      0.482    25.0156 0.0000e+00
      0.347      0.026     5.1444     62.046     40.860  40.873564     4.3717      7.479   211.2418 1.5824e+02     7.2769      0.340      0.493    25.0152 0.0000e+00
      0.357      0.026     5.1363     61.886     40.845  40.859616     4.3634      7.483   211.4936 1.5559e+02     7.2670      0.351      0.509    25.0132 0.0000e+00
      0.367      0.025     5.1316     61.633     40.818  40.834365     4.3672      7.485   211.8912 1.5445e+02     7.2546      0.361      0.523    25.0116 0.0000e+00
      0.372      0.022     5.1326     61.295     40.804  40.822109     4.4007      7.486   212.2637 1.5426e+02     7.3325      0.366      0.531    25.0115 0.0000e+00
      0.375      0.020     5.1280     60.887     40.819  40.838358     4.4530      7.487   212.8993 1.5425e+02     7.4912      0.368      0.533    25.0111 0.0000e+00
      0.378      0.023     5.1145     60.435     40.885  40.903901     4.4668      7.485   213.9840 1.5364e+02     7.5339      0.370      0.537    25.0118 0.0000e+00
      0.381      0.033     5.0934     60.114     40.964  40.979934     4.4593      7.478   214.7964 1.5254e+02     7.4733      0.374      0.543    25.0145 0.0000e+00
      0.384      0.047     5.0643     60.228     40.982  40.996087     4.4945      7.473   215.0644 1.5065e+02     7.4408      0.377      0.546    25.0165 0.0000e+00
      0.394      0.060     5.0307     60.762     40.956  40.972274     4.5603      7.473   215.2447 1.4593e+02     7.4488      0.381      0.551    25.0179 0.0000e+00
      0.416      0.069     4.9910     61.405     40.923  40.945879     4.5888      7.475   215.3414 1.3856e+02     7.3997      0.404      0.585    25.0178 0.0000e+00
      0.447      0.074     4.9490     61.957     40.902  40.930804     4.5818      7.477   215.3739 1.3250e+02     7.2904      0.443      0.641    25.0139 0.0000e+00
      0.474      0.072     4.9599     62.325     40.883  40.916949     4.6081      7.478   215.4649 1.2905e+02     7.2884      0.468      0.679    25.0096 0.0000e+00
      0.492      0.067     5.0189     62.485     40.869  40.905293     4.6743      7.481   215.5823 1.2663e+02     7.4445      0.483      0.701    25.0121 0.0000e+00
      0.503      0.059     5.0738     62.512     40.880  40.916812     4.7164      7.483   215.8458 1.2533e+02     7.6072      0.495      0.718    25.0214 0.0000e+00
      0.510      0.053     5.1217     62.522     40.893  40.929302     4.7172      7.484   216.1565 1.2456e+02     7.6493      0.501      0.726    25.0303 0.0000e+00
      0.518      0.050     5.1529     62.602     40.894  40.929367     4.7174      7.486   216.2420 1.2294e+02     7.6461      0.506      0.733    25.0362 0.0000e+00
      0.532      0.050     5.1624     62.707     40.883  40.917601     4.7346      7.488   216.2766 1.2009e+02     7.7056      0.520      0.754    25.0390 0.0000e+00
      0.551      0.052     5.1619     62.765     40.880  40.913970     4.7506      7.488   216.4885 1.1725e+02     7.7876      0.543      0.786    25.0400 0.0000e+00
      0.568      0.066     5.1580     62.796     40.979  41.012385     4.7531      7.483   217.5133 1.1568e+02     7.8520      0.560      0.812    25.0399 0.0000e+00
      0.579      0.104     5.1680     63.006     41.128  41.155550     4.7231      7.469   219.0310 1.1468e+02     7.8351      0.567      0.823    25.0371 0.0000e+00
      0.588      0.161     5.1799     64.017     41.176  41.185240     4.6634      7.457   219.4381 1.1318e+02     7.7884      0.577      0.837    25.0351 0.0000e+00
      0.604      0.216     5.1833     66.627     41.201  41.180943     4.6297      7.453   218.9939 1.0874e+02     7.8001      0.581      0.844    25.0359 0.0000e+00
      0.661      0.252     5.1833     70.862     41.278  41.230480     4.6407      7.456   218.6507 9.6867e+01     7.8060      0.613      0.889    25.0364 0.0000e+00
      0.786      0.262     5.1827     75.897     41.343  41.276413     4.6545      7.462   218.5577 8.1096e+01     7.7908      0.766      1.111    25.0338 0.0000e+00
      0.919      0.246     5.2360     81.144     41.371  41.292027     4.6467      7.467   218.5574 7.1559e+01     7.6503      0.934      1.356    25.0112 0.0000e+00
      0.991      0.203     5.4502     86.209     41.378  41.292312     4.6384      7.471   218.4755 6.8996e+01     7.4054      0.989      1.434    24.9676 0.0000e+00
      1.010      0.139     5.8464     90.450     41.366  41.279854     4.6293      7.475   218.4280 6.8596e+01     7.2892      0.996      1.445    24.9332 0.0000e+00
      1.007      0.069     6.2767     93.403     41.352  41.268326     4.6274      7.479   218.4132 6.8836e+01     7.3037      0.991      1.437    24.9111 0.0000e+00
      0.998      0.019     6.7166     94.963     41.361  41.279866     4.6745      7.484   218.4691 6.9241e+01     7.3077      0.976      1.415    24.8943 0.0000e+00
      0.993     -0.001     7.1648     95.315     41.371  41.292454     4.7324      7.488   218.6734 6.9144e+01     7.2706      0.971      1.409    24.8884 0.0000e+00
      0.994      0.001     7.5269     94.855     41.367  41.293599     4.7443      7.491   218.9045 6.8818e+01     7.2648      0.974      1.413    24.8893 0.0000e+00
      0.996      0.011     7.7743     94.045     41.362  41.293712     4.7430      7.493   219.0256 6.8868e+01     7.3051      0.977      1.417    24.8928 0.0000e+00
      0.998      0.024     7.8966     93.190     41.359  41.293834     4.7835      7.495   219.1059 6.8668e+01     7.3478      0.977      1.418    24.8958 0.0000e+00
      1.005      0.036     7.9142     92.420     41.359  41.295084     4.8516      7.497   219.2732 6.8019e+01     7.3713      0.983      1.426    24.8979 0.0000e+00
      1.015      0.045     7.8587     91.808     41.372  41.308826     4.8755      7.498   219.4134 6.7384e+01     7.3164      0.995      1.443    24.9046 0.0000e+00
      1.030      0.051     7.7824     91.361     41.393  41.333057     4.8562      7.500   219.4249 6.6344e+01     7.2307      1.009      1.463    24.9126 0.0000e+00
      1.048      0.052     7.7090     91.057     41.389  41.334201     4.8436      7.502   219.4124 6.4824e+01     7.2235      1.028      1.491    24.9169 0.0000e+00
      1.066      0.048     7.6416     90.825     41.374  41.322661     4.8562      7.504   219.3478 6.3522e+01     7.2974      1.048      1.520    24.9177 0.0000e+00
      1.079      0.041     7.5926     90.610     41.370  41.320468     4.8828      7.505   219.2463 6.2459e+01     7.3731      1.061      1.538    24.9172 0.0000e+00
      1.088      0.032     7.5542     90.420     41.357  41.307681     4.8908      7.506   219.2174 6.1521e+01     7.3862      1.068      1.549    24.9203 0.0000e+00
      1.093      0.024     7.5314     90.266     41.345  41.294990     4.9448      7.509   219.2568 6.0881e+01     7.3874      1.072      1.557    24.9270 0.0000e+00
      1.095      0.019     7.5138     90.158     41.345  41.293950     5.0608      7.512   219.3786 6.0373e+01     7.3881      1.074      1.558    24.9329 0.0000e+00
      1.096      0.016     7.4941     90.088     41.348  41.295105     5.1283      7.514   219.5716 5.9864e+01     7.3950      1.074      1.558    24.9339 0.0000e+00
      1.100      0.016     7.4788     90.046     41.365  41.308953     5.1528      7.515   219.7831 5.9493e+01     7.4365      1.079      1.564    24.9342 0.0000e+00
      1.106      0.017     7.4654     90.053     41.393  41.334443     5.1663      7.516   219.9561 5.9190e+01     7.4116      1.085      1.572    24.9349 0.0000e+00
      1.112      0.019     7.4566     90.084     41.410  41.349436     5.2246      7.517   220.0286 5.8852e+01     7.3671      1.091      1.582    24.9333 0.0000e+00
      1.117      0.020     7.4529     90.086     41.427  41.363292     5.3585      7.518   220.0574 5.8580e+01     7.3771      1.096      1.590    24.9299 0.0000e+00
      1.122      0.020     7.4475     90.071     41.439  41.375040     5.4450      7.519   220.0464 5.8309e+01     7.3613      1.099      1.596    24.9258 0.0000e+00
      1.127      0.020     7.4494     90.036     41.425  41.364551     5.4552      7.520   220.0683 5.7938e+01     7.3803      1.105      1.603    24.9234 0.0000e+00
      1.131      0.021     7.4558     89.984     41.418  41.363406     5.3824      7.522   220.1497 5.7470e+01     7.4022      1.109      1.609    24.9208 0.0000e+00
      1.136      0.023     7.4541     89.950     41.410  41.361211     5.2384      7.524   220.1698 5.6825e+01     7.3535      1.113      1.615    24.9161 0.0000e+00
      1.142      0.026     7.4541     89.956     41.380  41.338019     5.1535      7.526   220.2254 5.6054e+01     7.3379      1.120      1.624    24.9151 0.0000e+00
      1.148      0.029     7.4508     89.999     41.372  41.336866     5.1553      7.529   220.3928 5.5270e+01     7.3845      1.125      1.633    24.9202 0.0000e+00
      1.156      0.031     7.4433     90.064     41.378  41.347276     5.2022      7.531   220.5591 5.4370e+01     7.4722      1.133      1.644    24.9278 0.0000e+00
      1.166      0.033     7.4395     90.152     41.366  41.336966     5.2462      7.533   220.6006 5.3416e+01     7.5442      1.144      1.659    24.9352 0.0000e+00
      1.176      0.034     7.4384     90.282     41.368  41.339141     5.2542      7.534   220.6362 5.2564e+01     7.5383      1.153      1.673    24.9435 0.0000e+00
      1.185      0.034     7.4420     90.441     41.403  41.373567     5.2574      7.535   220.7312 5.1787e+01     7.5031      1.162      1.686    24.9528 0.0000e+00
      1.193      0.032     7.4462     90.555     41.403  41.372413     5.2845      7.536   220.8041 5.1122e+01     7.4604      1.170      1.696    24.9581 0.0000e+00
      1.201      0.029     7.4526     90.563     41.356  41.325189     5.3241      7.537   220.9156 5.0551e+01     7.3977      1.177      1.707    24.9599 0.0000e+00
      1.210      0.025     7.4632     90.518     41.343  41.310311     5.3291      7.539   221.0465 5.0031e+01     7.3259      1.186      1.721    24.9597 0.0000e+00
      1.217      0.021     7.4792     90.489     41.355  41.319457     5.3109      7.541   221.1822 4.9677e+01     7.2749      1.195      1.733    24.9579 0.0000e+00
      1.221      0.017     7.4923     90.481     41.346  41.308836     5.3126      7.542   221.2654 4.9469e+01     7.3620      1.197      1.737    24.9573 0.0000e+00
      1.223      0.014     7.4896     90.454     41.347  41.308815     5.3246      7.542   221.2775 4.9275e+01     7.5594      1.200      1.740    24.9569 0.0000e+00
      1.225      0.012     7.4836     90.371     41.360  41.319210     5.3399      7.542   221.4155 4.9089e+01     7.6459      1.202      1.743    24.9547 0.0000e+00
      1.227      0.011     7.4821     90.254     41.352  41.307576     5.3476      7.543   221.6428 4.8911e+01     7.5882      1.203      1.745    24.9513 0.0000e+00
      1.229      0.011     7.4830     90.161     41.344  41.295084     5.3341      7.545   221.7897 4.8696e+01     7.5447      1.206      1.750    24.9483 0.0000e+00
      1.232      0.012     7.4827     90.095     41.346  41.295093     5.3263      7.546   221.9008 4.8416e+01     7.5989      1.209      1.753    24.9480 0.0000e+00
      1.236      0.013     7.4752     90.042     41.361  41.307682     5.3358      7.546   222.0398 4.8085e+01     7.6627      1.212      1.758    24.9470 0.0000e+00
      1.240      0.014     7.4634     90.006     41.374  41.320367     5.3414      7.548   222.0937 4.7762e+01     7.6666      1.216      1.764    24.9408 0.0000e+00
      1.244      0.015     7.4571     89.981     41.374  41.321529     5.3275      7.550   222.1214 4.7485e+01     7.6123      1.220      1.769    24.9346 0.0000e+00
      1.247      0.016     7.4531     89.963     41.373  41.321739     5.2427      7.550   222.2029 4.7225e+01     7.5524      1.223      1.774    24.9317 0.0000e+00
      1.251      0.017     7.4479     89.946     41.372  41.322902     5.1156      7.550   222.2190 4.6976e+01     7.5567      1.226      1.780    24.9289 0.0000e+00
      1.256      0.017     7.4464     89.921     41.382  41.335596     5.0634      7.551   222.3157 4.6780e+01     7.5965      1.232      1.786    24.9281 0.0000e+00
      1.261      0.016     7.4433     89.892     41.391  41.348288     5.0695      7.553   222.5122 4.6595e+01     7.6585      1.236      1.793    24.9300 0.0000e+00
      1.265      0.016     7.4423     89.879     41.390  41.349432     5.0733      7.554   222.6160 4.6453e+01     7.6231      1.241      1.800    24.9312 0.0000e+00
      1.269      0.016     7.4410     89.910     41.387  41.349432     5.0761      7.556   222.6239 4.6415e+01     7.4418      1.245      1.805    24.9331 0.0000e+00
      1.273      0.016     7.4377     89.959     41.383  41.348297     5.0864      7.557   222.6078 4.6398e+01     7.3446      1.248      1.810    24.9379 0.0000e+00
      1.276      0.017     7.4350     89.991     41.368  41.335709     5.1060      7.557   222.7652 4.6352e+01     7.3699      1.251      1.815    24.9430 0.0000e+00
      1.280      0.017     7.4308     90.012     41.355  41.324171     5.1308      7.558   223.0651 4.6293e+01     7.3714      1.255      1.821    24.9458 0.0000e+00
      1.285      0.018     7.4351     90.047     41.366  41.335719     5.1438      7.559   223.2224 4.6214e+01     7.3296      1.260      1.828    24.9489 0.0000e+00
      1.291      0.018     7.4400     90.106     41.379  41.348412     5.1387      7.560   223.2894 4.6121e+01     7.3088      1.265      1.835    24.9523 0.0000e+00
      1.296      0.017     7.4413     90.140     41.383  41.350702     5.1444      7.560   223.3599 4.6039e+01     7.3584      1.271      1.844    24.9544 0.0000e+00
      1.300      0.016     7.4427     90.117     41.399  41.363404     5.1372      7.561   223.3855 4.5968e+01     7.4172      1.275      1.850    24.9566 0.0000e+00
      1.304      0.015     7.4436     90.077     41.414  41.375058     5.0933      7.564   223.5133 4.5922e+01     7.4049      1.279      1.855    24.9586 0.0000e+00
      1.307      0.014     7.4513     90.084     41.406  41.364665     5.0543      7.566   223.7009 4.5876e+01     7.3462      1.282      1.859    24.9581 0.0000e+00
      1.310      0.014     7.4559     90.136     41.407  41.364675     5.0414      7.568   223.7604 4.5789e+01     7.2886      1.284      1.863    24.9558 0.0000e+00
      1.314      0.015     7.4526     90.157     41.418  41.375174     5.1117      7.568   223.8030 4.5681e+01     7.2887      1.288      1.868    24.9521 0.0000e+00
      1.317      0.015     7.4477     90.125     41.407  41.364674     5.2549      7.569   223.8719 4.5588e+01     7.3470      1.292      1.874    24.9470 0.0000e+00
      1.321      0.015     7.4481     90.096     41.407  41.364655     5.3329      7.571   223.9054 4.5540e+01     7.3793      1.296      1.880    24.9438 0.0000e+00
      1.326      0.016     7.4567     90.101     41.417  41.374945     5.3314      7.572   223.9499 4.5508e+01     7.3710      1.301      1.886    24.9426 0.0000e+00
      1.330      0.016     7.4590     90.118     41.404  41.362157     5.3271      7.572   224.0658 4.5469e+01     7.3494      1.306      1.893    24.9420 0.0000e+00
      1.334      0.015     7.4535     90.117     41.378  41.336971     5.4070      7.573   224.1876 4.5449e+01     7.3579      1.308      1.897    24.9425 0.0000e+00
      1.337      0.015     7.4501     90.093     41.365  41.324286     5.5562      7.574   224.3038 4.5425e+01     7.4052      1.312      1.902    24.9434 0.0000e+00
      1.341      0.014     7.4515     90.043     41.376  41.335721     5.6330      7.575   224.4388 4.5402e+01     7.4086      1.316      1.908    24.9434 0.0000e+00
      1.345      0.014     7.4544     89.980     41.388  41.348300     5.6200      7.576   224.4434 4.5393e+01     7.3655      1.319      1.913    24.9435 0.0000e+00
      1.348      0.014     7.4534     89.926     41.389  41.349443     5.5319      7.578   224.3599 4.5338e+01     7.3616      1.322      1.918    24.9441 0.0000e+00
      1.352      0.014     7.4521     89.895     41.389  41.349547     5.4082      7.578   224.3753 4.5250e+01     7.4302      1.326      1.923    24.9450 0.0000e+00
      1.355      0.014     7.4472     89.870     41.390  41.349547     5.3566      7.580   224.5432 4.5176e+01     7.4769      1.329      1.927    24.9461 0.0000e+00
      1.359      0.015     7.4411     89.818     41.390  41.349444     5.3483      7.582   224.6689 4.5087e+01     7.4479      1.333      1.933    24.9462 0.0000e+00
      1.363      0.015     7.4366     89.744     41.390  41.348299     5.2758      7.582   224.6904 4.5007e+01     7.3870      1.338      1.939    24.9459 0.0000e+00
      1.367      0.016     7.4338     89.688     41.378  41.335710     5.1621      7.583   224.8032 4.4959e+01     7.3551      1.340      1.944    24.9461 0.0000e+00
      1.371      0.016     7.4341     89.692     41.368  41.324161     5.1140      7.584   224.9145 4.4880e+01     7.4044      1.344      1.950    24.9458 0.0000e+00
      1.375      0.016     7.4290     89.737     41.382  41.335586     5.1188      7.585   224.9182 4.4765e+01     7.4373      1.348      1.956    24.9440 0.0000e+00
      1.380      0.016     7.4225     89.779     41.398  41.346917     5.1452      7.586   224.9337 4.4653e+01     7.3768      1.353      1.962    24.9424 0.0000e+00
      1.384      0.016     7.4154     89.784     41.393  41.334215     5.1834      7.588   225.0153 4.4536e+01     7.2875      1.357      1.968    24.9419 0.0000e+00
      1.388      0.015     7.4169     89.719     41.375  41.308933     5.1975      7.589   225.0443 4.4453e+01     7.2796      1.361      1.974    24.9420 0.0000e+00
      1.392      0.014     7.4230     89.580     41.367  41.295097     5.2235      7.590   225.0270 4.4440e+01     7.3840      1.365      1.979    24.9393 0.0000e+00
      1.396      0.014     7.4272     89.368     41.369  41.293839     5.3572      7.591   225.1498 4.4404e+01     7.4227      1.369      1.985    24.9325 0.0000e+00
      1.399      0.014     7.4311     89.087     41.369  41.293725     5.5656      7.592   225.3249 4.4320e+01     7.3377      1.372      1.990    24.9234 0.0000e+00
      1.401      0.014     7.4263     88.803     41.369  41.293715     5.6708      7.593   225.4234 4.4280e+01     7.2788      1.374      1.993    24.9135 0.0000e+00
      1.404      0.014     7.4159     88.591     41.371  41.293715     5.6634      7.595   225.4809 4.4241e+01     7.2567      1.377      1.997    24.9058 0.0000e+00
      1.408      0.014     7.3997     88.450     41.373  41.293724     5.6511      7.596   225.5038 4.4139e+01     7.2410      1.381      2.003    24.9018 0.0000e+00
      1.412      0.015     7.3738     88.352     41.375  41.293829     5.6214      7.597   225.5279 4.4001e+01     7.2601      1.385      2.009    24.9029 0.0000e+00
      1.416      0.015     7.3467     88.295     41.376  41.294974     5.5713      7.597   225.6003 4.3867e+01     7.2826      1.389      2.015    24.9042 0.0000e+00
      1.420      0.014     7.3308     88.300     41.389  41.307572     5.5527      7.598   225.6898 4.3738e+01     7.2742      1.393      2.021    24.9006 0.0000e+00
      1.424      0.013     7.3203     88.330     41.399  41.319216     5.5377      7.599   225.7500 4.3591e+01     7.2613      1.397      2.026    24.8974 0.0000e+00
      1.427      0.011     7.3131     88.334     41.388  41.308830     5.4404      7.600   225.8126 4.3484e+01     7.2968      1.400      2.030    24.8961 0.0000e+00
      1.429      0.010     7.3066     88.339     41.388  41.308924     5.2747      7.601   225.8439 4.3419e+01     7.3275      1.402      2.033    24.8947 0.0000e+00
      1.431      0.010     7.3081     88.378     41.401  41.320351     5.1821      7.601   225.8702 4.3375e+01     7.2906      1.404      2.036    24.8954 0.0000e+00
      1.434      0.010     7.3138     88.438     41.401  41.320056     5.1868      7.602   225.9587 4.3356e+01     7.2611      1.406      2.039    24.8967 0.0000e+00
      1.437      0.009     7.3116     88.509     41.386  41.305370     5.3146      7.602   225.9669 4.3299e+01     7.3124      1.408      2.042    24.8983 0.0000e+00
      1.440      0.009     7.3106     88.576     41.352  41.269712     5.5542      7.602   225.9698 4.3243e+01     7.3986      1.412      2.048    24.8991 0.0000e+00
      1.442      0.008     7.3153     88.607     41.353  41.269713     5.6868      7.603   226.1664 4.3237e+01     7.3809      1.416      2.053    24.8964 0.0000e+00
      1.444      0.008     7.3206     88.603     41.389  41.305380     5.7020      7.605   226.3644 4.3244e+01     7.3371      1.417      2.054    24.8961 0.0000e+00
      1.445      0.008     7.3259     88.556     41.402  41.320162     5.7389      7.606   226.3858 4.3221e+01     7.3815      1.417      2.054    24.8974 0.0000e+00
      1.446      0.008     7.3341     88.448     41.402  41.321505     5.7999      7.606   226.3392 4.3153e+01     7.4738      1.418      2.056    24.8955 0.0000e+00
      1.449      0.009     7.3359     88.330     41.400  41.321626     5.8398      7.606   226.3170 4.3074e+01     7.5996      1.421      2.060    24.8927 0.0000e+00
      1.451      0.010     7.3354     88.270     41.399  41.321628     5.8555      7.606   226.3753 4.3014e+01     7.6383      1.423      2.064    24.8932 0.0000e+00
      1.454      0.012     7.3335     88.275     41.398  41.321524     5.8731      7.607   226.5281 4.2960e+01     7.5660      1.426      2.067    24.8951 0.0000e+00
      1.456      0.013     7.3218     88.340     41.396  41.320370     5.8863      7.608   226.6151 4.2911e+01     7.5114      1.428      2.070    24.8967 0.0000e+00
      1.459      0.014     7.3089     88.423     41.383  41.307675     5.8811      7.609   226.6536 4.2848e+01     7.5591      1.431      2.076    24.8991 0.0000e+00
      1.464      0.014     7.3047     88.489     41.370  41.294972     5.8856      7.608   226.8201 4.2743e+01     7.6647      1.436      2.083    24.9004 0.0000e+00
      1.469      0.014     7.3044     88.568     41.370  41.293715     5.8903      7.608   226.9936 4.2609e+01     7.6608      1.441      2.089    24.9009 0.0000e+00
      1.473      0.013     7.3111     88.690     41.373  41.292466     5.7886      7.607   227.1177 4.2469e+01     7.5112      1.445      2.096    24.9029 0.0000e+00
      1.476      0.012     7.3199     88.818     41.366  41.279869     5.5968      7.606   227.2886 4.2413e+01     7.3586      1.448      2.100    24.9044 0.0000e+00
      1.478      0.012     7.3230     88.870     41.361  41.268330     5.4858      7.606   227.4247 4.2435e+01     7.3192      1.450      2.102    24.9046 0.0000e+00
      1.479      0.013     7.3293     88.806     41.374  41.279870     5.4783      7.606   227.4728 4.2405e+01     7.3424      1.450      2.103    24.9025 0.0000e+00
      1.482      0.014     7.3401     88.634     41.384  41.292458     5.4563      7.605   227.5254 4.2311e+01     7.3312      1.453      2.107    24.8989 0.0000e+00
      1.486      0.016     7.3562     88.387     41.384  41.293613     5.3860      7.604   227.6309 4.2199e+01     7.2867      1.457      2.113    24.8906 0.0000e+00
      1.492      0.017     7.3622     88.114     41.384  41.293831     5.3360      7.604   227.7163 4.2076e+01     7.2822      1.463      2.122    24.8793 0.0000e+00
      1.497      0.017     7.3570     87.871     41.385  41.295099     5.3259      7.604   227.7830 4.1942e+01     7.3460      1.469      2.131    24.8788 0.0000e+00
      1.502      0.017     7.3410     87.720     41.396  41.308937     5.3389      7.604   227.8355 4.1831e+01     7.4082      1.474      2.138    24.8843 0.0000e+00
      1.506      0.016     7.3184     87.693     41.419  41.334218     5.3589      7.604   227.9204 4.1763e+01     7.3855      1.477      2.143    24.8859 0.0000e+00
      1.509      0.014     7.2951     87.773     41.432  41.346911     5.3694      7.605   228.1219 4.1716e+01     7.3105      1.479      2.146    24.8850 0.0000e+00
      1.512      0.013     7.2720     87.894     41.427  41.335468     5.3741      7.605   228.2924 4.1631e+01     7.2877      1.482      2.150    24.8843 0.0000e+00
      1.516      0.013     7.2591     87.990     41.426  41.322786     5.3409      7.605   228.3473 4.1454e+01     7.3142      1.486      2.156    24.8873 0.0000e+00
      1.520      0.012     7.2554     87.979     41.433  41.320489     5.2754      7.606   228.4408 4.1259e+01     7.3577      1.491      2.162    24.8926 0.0000e+00
      1.523      0.012     7.2654     87.784     41.427  41.307683     5.2396      7.607   228.5629 4.1120e+01     7.3698      1.493      2.167    24.8947 0.0000e+00
      1.525      0.011     7.2773     87.431     41.422  41.294878     5.2411      7.607   228.6189 4.1011e+01     7.3574      1.496      2.169    24.8858 0.0000e+00
      1.528      0.010     7.2903     87.013     41.425  41.292580     5.2769      7.607   228.6881 4.0922e+01     7.4130      1.498      2.173    24.8679 0.0000e+00
      1.531      0.010     7.2942     86.585     41.419  41.279888     5.3393      7.606   228.7113 4.0837e+01     7.5297      1.501      2.177    24.8578 0.0000e+00
      1.533      0.009     7.2778     86.166     41.415  41.268350     5.3797      7.606   228.7282 4.0767e+01     7.6411      1.504      2.180    24.8508 0.0000e+00
      1.535      0.007     7.2465     85.821     41.428  41.279993     5.3908      7.606   228.8912 4.0727e+01     7.6671      1.505      2.183    24.8382 0.0000e+00
      1.538      0.005     7.2105     85.577     41.432  41.293724     5.3903      7.607   229.0478 4.0701e+01     7.6049      1.508      2.187    24.8340 0.0000e+00
      1.539      0.004     7.1774     85.452     41.432  41.307455     5.4078      7.608   229.1586 4.0756e+01     7.5386      1.511      2.192    24.8285 0.0000e+00
      1.539      0.004     7.1402     85.513     41.432  41.319097     5.4596      7.608   229.1981 4.0861e+01     7.5491      1.510      2.191    24.8135 0.0000e+00
      1.538      0.005     7.1125     85.804     41.414  41.307575     5.5015      7.608   229.0953 4.0893e+01     7.6287      1.507      2.187    24.8098 0.0000e+00
      1.537      0.007     7.0907     86.260     41.403  41.295082     5.5150      7.608   229.1202 4.0840e+01     7.6464      1.506      2.185    24.8247 0.0000e+00
      1.539      0.009     7.0745     86.745     41.410  41.294980     5.5478      7.609   229.3269 4.0703e+01     7.5927      1.509      2.189    24.8448 0.0000e+00
      1.544      0.012     7.0759     87.146     41.429  41.306321     5.6138      7.610   229.4434 4.0539e+01     7.5602      1.514      2.197    24.8598 0.0000e+00
      1.549      0.014     7.1007     87.412     41.435  41.305264     5.6566      7.611   229.4110 4.0456e+01     7.5948      1.520      2.205    24.8698 0.0000e+00
      1.553      0.014     7.1439     87.504     41.423  41.282196     5.6737      7.610   229.4512 4.0441e+01     7.6700      1.524      2.210    24.8671 0.0000e+00
      1.557      0.013     7.1892     87.392     41.436  41.281253     5.7126      7.610   229.6712 4.0444e+01     7.7176      1.526      2.215    24.8532 0.0000e+00
      1.559      0.012     7.2245     87.087     41.460  41.293843     5.7608      7.610   229.8347 4.0418e+01     7.7613      1.528      2.217    24.8461 0.0000e+00
      1.562      0.011     7.2479     86.632     41.478  41.307472     5.7820      7.610   229.8790 4.0317e+01     7.7878      1.531      2.221    24.8399 0.0000e+00
      1.565      0.011     7.2595     86.133     41.491  41.319107     5.7870      7.611   229.9484 4.0176e+01     7.7989      1.534      2.227    24.8269 0.0000e+00
      1.568      0.011     7.2512     85.696     41.479  41.307586     5.8709      7.611   229.9852 4.0083e+01     7.8605      1.538      2.231    24.8052 0.0000e+00
      1.570      0.012     7.2285     85.349     41.464  41.295104     6.0299      7.611   229.9792 4.0027e+01     7.8845      1.541      2.234    24.7895 0.0000e+00
      1.573      0.013     7.1869     85.091     41.463  41.295114     6.1124      7.612   230.0483 3.9890e+01     7.8154      1.542      2.236    24.7890 0.0000e+00
      1.576      0.013     7.1412     84.897     41.480  41.307714     6.1185      7.613   230.1327 3.9671e+01     7.7769      1.545      2.241    24.7872 0.0000e+00
      1.580      0.013     7.1061     84.750     41.502  41.320505     6.1624      7.614   230.1397 3.9459e+01     7.8284      1.550      2.247    24.7867 0.0000e+00
      1.584      0.013     7.0756     84.652     41.514  41.322824     6.2516      7.615   230.1324 3.9254e+01     7.8917      1.554      2.254    24.7915 0.0000e+00
      1.588      0.013     7.0551     84.592     41.537  41.335738     6.3065      7.617   230.1308 3.9022e+01     7.8940      1.557      2.259    24.7953 0.0000e+00
      1.591      0.013     7.0406     84.523     41.561  41.349700     6.3020      7.618   230.2068 3.8792e+01     7.8210      1.560      2.263    24.7883 0.0000e+00
      1.593      0.013     7.0295     84.340     41.585  41.364694     6.2463      7.617   230.3623 3.8565e+01     7.7606      1.563      2.266    24.7748 0.0000e+00
      1.595      0.014     7.0235     83.971     41.618  41.390083     6.1744      7.617   230.4628 3.8319e+01     7.8134      1.565      2.268    24.7647 0.0000e+00
      1.599      0.015     7.0205     83.466     41.638  41.402795     6.1577      7.618   230.5619 3.8068e+01     7.8786      1.568      2.274    24.7520 0.0000e+00
      1.604      0.016     7.0204     82.915     41.629  41.391458     6.1607      7.618   230.6996 3.7792e+01     7.8314      1.573      2.282    24.7390 0.0000e+00
      1.610      0.017     7.0100     82.372     41.614  41.379928     6.1271      7.618   230.7514 3.7493e+01     7.7549      1.579      2.290    24.7283 0.0000e+00
      1.615      0.017     6.9776     81.927     41.619  41.390333     6.0180      7.618   230.7583 3.7243e+01     7.7393      1.583      2.298    24.7190 0.0000e+00
      1.619      0.016     6.9336     81.691     41.614  41.390333     5.8648      7.617   230.8683 3.7060e+01     7.7788      1.587      2.302    24.7110 0.0000e+00
      1.622      0.015     6.8880     81.676     41.600  41.379937     5.7979      7.617   231.0484 3.6886e+01     7.8574      1.590      2.307    24.7050 0.0000e+00
      1.625      0.014     6.8401     81.848     41.610  41.391580     5.7995      7.617   231.1296 3.6676e+01     7.8703      1.594      2.312    24.7112 0.0000e+00
      1.629      0.014     6.7959     82.141     41.622  41.404179     5.7852      7.618   231.0757 3.6448e+01     7.7636      1.598      2.317    24.7215 0.0000e+00
      1.633      0.014     6.7771     82.434     41.622  41.405333     5.7660      7.618   231.1716 3.6238e+01     7.6261      1.601      2.323    24.7258 0.0000e+00
      1.636      0.014     6.7764     82.664     41.619  41.405531     5.7669      7.618   231.3423 3.6042e+01     7.5743      1.605      2.327    24.7311 0.0000e+00
      1.639      0.014     6.7908     82.840     41.616  41.406580     5.7791      7.618   231.3335 3.5840e+01     7.6155      1.607      2.331    24.7341 0.0000e+00
      1.643      0.014     6.8213     82.974     41.626  41.418025     5.7806      7.619   231.4090 3.5630e+01     7.6458      1.611      2.337    24.7319 0.0000e+00
      1.647      0.015     6.8464     83.077     41.624  41.416976     5.7681      7.620   231.5666 3.5424e+01     7.6672      1.615      2.343    24.7329 0.0000e+00
      1.651      0.016     6.8642     83.146     41.600  41.393896     5.7624      7.621   231.6043 3.5234e+01     7.7034      1.619      2.349    24.7384 0.0000e+00
      1.654      0.017     6.8783     83.170     41.599  41.392846     5.7691      7.621   231.6932 3.5060e+01     7.7425      1.622      2.353    24.7427 0.0000e+00
      1.658      0.017     6.8885     83.150     41.611  41.404281     5.7662      7.621   231.8664 3.4865e+01     7.7980      1.626      2.359    24.7445 0.0000e+00
      1.663      0.018     6.8970     83.102     41.615  41.405218     5.7447      7.621   232.0641 3.4636e+01     7.8283      1.631      2.366    24.7455 0.0000e+00
      1.669      0.018     6.9033     83.024     41.616  41.404168     5.7245      7.620   232.2769 3.4408e+01     7.8018      1.637      2.374    24.7464 0.0000e+00
      1.674      0.017     6.9049     82.875     41.604  41.391578     5.7301      7.619   232.3745 3.4219e+01     7.8186      1.641      2.382    24.7473 0.0000e+00
      1.678      0.016     6.9030     82.655     41.590  41.379926     5.8293      7.618   232.3830 3.4069e+01     7.9287      1.645      2.387    24.7458 0.0000e+00
      1.682      0.015     6.8988     82.435     41.598  41.390217     6.0003      7.617   232.4658 3.3947e+01     8.0398      1.650      2.393    24.7421 0.0000e+00
      1.685      0.014     6.8949     82.271     41.594  41.389081     6.0738      7.616   232.6013 3.3841e+01     8.0703      1.653      2.397    24.7390 0.0000e+00
      1.687      0.013     6.8833     82.213     41.571  41.366193     6.0530      7.616   232.6446 3.3723e+01     8.0234      1.655      2.400    24.7382 0.0000e+00
      1.690      0.013     6.8610     82.282     41.573  41.367348     6.0481      7.617   232.6459 3.3583e+01     7.9848      1.659      2.404    24.7408 0.0000e+00
      1.694      0.013     6.8415     82.422     41.610  41.403033     6.1148      7.617   232.7032 3.3431e+01     8.1851      1.661      2.410    24.7452 0.0000e+00
      1.698      0.013     6.8258     82.549     41.625  41.416864     6.2351      7.617   232.8210 3.3267e+01     8.6006      1.665      2.416    24.7481 0.0000e+00
      1.702      0.013     6.8194     82.599     41.617  41.407643     6.2954      7.617   232.9513 3.3111e+01     8.7717      1.669      2.420    24.7480 0.0000e+00
      1.706      0.012     6.8280     82.573     41.630  41.418475     6.2859      7.618   232.9873 3.2991e+01     8.6835      1.672      2.426    24.7470 0.0000e+00
      1.708      0.012     6.8418     82.501     41.635  41.420898     6.2955      7.619   232.9984 3.2870e+01     8.5925      1.675      2.430    24.7465 0.0000e+00
      1.710      0.012     6.8554     82.359     41.656  41.436933     6.3374      7.619   233.0864 3.2737e+01     8.4908      1.677      2.432    24.7442 0.0000e+00
      1.712      0.013     6.8598     82.131     41.713  41.485409     6.3594      7.620   233.1900 3.2594e+01     8.4113      1.679      2.435    24.7413 0.0000e+00
      1.715      0.013     6.8551     81.825     41.738  41.499277     6.3527      7.620   233.2187 3.2433e+01     8.3481      1.682      2.440    24.7410 0.0000e+00
      1.720      0.013     6.8516     81.399     41.726  41.477659     6.3571      7.620   233.2617 3.2290e+01     8.2736      1.687      2.447    24.7381 0.0000e+00
      1.724      0.014     6.8412     80.780     41.733  41.477889     6.3951      7.621   233.3660 3.2165e+01     8.2616      1.692      2.453    24.7314 0.0000e+00
      1.728      0.014     6.8218     79.946     41.761  41.502039     6.4298      7.622   233.4470 3.2045e+01     8.3395      1.695      2.458    24.7234 0.0000e+00
      1.730      0.014     6.8002     78.984     41.777  41.515776     6.4275      7.622   233.5528 3.1945e+01     8.3965      1.697      2.461    24.7083 0.0000e+00
      1.733      0.013     6.7692     78.079     41.782  41.517045     6.3580      7.622   233.6131 3.1876e+01     8.4379      1.699      2.465    24.6936 0.0000e+00
      1.737      0.013     6.7196     77.359     41.787  41.517378     6.2388      7.623   233.5740 3.1802e+01     8.5669      1.704      2.471    24.6867 0.0000e+00
      1.741      0.013     6.6487     76.790     41.792  41.519793     6.1853      7.623   233.5963 3.1679e+01     8.6923      1.708      2.477    24.6836 0.0000e+00
      1.744      0.013     6.5618     76.308     41.822  41.546239     6.1933      7.622   233.7101 3.1553e+01     8.7579      1.711      2.482    24.6828 0.0000e+00
      1.748      0.013     6.4826     75.952     41.866  41.583271     6.1774      7.622   233.8319 3.1460e+01     8.8482      1.715      2.488    24.6764 0.0000e+00
      1.751      0.013     6.4259     75.747     41.877  41.586735     6.1434      7.621   233.9494 3.1359e+01     8.9304      1.717      2.491    24.6685 0.0000e+00
      1.753      0.013     6.3823     75.591     41.886  41.588100     6.1231      7.620   234.0989 3.1232e+01     8.9317      1.719      2.494    24.6679 0.0000e+00
      1.756      0.013     6.3401     75.384     41.905  41.599765     6.1240      7.620   234.3487 3.1103e+01     8.9666      1.722      2.499    24.6663 0.0000e+00
      1.761      0.013     6.3088     75.109     41.912  41.600836     6.1048      7.620   234.5604 3.0951e+01     9.0445      1.727      2.505    24.6570 0.0000e+00
      1.765      0.014     6.2984     74.771     41.917  41.601039     6.0485      7.620   234.5943 3.0776e+01     9.0534      1.731      2.510    24.6452 0.0000e+00
      1.768      0.014     6.2896     74.389     41.923  41.602212     6.0085      7.619   234.5868 3.0632e+01     9.0067      1.733      2.514    24.6379 0.0000e+00
      1.772      0.014     6.2730     74.012     41.939  41.615009     5.9964      7.619   234.6416 3.0522e+01     8.9586      1.738      2.520    24.6294 0.0000e+00
      1.775      0.014     6.2508     73.705     41.954  41.628838     6.0021      7.619   234.7410 3.0408e+01     8.9841      1.741      2.525    24.6219 0.0000e+00
      1.779      0.014     6.2229     73.497     41.968  41.642478     6.0279      7.619   234.8415 3.0293e+01     9.1086      1.745      2.531    24.6181 0.0000e+00
      1.783      0.013     6.1905     73.377     41.980  41.652979     6.0659      7.619   234.9966 3.0199e+01     9.2349      1.748      2.536    24.6118 0.0000e+00
      1.786      0.012     6.1567     73.323     41.957  41.628871     6.0793      7.620   235.1530 3.0111e+01     9.2466      1.751      2.540    24.6075 0.0000e+00
      1.789      0.012     6.1311     73.323     41.935  41.604863     6.0565      7.621   235.1838 3.0016e+01     9.1819      1.754      2.545    24.6068 0.0000e+00
      1.792      0.012     6.1137     73.288     41.948  41.616558     6.0819      7.621   235.1972 2.9922e+01     9.0680      1.757      2.548    24.6060 0.0000e+00
      1.795      0.012     6.1055     73.164     41.975  41.643348     6.1621      7.620   235.2297 2.9821e+01     8.8939      1.759      2.552    24.6053 0.0000e+00
      1.798      0.012     6.0999     73.043     42.007  41.674906     6.2020      7.619   235.2312 2.9711e+01     8.8187      1.763      2.557    24.6029 0.0000e+00
      1.801      0.012     6.1034     72.951     42.014  41.680790     6.1895      7.620   235.3014 2.9623e+01     8.8087      1.766      2.561    24.5992 0.0000e+00
      1.804      0.012     6.1057     72.850     41.986  41.651021     6.1601      7.620   235.3912 2.9550e+01     8.8070      1.769      2.566    24.5982 0.0000e+00
      1.807      0.012     6.0875     72.757     41.969  41.632297     6.1379      7.619   235.3700 2.9461e+01     8.9347      1.772      2.571    24.5994 0.0000e+00
      1.811      0.012     6.0785     72.699     41.984  41.644797     6.1371      7.619   235.3892 2.9383e+01     9.0544      1.776      2.576    24.5991 0.0000e+00
      1.814      0.011     6.0735     72.682     42.015  41.675226     6.1423      7.620   235.5378 2.9330e+01     9.0585      1.778      2.579    24.5971 0.0000e+00
      1.816      0.011     6.0636     72.675     42.023  41.682873     6.1347      7.622   235.6177 2.9288e+01     9.0189      1.781      2.583    24.5947 0.0000e+00
      1.818      0.011     6.0560     72.684     42.013  41.673796     6.1201      7.624   235.5816 2.9236e+01     8.9504      1.783      2.586    24.5921 0.0000e+00
      1.821      0.011     6.0499     72.739     42.031  41.692407     6.1237      7.624   235.6173 2.9172e+01     8.9148      1.786      2.591    24.5903 0.0000e+00
      1.824      0.010     6.0514     72.829     42.056  41.717495     6.1374      7.624   235.7051 2.9117e+01     8.9639      1.789      2.595    24.5895 0.0000e+00
      1.827      0.010     6.0498     72.926     42.064  41.723257     6.1772      7.624   235.6966 2.9084e+01     9.0312      1.792      2.599    24.5897 0.0000e+00
      1.830      0.010     6.0487     73.004     42.041  41.698610     6.2468      7.625   235.6871 2.9078e+01     9.0108      1.795      2.604    24.5902 0.0000e+00
      1.832      0.009     6.0544     73.015     42.019  41.673356     6.2793      7.626   235.7611 2.9080e+01     8.9224      1.797      2.606    24.5916 0.0000e+00
      1.834      0.009     6.0624     72.912     42.019  41.671784     6.2876      7.626   235.8172 2.9067e+01     8.9531      1.799      2.609    24.5919 0.0000e+00
      1.836      0.009     6.0715     72.724     42.027  41.679600     6.2981      7.627   235.8502 2.9049e+01     9.0409      1.801      2.612    24.5898 0.0000e+00
      1.838      0.009     6.0792     72.519     42.053  41.704393     6.2719      7.628   235.9020 2.9054e+01     9.0274      1.803      2.614    24.5871 0.0000e+00
      1.841      0.009     6.0835     72.325     42.069  41.717673     6.2209      7.630   235.9269 2.9047e+01     8.9946      1.805      2.618    24.5831 0.0000e+00
      1.844      0.009     6.0738     72.151     42.068  41.713229     6.1897      7.630   235.8931 2.9040e+01     8.9522      1.808      2.623    24.5798 0.0000e+00
      1.847      0.010     6.0550     71.961     42.072  41.714125     6.1851      7.631   235.8372 2.9078e+01     8.9590      1.811      2.627    24.5803 0.0000e+00
      1.848      0.011     6.0382     71.694     42.089  41.728507     6.1817      7.632   235.9390 2.9125e+01     9.0423      1.812      2.628    24.5801 0.0000e+00
      1.850      0.012     6.0213     71.355     42.124  41.760186     6.1661      7.632   236.0918 2.9137e+01     9.0708      1.813      2.630    24.5764 0.0000e+00
      1.853      0.013     6.0084     71.014     42.149  41.779804     6.1460      7.632   236.0495 2.9072e+01     9.0312      1.818      2.636    24.5723 0.0000e+00
      1.857      0.013     5.9963     70.722     42.150  41.775299     6.1139      7.632   236.0300 2.8959e+01     8.9733      1.822      2.642    24.5677 0.0000e+00
      1.862      0.014     5.9734     70.403     42.146  41.769173     5.9854      7.631   236.1141 2.8900e+01     8.9857      1.826      2.649    24.5657 0.0000e+00
      1.866      0.015     5.9432     69.938     42.146  41.769196     5.7743      7.631   236.1198 2.8889e+01     9.0442      1.830      2.654    24.5645 0.0000e+00
      1.868      0.017     5.9126     69.347     42.151  41.775573     5.6588      7.631   236.0991 2.8856e+01     9.0310      1.832      2.657    24.5562 0.0000e+00
      1.870      0.019     5.8920     68.772     42.157  41.782818     5.6377      7.632   236.2086 2.8798e+01     8.9634      1.833      2.659    24.5488 0.0000e+00
      1.875      0.022     5.8715     68.310     42.171  41.793319     5.6032      7.632   236.3247 2.8661e+01     8.7386      1.838      2.665    24.5467 0.0000e+00
      1.882      0.026     5.8319     67.998     42.224  41.839068     5.5655      7.632   236.3845 2.8440e+01     8.4318      1.846      2.677    24.5463 0.0000e+00
      1.891      0.029     5.7759     67.812     42.284  41.891674     5.5562      7.632   236.5017 2.8224e+01     8.3277      1.856      2.691    24.5495 0.0000e+00
      1.900      0.030     5.7254     67.630     42.321  41.921626     5.5661      7.632   236.6240 2.8007e+01     8.3342      1.863      2.704    24.5517 0.0000e+00
      1.908      0.029     5.6873     67.375     42.354  41.947334     5.6014      7.631   236.8304 2.7809e+01     8.2362      1.871      2.714    24.5468 0.0000e+00
      1.916      0.027     5.6606     67.051     42.362  41.948620     5.6672      7.630   237.1039 2.7663e+01     8.0655      1.879      2.726    24.5381 0.0000e+00
      1.923      0.024     5.6525     66.646     42.356  41.937166     5.7214      7.630   237.3490 2.7557e+01     8.0120      1.886      2.736    24.5302 0.0000e+00
      1.928      0.022     5.6398     66.107     42.358  41.935775     5.7409      7.630   237.5571 2.7482e+01     8.0689      1.890      2.742    24.5224 0.0000e+00
      1.932      0.020     5.6185     65.452     42.357  41.931790     5.7448      7.630   237.6417 2.7426e+01     8.0700      1.895      2.748    24.5136 0.0000e+00
      1.937      0.019     5.5926     64.813     42.317  41.888990     5.8173      7.630   237.6834 2.7376e+01     8.0595      1.899      2.755    24.5042 0.0000e+00
      1.942      0.019     5.5617     64.311     42.230  41.799088     5.9605      7.630   237.7171 2.7311e+01     8.1461      1.905      2.763    24.4981 0.0000e+00
      1.946      0.020     5.5180     64.000     42.168  41.733339     6.0446      7.630   237.7911 2.7238e+01     8.2640      1.909      2.769    24.4954 0.0000e+00
      1.951      0.021     5.4574     63.939     42.171  41.728698     6.0681      7.630   237.9755 2.7163e+01     8.3572      1.912      2.775    24.4925 0.0000e+00
      1.957      0.022     5.4013     64.244     42.196  41.742953     6.1370      7.630   238.0540 2.7083e+01     8.5550      1.918      2.782    24.4889 0.0000e+00
      1.963      0.024     5.3587     64.979     42.176  41.715279     6.2369      7.630   238.0518 2.7015e+01     8.8449      1.925      2.791    24.4843 0.0000e+00
      1.969      0.026     5.3324     65.976     42.116  41.647955     6.2760      7.631   238.1214 2.6934e+01     8.9935      1.931      2.800    24.4796 0.0000e+00
      1.975      0.027     5.3240     66.951     42.106  41.627079     6.2774      7.631   238.2079 2.6792e+01     9.0881      1.937      2.809    24.4709 0.0000e+00
      1.983      0.027     5.3468     67.781     42.145  41.653250     6.2877      7.632   238.3224 2.6625e+01     9.6809      1.944      2.820    24.4556 0.0000e+00
      1.991      0.027     5.4149     68.504     42.147  41.647040     6.2997      7.633   238.4730 2.6469e+01    10.6613      1.952      2.832    24.4469 0.0000e+00
      1.998      0.026     5.5101     69.127     42.122  41.615445     6.3064      7.633   238.5670 2.6322e+01    11.1378      1.960      2.843    24.4411 0.0000e+00
      2.004      0.025     5.5964     69.570     42.106  41.588569     6.2936      7.633   238.5121 2.6188e+01    11.1392      1.965      2.851    24.4251 0.0000e+00
      2.010      0.023     5.6640     69.822     42.106  41.575932     6.2612      7.634   238.4108 2.6064e+01    11.3269      1.971      2.859    24.4090 0.0000e+00
      2.016      0.022     5.7247     69.989     42.130  41.589563     6.2231      7.634   238.4618 2.5955e+01    11.6996      1.977      2.867    24.4000 0.0000e+00
      2.021      0.022     5.7815     70.159     42.173  41.626437     6.1986      7.634   238.6122 2.5860e+01    11.8881      1.982      2.874    24.3955 0.0000e+00
      2.026      0.021     5.8207     70.319     42.198  41.640962     6.1988      7.633   238.6802 2.5746e+01    11.8632      1.987      2.881    24.3814 0.0000e+00
      2.031      0.021     5.8394     70.388     42.211  41.638224     6.2752      7.633   238.6819 2.5616e+01    11.7064      1.992      2.889    24.3627 0.0000e+00
      2.037      0.021     5.8512     70.258     42.244  41.656782     6.4228      7.634   238.7189 2.5485e+01    11.4946      1.998      2.897    24.3504 0.0000e+00
      2.043      0.021     5.8671     69.852     42.271  41.674926     6.5196      7.634   238.8689 2.5348e+01    11.4201      2.003      2.906    24.3465 0.0000e+00
      2.048      0.021     5.8837     69.210     42.342  41.730654     6.5381      7.634   239.2062 2.5197e+01    11.4216      2.008      2.913    24.3404 0.0000e+00
      2.053      0.021     5.8956     68.379     42.472  41.822824     6.5377      7.633   239.6122 2.5059e+01    11.3751      2.013      2.920    24.3123 0.0000e+00
      2.058      0.021     5.8904     67.316     42.605  41.900737     6.6148      7.633   239.9059 2.4955e+01    11.2688      2.018      2.927    24.2969 0.0000e+00
      2.063      0.022     5.8539     65.923     42.729  41.974462     6.7796      7.634   240.1770 2.4843e+01    11.1945      2.023      2.934    24.2906 0.0000e+00
      2.069      0.023     5.7992     64.091     42.819  42.016008     6.8821      7.635   240.4810 2.4712e+01    11.2281      2.028      2.942    24.2829 0.0000e+00
      2.075      0.023     5.7357     61.782     42.875  42.022186     6.9060      7.635   240.6566 2.4591e+01    11.2315      2.034      2.951    24.2423 0.0000e+00
      2.081      0.023     5.6584     59.070     42.937  42.049089     7.0101      7.634   240.7505 2.4454e+01    11.0309      2.041      2.960    24.1580 0.0000e+00
      2.088      0.022     5.5504     56.135     42.986  42.087368     7.1992      7.633   240.8424 2.4311e+01    10.7150      2.047      2.970    24.1105 0.0000e+00
      2.093      0.022     5.4027     53.262     43.002  42.104181     7.3122      7.633   240.9928 2.4226e+01    10.5888      2.053      2.978    24.0628 0.0000e+00
      2.098      0.021     5.2133     50.753     43.023  42.125438     7.3533      7.633   241.2785 2.4159e+01    10.6664      2.059      2.984    23.9914 0.0000e+00
      2.103      0.021     4.9838     48.661     43.050  42.153973     7.5041      7.633   241.4585 2.4051e+01    10.7311      2.062      2.990    23.9467 0.0000e+00
      2.108      0.021     4.7289     46.865     43.028  42.131858     7.7532      7.632   241.5335 2.3942e+01    10.6883      2.067      2.998    23.9452 0.0000e+00
      2.114      0.022     4.4733     45.359     42.960  42.048456     7.8859      7.632   241.6704 2.3847e+01    10.5925      2.073      3.006    23.9542 0.0000e+00
      2.120      0.022     4.2613     44.164     42.914  41.970643     7.9595      7.633   241.7364 2.3734e+01    10.5982      2.079      3.015    23.9493 0.0000e+00
      2.126      0.022     4.0936     43.209     42.937  41.952601     8.5940      7.633   241.7285 2.3616e+01    10.6883      2.085      3.023    23.9539 0.0000e+00
      2.132      0.022     3.9378     42.233     42.984  41.957186     9.7305      7.632   241.8333 2.3515e+01    10.7262      2.091      3.032    23.9613 0.0000e+00
      2.137      0.022     3.8129     40.869     42.960  41.899086    10.3396      7.632   241.9708 2.3430e+01    10.6798      2.095      3.040    23.9399 0.0000e+00
      2.142      0.022     3.7161     39.005     42.849  41.757818    10.4322      7.633   242.0147 2.3356e+01    10.6068      2.101      3.047    23.8978 0.0000e+00
      2.147      0.023     3.6452     36.775     42.709  41.581908    11.0328      7.633   242.1921 2.3255e+01    10.6285      2.105      3.053    23.8482 0.0000e+00
      2.152      0.025     3.5834     34.350     42.594  41.422281    12.1415      7.633   242.4812 2.3096e+01    10.7040      2.110      3.060    23.7951 0.0000e+00
      2.159      0.028     3.4708     31.735     42.512  41.287459    12.7511      7.633   242.5844 2.2906e+01    10.7327      2.117      3.070    23.7599 0.0000e+00
      2.167      0.030     3.3118     28.950     42.496  41.221034    12.8181      7.633   242.5799 2.2716e+01    10.7020      2.124      3.081    23.7224 0.0000e+00
      2.176      0.030     3.1171     26.158     42.568  41.253743    12.9688      7.633   242.5994 2.2499e+01    10.6402      2.133      3.094    23.6799 0.0000e+00
      2.185      0.030     2.9171     23.497     42.643  41.302084    14.7408      7.633   242.5616 2.2277e+01    10.8743      2.143      3.109    23.6230 0.0000e+00
      2.193      0.029     2.7018     21.150     42.653  41.297750    18.0039      7.633   242.6394 2.2118e+01    11.3798      2.151      3.120    23.5499 0.0000e+00
      2.199      0.027     2.4576     19.282     42.567  41.201321    19.7715      7.633   242.7651 2.1982e+01    11.5947      2.157      3.128    23.4895 0.0000e+00
      2.205      0.025     2.2229     17.952     42.477  41.088141    19.9741      7.632   242.7054 2.1828e+01    11.5601      2.162      3.136    23.4448 0.0000e+00
      2.211      0.023     1.9895     17.126     42.490  41.071666    20.5532      7.631   242.7774 2.1696e+01    11.6782      2.168      3.145    23.4186 0.0000e+00
      2.217      0.021     1.7851     16.581     42.500  41.065546    21.5795      7.630   242.9474 2.1589e+01    11.9302      2.174      3.154    23.4034 0.0000e+00
      2.222      0.019     1.6254     15.988     42.464  41.014116    22.1463      7.630   242.9539 2.1488e+01    12.0786      2.180      3.163    23.3987 0.0000e+00
      2.227      0.019     1.5127     15.205     42.419  40.957538    22.2618      7.629   243.0279 2.1398e+01    12.0720      2.184      3.167    23.3619 0.0000e+00
      2.231      0.019     1.4504     14.336     42.350  40.889168    23.0179      7.628   243.1539 2.1312e+01    12.1920      2.188      3.173    23.3133 0.0000e+00
      2.235      0.019     1.4169     13.502     42.290  40.822119    24.4050      7.628   243.1015 2.1207e+01    12.5042      2.192      3.179    23.3112 0.0000e+00
      2.240      0.019     1.3723     12.723     42.274  40.781497    25.1501      7.628   243.0825 2.1065e+01    12.7384      2.196      3.185    23.2895 0.0000e+00
      2.246      0.019     1.2990     11.874     42.296  40.778753    25.1358      7.628   243.2678 2.0932e+01    12.8715      2.202      3.193    23.2603 0.0000e+00
      2.251      0.019     1.2222     10.879     42.329  40.788910    24.1732      7.628   243.4494 2.0842e+01    13.1574      2.208      3.203    23.2749 0.0000e+00
      2.256      0.018     1.1486      9.869     42.348  40.777355    22.3917      7.628   243.5569 2.0762e+01    13.5997      2.212      3.209    23.2691 0.0000e+00
      2.260      0.017     1.0887      9.008     42.374  40.765930    21.4080      7.629   243.5358 2.0669e+01    13.8458      2.216      3.214    23.2250 0.0000e+00
      2.263      0.017     1.0218      8.343     42.428  40.777644    21.1600      7.629   243.4525 2.0585e+01    13.8787      2.220      3.219    23.1976 0.0000e+00
      2.267      0.018     0.9299      7.808     42.479  40.791996    19.5855      7.628   243.4959 2.0511e+01    13.8616      2.224      3.225    23.1824 0.0000e+00
      2.271      0.019     0.8390      7.336     42.513  40.812480    16.7358      7.628   243.5448 2.0406e+01    13.7752      2.227      3.230    23.1410 0.0000e+00
      2.276      0.020     0.7641      6.934     42.600  40.898358    15.1778      7.629   243.6133 2.0271e+01    13.7224      2.231      3.236    23.0983 0.0000e+00
      2.282      0.021     0.7113      6.688     42.791  41.068763    14.9968      7.630   243.7218 2.0121e+01    13.7015      2.238      3.245    23.0509 0.0000e+00
      2.288      0.023     0.6686      6.652     43.067  41.286181    14.5639      7.630   243.8229 1.9974e+01    13.3511      2.244      3.254    22.9955 0.0000e+00
      2.295      0.024     0.6278      6.747     43.357  41.496143    12.8486      7.630   243.8903 1.9869e+01    12.7313      2.251      3.264    22.9863 0.0000e+00
      2.300      0.025     0.5903      6.832     43.697  41.766754    10.4371      7.630   243.9350 1.9760e+01    12.3558      2.256      3.272    23.0062 0.0000e+00
      2.306      0.026     0.5655      6.766     44.127  42.146252     9.2536      7.629   244.1043 1.9590e+01    12.2609      2.261      3.279    22.9983 0.0000e+00
      2.312      0.027     0.5675      6.471     44.366  42.339903     9.1256      7.629   244.3025 1.9403e+01    12.2330      2.267      3.289    22.9409 0.0000e+00
      2.319      0.029     0.5807      5.994     44.399  42.330989     9.1055      7.630   244.4394 1.9241e+01    12.0528      2.275      3.300    22.8386 0.0000e+00
      2.326      0.029     0.5934      5.442     44.530  42.419240     9.1360      7.630   244.4685 1.9057e+01    11.7562      2.282      3.309    22.7715 0.0000e+00
      2.335      0.029     0.5912      4.874     44.669  42.518302     9.1779      7.629   244.3962 1.8850e+01    11.6537      2.289      3.320    22.7574 0.0000e+00
      2.344      0.028     0.5638      4.296     44.755  42.576650     9.2289      7.628   244.4251 1.8670e+01    11.6670      2.299      3.335    22.7134 0.0000e+00
      2.352      0.025     0.5192      3.758     44.881  42.680381     9.6532      7.627   244.6463 1.8531e+01    11.5072      2.308      3.347    22.6630 0.0000e+00
      2.358      0.023     0.4697      3.331     44.983  42.756948    10.4284      7.625   244.9196 1.8438e+01    11.2248      2.313      3.355    22.6239 0.0000e+00
      2.362      0.021     0.4223      3.037     45.065  42.804209    10.8618      7.625   245.0628 1.8373e+01    11.1215      2.317      3.360    22.5832 0.0000e+00
      2.366      0.019     0.3708      2.867     45.172  42.870938    10.8984      7.625   245.1726 1.8289e+01    11.1804      2.320      3.365    22.5562 0.0000e+00
      2.370      0.019     0.3209      2.757     45.264  42.928996    10.6464      7.624   245.3007 1.8175e+01    11.1514      2.324      3.371    22.5445 0.0000e+00
      2.375      0.020     0.2846      2.636     45.295  42.934896    10.1620      7.621   245.3220 1.8059e+01    11.0104      2.329      3.378    22.5283 0.0000e+00
      2.381      0.021     0.2586      2.517     45.260  42.878771     9.8852      7.620   245.4291 1.7969e+01    10.8764      2.335      3.386    22.4874 0.0000e+00
      2.387      0.022     0.2463      2.428     45.217  42.821605     9.8303      7.619   245.7351 1.7891e+01    10.8628      2.341      3.396    22.4438 0.0000e+00
      2.394      0.022     0.2409      2.363     45.204  42.814931     9.5813      7.618   246.0110 1.7796e+01    11.0169      2.347      3.404    22.4116 0.0000e+00
      2.399      0.021     0.2283      2.339     45.170  42.798090     9.1140      7.616   246.2698 1.7704e+01    11.2359      2.353      3.413    22.3913 0.0000e+00
      2.404      0.020     0.2171      2.394     45.117  42.744942     8.8493      7.614   246.5410 1.7629e+01    11.3591      2.357      3.419    22.3631 0.0000e+00
      2.409      0.018     0.2105      2.538     45.079  42.680096     8.8358      7.612   246.7090 1.7537e+01    11.3786      2.361      3.425    22.3334 0.0000e+00
      2.414      0.016     0.2042      2.726     45.020  42.585239     9.0673      7.611   246.8381 1.7447e+01    11.5744      2.368      3.434    22.3462 0.0000e+00
      2.418      0.015     0.2002      2.871     44.961  42.486575     9.5098      7.610   247.0702 1.7386e+01    11.9499      2.372      3.440    22.3803 0.0000e+00
      2.421      0.015     0.2048      2.919     44.963  42.439153     9.7498      7.609   247.3645 1.7341e+01    12.1278      2.375      3.444    22.3788 0.0000e+00
      2.424      0.015     0.2185      2.875     45.030  42.456088     9.7635      7.609   247.5569 1.7304e+01    12.1199      2.377      3.448    22.3363 0.0000e+00
      2.427      0.016     0.2385      2.754     45.102  42.500857     9.7997      7.608   247.7618 1.7247e+01    12.0932      2.379      3.451    22.2907 0.0000e+00
      2.431      0.018     0.2537      2.577     45.146  42.536126    10.3961      7.606   248.1206 1.7156e+01    12.2830      2.383      3.456    22.2485 0.0000e+00
      2.436      0.020     0.2565      2.362     45.196  42.565159    11.5142      7.605   248.4531 1.7050e+01    12.7412      2.389      3.465    22.1905 0.0000e+00
      2.442      0.022     0.2533      2.131     45.265  42.597984    12.1243      7.604   248.5135 1.6933e+01    13.0217      2.395      3.474    22.1228 0.0000e+00
      2.448      0.022     0.2418      1.942     45.318  42.615616    12.1793      7.602   248.4207 1.6823e+01    13.0446      2.401      3.482    22.1002 0.0000e+00
      2.455      0.021     0.2257      1.819     45.309  42.587877    12.2039      7.599   248.5353 1.6728e+01    13.2906      2.408      3.492    22.1138 0.0000e+00
      2.462      0.019     0.2076      1.751     45.296  42.579928    12.2469      7.597   248.8669 1.6648e+01    13.8437      2.414      3.501    22.0903 0.0000e+00
      2.467      0.018     0.1841      1.729     45.355  42.646463    12.2747      7.596   249.2469 1.6601e+01    14.1997      2.419      3.509    22.0472 0.0000e+00
      2.471      0.018     0.1676      1.730     45.490  42.757655    12.2156      7.594   249.6878 1.6584e+01    14.2809      2.423      3.515    22.0092 0.0000e+00
      2.473      0.020     0.1576      1.741     45.711  42.908773    11.4914      7.592   250.0680 1.6555e+01    14.4840      2.425      3.517    21.9801 0.0000e+00
      2.475      0.025     0.1513      1.764     45.972  43.077151    10.1680      7.589   250.3159 1.6491e+01    14.8444      2.426      3.518    21.9921 0.0000e+00
      2.480      0.030     0.1507      1.786     46.310  43.333533     9.4399      7.584   250.6207 1.6363e+01    15.0858      2.431      3.525    22.0211 0.0000e+00
      2.490      0.034     0.1509      1.768     46.839  43.787021     9.3130      7.580   250.8272 1.6127e+01    15.1825      2.442      3.540    22.0122 0.0000e+00
      2.503      0.037     0.1523      1.704     47.435  44.307392     8.6097      7.578   250.8344 1.5866e+01    15.1598      2.456      3.562    21.9393 0.0000e+00
      2.516      0.038     0.1542      1.648     47.790  44.610677     7.3201      7.576   250.7083 1.5634e+01    14.9824      2.468      3.579    21.8351 0.0000e+00
      2.526      0.037     0.1582      1.624     47.860  44.661014     6.6041      7.574   250.1626 1.5429e+01    14.8135      2.478      3.593    21.7701 0.0000e+00
      2.534      0.035     0.1577      1.599     48.290  45.042959     6.5031      7.572   248.9691 1.5272e+01    14.8261      2.486      3.605    21.7395 0.0000e+00
      2.541      0.034     0.1492      1.564     49.298  45.927742     6.3159      7.570   246.4299 1.5124e+01    14.9979      2.492      3.614    21.6953 0.0000e+00
      2.549      0.035     0.1431      1.542     50.196  46.661975     6.0046      7.567   240.2829 1.4963e+01    15.1479      2.500      3.625    21.6613 0.0000e+00
      2.556      0.040     0.1435      1.543     50.956  47.254803     5.8272      7.564   231.2599 1.4768e+01    15.1709      2.506      3.635    21.6540 0.0000e+00
      2.565      0.045     0.1414      1.558     51.686  47.826126     5.7935      7.562   222.9428 1.4516e+01    15.1396      2.514      3.646    21.6438 0.0000e+00
      2.576      0.050     0.1370      1.567     52.048  48.046321     5.7552      7.561   215.9515 1.4218e+01    15.1465      2.525      3.662    21.6032 0.0000e+00
      2.592      0.051     0.1354      1.553     52.121  48.012408     5.4972      7.560   210.4845 1.3817e+01    15.7662      2.538      3.682    21.4761 0.0000e+00
      2.612      0.048     0.1359      1.526     52.014  47.860358     5.0386      7.557   206.1423 1.3413e+01    16.9960      2.563      3.718    21.3514 0.0000e+00
      2.629      0.042     0.1386      1.512     51.814  47.668046     4.7957      7.555   201.9088 1.3197e+01    17.6840      2.583      3.746    21.2752 0.0000e+00
      2.637      0.033     0.1398      1.499     51.724  47.591796     4.7658      7.553   197.8435 1.3104e+01    17.7307      2.587      3.752    21.1456 0.0000e+00
      2.640      0.024     0.1393      1.476     51.777  47.636806     4.7023      7.552   193.2117 1.3035e+01    17.8685      2.589      3.756    21.0323 0.0000e+00
      2.642      0.018     0.1350      1.467     51.797  47.640866     4.6109      7.551   188.5820 1.2986e+01    18.1549      2.591      3.758    20.9877 0.0000e+00
      2.644      0.015     0.1348      1.477     51.737  47.577374     4.5755      7.548   184.9724 1.2946e+01    18.2896      2.592      3.759    20.9869 0.0000e+00
      2.646      0.017     0.1344      1.483     52.278  48.075365     4.5905      7.545   181.5740 1.2879e+01    18.3355      2.594      3.762    21.0082 0.0000e+00
      2.651      0.020     0.1307      1.484     53.659  49.344718     4.6020      7.542   178.2090 1.2731e+01    18.4370      2.598      3.768    21.0002 0.0000e+00
      2.658      0.024     0.1297      1.481     54.934  50.480797     4.6145      7.539   175.1735 1.2569e+01    18.5257      2.606      3.780    20.9793 0.0000e+00
      2.665      0.027     0.1324      1.475     55.761  51.144745     4.6246      7.537   172.2332 1.2464e+01    18.5540      2.614      3.791    20.9721 0.0000e+00
      2.673      0.028     0.1324      1.480     56.524  51.721108     4.6243      7.535   169.9327 1.2332e+01    18.5747      2.620      3.800    20.9734 0.0000e+00
      2.681      0.027     0.1319      1.468     56.852  51.924937     4.6031      7.534   168.4379 1.2181e+01    18.6735      2.630      3.814    20.9847 0.0000e+00
      2.689      0.026     0.1334      1.439     56.657  51.704094     4.5588      7.531   166.8070 1.2091e+01    18.7584      2.638      3.828    20.9687 0.0000e+00
      2.696      0.024     0.1300      1.432     56.752  51.781374     4.5304      7.529   164.7549 1.2014e+01    18.7470      2.644      3.835    20.8656 0.0000e+00
      2.701      0.023     0.1337      1.431     57.285  52.224339     4.5176      7.528   162.8123 1.1965e+01    18.7409      2.650      3.842    20.7367 0.0000e+00
      2.705      0.024     0.1332      1.423     57.825  52.614825     4.4376      7.527   161.3875 1.1972e+01    19.0249      2.653      3.848    20.6431 0.0000e+00
      2.708      0.026     0.1273      1.420     58.176  52.819459     4.2953      7.524   160.3479 1.1920e+01    19.5507      2.655      3.850    20.6066 0.0000e+00
      2.714      0.028     0.1288      1.420     58.314  52.856803     4.2202      7.522   159.0189 1.1750e+01    19.8042      2.660      3.857    20.6315 0.0000e+00
      2.724      0.029     0.1290      1.427     58.183  52.685209     4.2205      7.520   157.3634 1.1529e+01    19.7665      2.671      3.874    20.6046 0.0000e+00
      2.736      0.029     0.1276      1.432     57.812  52.332228     4.2160      7.519   156.1638 1.1355e+01    19.7447      2.684      3.893    20.4904 0.0000e+00
      2.746      0.027     0.1282      1.417     57.367  51.954544     4.1904      7.518   155.8712 1.1241e+01    19.9850      2.694      3.906    20.3819 0.0000e+00
      2.752      0.022     0.1280      1.401     56.837  51.547774     4.1685      7.517   156.2352 1.1155e+01    20.4510      2.699      3.915    20.3051 0.0000e+00
      2.755      0.017     0.1288      1.405     56.270  51.160603     4.1601      7.516   156.6925 1.1108e+01    20.7333      2.702      3.919    20.2593 0.0000e+00
      2.757      0.013     0.1308      1.400     55.795  50.892922     4.1555      7.514   157.0125 1.1074e+01    20.8013      2.703      3.921    20.2442 0.0000e+00
      2.757      0.012     0.1284      1.375     55.436  50.724408     4.1624      7.513   157.1795 1.1014e+01    20.8298      2.704      3.922    20.2615 0.0000e+00
      2.759      0.013     0.1248      1.368     55.222  50.647268     4.1771      7.512   157.1626 1.0904e+01    20.8728      2.705      3.923    20.3256 0.0000e+00
      2.763      0.015     0.1275      1.388     55.162  50.658860     4.1836      7.511   156.9803 1.0727e+01    20.8779      2.709      3.929    20.4400 0.0000e+00
      2.769      0.018     0.1267      1.403     55.175  50.674161     4.1906      7.511   156.6101 1.0512e+01    20.8574      2.714      3.937    20.6064 0.0000e+00
      2.775      0.021     0.1224      1.412     55.206  50.641783     4.2032      7.510   156.0415 1.0325e+01    21.0687      2.721      3.946    20.7608 0.0000e+00
      2.780      0.023     0.1207      1.430     55.521  50.838768     4.2033      7.507   155.3544 1.0176e+01    21.4170      2.726      3.954    20.8686 0.0000e+00
      2.785      0.025     0.1242      1.426     56.280  51.468308     4.1919      7.505   154.8418 1.0005e+01    21.5501      2.730      3.960    20.9329 0.0000e+00
      2.792      0.025     0.1263      1.426     57.129  52.221037     4.1817      7.503   154.5748 9.8104e+00    21.5515      2.738      3.971    20.9400 0.0000e+00
      2.799      0.025     0.1243      1.448     57.822  52.827909     4.1046      7.501   154.3636 9.6249e+00    21.7060      2.745      3.981    20.8748 0.0000e+00
      2.807      0.024     0.1301      1.444     58.469  53.344728     3.9593      7.499   154.1806 9.4629e+00    21.9838      2.752      3.992    20.7654 0.0000e+00
      2.814      0.023     0.1277      1.422     59.254  53.960953     3.8734      7.498   154.0836 9.3581e+00    22.1098      2.761      4.004    20.7014 0.0000e+00
      2.819      0.021     0.1256      1.411     60.508  55.007475     3.8560      7.498   153.9647 9.2947e+00    22.0673      2.765      4.011    20.7001 0.0000e+00
      2.823      0.019     0.1321      1.399     62.432  56.598582     3.8485      7.497   153.6032 9.2391e+00    22.0513      2.768      4.014    20.6979 0.0000e+00
      2.826      0.019     0.1302      1.379     64.571  58.273020     3.8496      7.495   153.2400 9.1832e+00    22.0875      2.772      4.020    20.6250 0.0000e+00
      2.830      0.020     0.1270      1.367     66.244  59.500239     3.8621      7.494   153.0158 9.1192e+00    22.1285      2.775      4.025    20.5128 0.0000e+00
      2.835      0.021     0.1274      1.367     67.326  60.256574     3.8658      7.492   152.6128 9.0323e+00    22.1371      2.780      4.032    20.4693 0.0000e+00
      2.841      0.023     0.1271      1.364     68.035  60.747355     3.8689      7.487   152.0676 8.9058e+00    21.9876      2.786      4.041    20.3734 0.0000e+00
      2.849      0.024     0.1243      1.354     68.480  61.050642     3.8825      7.483   151.4993 8.7628e+00    21.7207      2.794      4.053    20.1220 0.0000e+00
      2.856      0.024     0.1242      1.361     68.785  61.255261     3.8892      7.480   150.9039 8.6450e+00    21.6085      2.801      4.063    19.8822 0.0000e+00
      2.861      0.024     0.1251      1.373     69.127  61.505994     3.8925      7.477   150.2895 8.5229e+00    21.6218      2.805      4.069    19.7271 0.0000e+00
      2.867      0.023     0.1255      1.350     69.651  61.922116     3.8969      7.473   149.3188 8.3822e+00    21.5739      2.811      4.078    19.6264 0.0000e+00
      2.873      0.023     0.1235      1.322     70.401  62.538102     3.9342      7.471   147.7716 8.2577e+00    21.4056      2.818      4.087    19.5642 0.0000e+00
      2.879      0.023     0.1237      1.307     71.246  63.235755     4.0024      7.469   145.5206 8.1308e+00    21.1585      2.823      4.095    19.5191 0.0000e+00
      2.884      0.024     0.1291      1.303     72.175  64.003790     4.0382      7.466   142.9243 7.9774e+00    20.9773      2.828      4.102    19.4827 0.0000e+00
      2.890      0.026     0.1234      1.310     73.686  65.279882     4.0345      7.464   140.9006 7.7983e+00    20.8197      2.834      4.110    19.4468 0.0000e+00
      2.897      0.029     0.1211      1.312     75.397  66.718758     4.0235      7.462   139.2061 7.6118e+00    20.2087      2.841      4.120    19.4115 0.0000e+00
      2.903      0.031     0.1205      1.316     76.576  67.675391     4.0147      7.460   136.9768 7.3698e+00    19.1922      2.846      4.127    19.3757 0.0000e+00
      2.912      0.031     0.1188      1.321     77.837  68.712257     4.0197      7.458   133.3911 7.0414e+00    18.6417      2.855      4.139    19.3359 0.0000e+00
      2.924      0.030     0.1219      1.318     79.048  69.722374     4.0421      7.457   128.4611 6.7858e+00    18.5397      2.870      4.162    19.2952 0.0000e+00
      2.933      0.027     0.1205      1.325     79.671  70.228319     4.0358      7.456   123.8304 6.6803e+00    18.0603      2.879      4.175    19.2450 0.0000e+00
      2.938      0.024     0.1216      1.337     79.884  70.380534     3.9927      7.453   120.5067 6.6106e+00    17.2177      2.881      4.179    19.1809 0.0000e+00
      2.941      0.020     0.1230      1.342     79.603  70.100892     3.9619      7.451   118.1307 6.5239e+00    16.7210      2.885      4.184    19.1297 0.0000e+00
      2.946      0.016     0.1211      1.340     78.968  69.516596     3.9714      7.449   116.1814 6.4419e+00    16.6661      2.889      4.190    19.0946 0.0000e+00
      2.950      0.014     0.1226      1.329     78.355  68.972406     4.0001      7.447   114.4040 6.3615e+00    16.6224      2.893      4.194    19.0669 0.0000e+00
      2.953      0.014     0.1246      1.308     77.982  68.669129     4.0092      7.445   112.6445 6.2822e+00    16.4662      2.896      4.201    19.0472 0.0000e+00
      2.957      0.016     0.1242      1.286     79.783  70.298487     3.9982      7.443   110.8244 6.2165e+00    16.3147      2.899      4.206    19.0254 0.0000e+00
      2.961      0.021     0.1248      1.284     84.973  74.879000     3.9838      7.441   109.2605 6.1745e+00    16.1914      2.904      4.211    19.0064 0.0000e+00
      2.963      0.027     0.1234      1.296     89.656  78.917965     3.9683      7.439   108.1039 6.1556e+00    16.0346      2.906      4.215    19.0008 0.0000e+00
      2.968      0.032     0.1216      1.303     91.258  80.162331     3.9521      7.438   106.9928 6.0594e+00    15.8878      2.906      4.215    19.0186 0.0000e+00
      2.978      0.035     0.1180      1.304     91.128  79.878267     3.9543      7.436   105.7207 5.8454e+00    15.8513      2.917      4.232    19.0559 0.0000e+00
      2.994      0.035     0.1183      1.302     89.733  78.535317     3.9706      7.433   104.4239 5.6755e+00    15.8317      2.937      4.262    19.0806 0.0000e+00
      3.007      0.033     0.1205      1.304     88.063  77.023208     3.9652      7.431   103.1873 5.6098e+00    15.2063      2.952      4.281    19.0277 0.0000e+00
      3.015      0.028     0.1209      1.306     88.010  76.982593     3.9390      7.428   101.8676 5.5933e+00    13.9942      2.958      4.290    18.9124 0.0000e+00
      3.020      0.025     0.1216      1.302     90.013  78.743653     3.9202      7.424   100.5140 5.6253e+00    13.3035      2.963      4.298    18.8145 0.0000e+00
      3.021      0.024     0.1211      1.298     92.800  81.148238     3.9127      7.419    99.2969 5.6707e+00    13.2093      2.962      4.296    18.7392 0.0000e+00
      3.021      0.026     0.1214      1.303     94.334  82.401135     3.9076      7.415    98.1649 5.6579e+00    13.1287      2.960      4.293    18.7128 0.0000e+00
      3.026      0.028     0.1223      1.318     94.006  82.000455     3.9329      7.411    97.0659 5.5263e+00    12.6698      2.965      4.301    18.7324 0.0000e+00
      3.041      0.029     0.1213      1.326     92.969  81.009627     3.9934      7.408    95.9034 5.3393e+00    11.8969      2.982      4.324    18.7449 0.0000e+00
      3.056      0.029     0.1206      1.318     92.149  80.278131     4.0324      7.405    94.5197 5.2488e+00    11.4704      3.001      4.352    18.7307 0.0000e+00
      3.065      0.027     0.1210      1.298     91.719  79.960297     4.0375      7.402    93.1549 5.2632e+00    11.3725      3.008      4.363    18.6769 0.0000e+00
      3.068      0.023     0.1236      1.275     91.688  80.028373     4.0053      7.397    91.9639 5.3054e+00    11.2248      3.009      4.364    18.6028 0.0000e+00
      3.068      0.021     0.1246      1.267     93.646  81.800848     3.9421      7.393    90.6166 5.3424e+00    10.9823      3.008      4.363    18.5501 0.0000e+00
      3.069      0.022     0.1237      1.269     97.414  85.046075     3.9061      7.389    89.1675 5.3380e+00    10.8326      3.009      4.364    18.5381 0.0000e+00
      3.074      0.025     0.1220      1.284     99.068  86.321221     3.9034      7.386    87.8653 5.2756e+00    10.8486      3.014      4.371    18.5767 0.0000e+00
      3.083      0.029     0.1177      1.302     98.355  85.516352     3.9012      7.382    86.8310 5.1446e+00    10.8692      3.022      4.383    18.6434 0.0000e+00
      3.095      0.032     0.1188      1.308     97.858  84.982663     3.8873      7.379    86.1265 4.9481e+00    10.8081      3.034      4.402    18.6917 0.0000e+00
      3.107      0.032     0.1174      1.308     97.291  84.448137     3.8773      7.377    85.5422 4.7940e+00    10.7243      3.050      4.423    18.6790 0.0000e+00
      3.115      0.029     0.1199      1.287     96.209  83.505509     3.8721      7.376    84.9277 4.7297e+00    10.6416      3.056      4.432    18.5640 0.0000e+00
      3.120      0.024     0.1233      1.266     96.087  83.443688     3.8827      7.375    84.2041 4.6724e+00    10.3547      3.059      4.437    18.4422 0.0000e+00
      3.125      0.021     0.1219      1.267     97.579  84.781955     3.9223      7.374    83.3318 4.6154e+00     9.9198      3.066      4.446    18.4108 0.0000e+00
      3.129      0.020     0.1245      1.277     99.602  86.520550     3.9595      7.372    82.3831 4.5864e+00     9.7561      3.069      4.452    18.3918 0.0000e+00
      3.132      0.022     0.1207      1.287    100.992  87.609107     3.9821      7.369    81.3370 4.5430e+00     9.8095      3.071      4.454    18.3774 0.0000e+00
      3.136      0.025     0.1176      1.302    101.545  87.893052     4.0291      7.366    80.0617 4.4543e+00     9.8141      3.074      4.459    18.4193 0.0000e+00
      3.144      0.027     0.1190      1.315    101.758  87.917858     4.1042      7.364    78.4071 4.3170e+00     9.7431      3.081      4.469    18.4492 0.0000e+00
      3.154      0.027     0.1199      1.319    101.609  87.717987     4.1489      7.362    76.6469 4.1571e+00     9.6685      3.094      4.487    18.4477 0.0000e+00
      3.164      0.026     0.1205      1.317    101.034  87.193878     4.1623      7.359    75.3847 4.0222e+00     9.6643      3.104      4.503    18.3920 0.0000e+00
      3.171      0.023     0.1229      1.304    100.579  86.797107     4.2321      7.356    74.5026 3.9257e+00     9.5555      3.110      4.511    18.2618 0.0000e+00
      3.175      0.018     0.1244      1.278    100.326  86.610165     4.3685      7.356    73.4672 3.8671e+00     9.3094      3.114      4.517    18.1737 0.0000e+00
      3.178      0.014     0.1242      1.252    100.102  86.460268     4.4548      7.355    72.2441 3.8399e+00     9.2173      3.117      4.521    18.1567 0.0000e+00
      3.180      0.012     0.1248      1.241     99.985  86.384203     4.4935      7.353    70.8130 3.8129e+00     9.2614      3.119      4.523    18.1450 0.0000e+00
      3.181      0.010     0.1238      1.249     99.916  86.326598     4.6622      7.352    69.4130 3.7744e+00     9.0906      3.120      4.525    18.1349 0.0000e+00
      3.184      0.009     0.1204      1.266     99.870  86.272634     4.9382      7.352    68.4816 3.7282e+00     8.7236      3.122      4.528    18.1580 0.0000e+00
      3.187      0.009     0.1174      1.275    100.061  86.431409     5.0834      7.351    67.8115 3.6748e+00     8.5126      3.125      4.533    18.1873 0.0000e+00
      3.190      0.008     0.1163      1.270    100.601  86.910511     5.1019      7.350    67.0753 3.6318e+00     8.4875      3.128      4.537    18.1972 0.0000e+00
      3.192      0.008     0.1174      1.272    101.265  87.485476     5.1119      7.348    66.2054 3.6086e+00     8.4883      3.130      4.541    18.1999 0.0000e+00
      3.194      0.007     0.1196      1.292    101.735  87.849032     5.2875      7.348    65.2089 3.5958e+00     8.4879      3.132      4.543    18.1864 0.0000e+00
      3.195      0.006     0.1210      1.301    101.779  87.807464     5.6362      7.348    64.2324 3.5775e+00     8.5161      3.133      4.543    18.1779 0.0000e+00
      3.196      0.006     0.1197      1.290    101.426  87.428065     5.8408      7.347    63.1746 3.5453e+00     8.5566      3.134      4.545    18.1936 0.0000e+00
      3.197      0.007     0.1183      1.274    100.895  86.951211     5.9049      7.347    61.5406 3.5067e+00     8.6364      3.135      4.547    18.2019 0.0000e+00
      3.199      0.008     0.1229      1.253    100.361  86.558286     6.2781      7.347    59.3605 3.4513e+00     9.3442      3.137      4.550    18.1786 0.0000e+00
      3.201      0.009     0.1237      1.241    100.028  86.366756     6.9573      7.347    57.1199 3.3719e+00    10.5904      3.139      4.553    18.1314 0.0000e+00
      3.204      0.009     0.1215      1.248    100.060  86.416662     7.3428      7.347    54.9275 3.2962e+00    11.2356      3.142      4.556    18.0859 0.0000e+00
      3.207      0.009     0.1209      1.244    100.251  86.525624     7.4428      7.347    52.4688 3.2377e+00    11.4061      3.145      4.561    18.0657 0.0000e+00
      3.209      0.009     0.1181      1.228    100.228  86.475535     8.1331      7.347    49.5898 3.1888e+00    12.5831      3.147      4.564    18.1103 0.0000e+00
      3.211      0.009     0.1155      1.229    100.190  86.510710     9.3974      7.346    46.7898 3.1440e+00    14.6729      3.149      4.567    18.1865 0.0000e+00
      3.213      0.009     0.1183      1.234    100.358  86.760173    10.1031      7.343    44.2547 3.0818e+00    15.8369      3.151      4.570    18.1978 0.0000e+00
      3.216      0.009     0.1185      1.234    100.293  86.756671    10.2736      7.339    41.3078 3.0067e+00    16.2038      3.153      4.573    18.1441 0.0000e+00
      3.219      0.010     0.1144      1.243     99.705  86.277600    11.2998      7.335    38.0039 2.9652e+00    19.5870      3.157      4.578    18.1097 0.0000e+00
      3.221      0.011     0.1160      1.262     99.005  85.738497    13.1562      7.331    35.2811 2.9451e+00    25.8974      3.159      4.581    18.1609 0.0000e+00
      3.222      0.013     0.1169      1.267     98.664  85.518019    14.1669      7.327    33.4246 2.8759e+00    29.4441      3.159      4.582    18.2391 0.0000e+00
      3.226      0.013     0.1155      1.254     98.620  85.520156    14.3321      7.323    31.9905 2.7414e+00    30.6330      3.163      4.587    18.2529 0.0000e+00
      3.231      0.012     0.1167      1.253     98.588  85.509957    15.1866      7.321    30.5893 2.6059e+00    39.9990      3.168      4.595    18.2475 0.0000e+00
      3.235      0.012     0.1190      1.262     98.512  85.458329    16.7408      7.319    29.1305 2.5329e+00    57.1183      3.173      4.603    18.2950 0.0000e+00
      3.238      0.011     0.1206      1.257     98.494  85.468410    17.6010      7.317    27.4301 2.4997e+00    66.5169      3.176      4.606    18.3441 0.0000e+00
      3.239      0.009     0.1167      1.247     98.416  85.441054    17.7303      7.314    25.4312 2.4682e+00    67.9301      3.177      4.607    18.3567 0.0000e+00
      3.241      0.008     0.1172      1.238     98.311  85.382046    18.3043      7.313    23.5461 2.4441e+00    74.5129      3.179      4.610    18.3636 0.0000e+00
      3.242      0.007     0.1196      1.228     98.554  85.581877    19.3561      7.312    21.9321 2.3969e+00    86.5687      3.179      4.611    18.3686 0.0000e+00
      3.244      0.006     0.1179      1.221     99.071  85.948973    19.9357      7.311    20.3710 2.3172e+00    93.2152      3.180      4.614    18.3789 0.0000e+00
      3.247      0.006     0.1171      1.223     99.497  86.194844    20.0189      7.309    18.9530 2.2581e+00    94.2087      3.185      4.618    18.4049 0.0000e+00
      3.249      0.005     0.1161      1.222     99.694  86.264629    20.2696      7.308    17.7792 2.2469e+00    98.0352      3.187      4.621    18.4269 0.0000e+00
      3.250      0.005     0.1155      1.219     99.721  86.220120    20.6950      7.307    16.6762 2.2587e+00   104.8432      3.187      4.622    18.4301 0.0000e+00
      3.250      0.005     0.1136      1.229     99.798  86.229089    20.9092      7.305    15.5969 2.2499e+00   108.5108      3.186      4.620    18.3846 0.0000e+00
      3.251      0.005     0.1156      1.239    100.018  86.373004    20.9043      7.304    14.5376 2.2085e+00   108.8356      3.187      4.622    18.3020 0.0000e+00
      3.253      0.006     0.1154      1.233    100.196  86.497104    20.7188      7.303    13.4189 2.1555e+00   109.2835      3.190      4.626    18.2539 0.0000e+00
      3.255      0.007     0.1138      1.222    100.181  86.457340    18.5988      7.303    12.1370 2.1144e+00   114.1301      3.192      4.631    18.2270 0.0000e+00
      3.257      0.007     0.1161      1.223    100.005  86.273855    14.7063      7.303    10.7400 2.0824e+00   123.0282      3.194      4.633    18.1948 0.0000e+00
      3.258      0.007     0.1175      1.230     99.707  85.996006    12.5741      7.303     9.4333 2.0384e+00   127.8852      3.195      4.634    18.1710 0.0000e+00
      3.259      0.007     0.1166      1.235     99.428  85.769416    12.1868      7.302     8.2115 1.9928e+00   127.7992      3.196      4.636    18.1588 0.0000e+00
      3.261      0.007     0.1146      1.247     99.279  85.696875    10.0067      7.302     6.9805 1.9582e+00   121.4078      3.198      4.638    18.1482 0.0000e+00
      3.262      0.007     0.1150      1.249     99.191  85.691466     6.0571      7.302     5.9069 1.9210e+00   109.5663      3.199      4.640    18.1291 0.0000e+00
      3.265      0.007     0.1166      1.239     99.152  85.704108     3.9006      7.303     5.1250 1.8714e+00   103.0212      3.201      4.643    18.1130 0.0000e+00
      3.267      0.006     0.1157      1.234     99.156  85.722565     3.6497      7.304     4.4959 1.8265e+00   101.6745      3.204      4.646    18.1176 0.0000e+00
      3.269      0.005     0.1183      1.231     99.222  85.787439     3.1397      7.304     3.8924 1.8074e+00    93.2159      3.206      4.649    18.1522 0.0000e+00
      3.270      0.004     0.1185      1.231     99.357  85.916031     2.2542      7.304     3.2488 1.8041e+00    77.7783      3.206      4.650    18.1966 0.0000e+00
      3.271      0.003     0.1158      1.238     99.448  86.005219     1.7820      7.305     2.3930 1.8084e+00    69.2830      3.207      4.651    18.2215 0.0000e+00
      3.271      0.003     0.1165      1.245     99.467  86.038914     1.7253      7.307     1.2884 1.8183e+00    67.3248      3.208      4.653    18.2221 0.0000e+00
      3.271      0.003     0.1160      1.246     99.617  86.196245     1.3776      7.307     0.2175 1.8172e+00    53.5552      3.208      4.653    18.2230 0.0000e+00
      3.271      0.003     0.1153      1.244    100.119  86.635353     0.7246      7.307    -0.5749 1.7951e+00    28.3327      3.208      4.653    18.2337 0.0000e+00
      3.272      0.003     0.1168      1.244    100.841  87.213493     0.3544      7.308    -1.3230 1.7662e+00    14.5267      3.209      4.654    18.2353 0.0000e+00
      3.274      0.003     0.1174      1.252    101.452  87.652256     0.2969      7.309    -2.2020 1.7452e+00    13.0180      3.211      4.657    18.2418 0.0000e+00
      3.276      0.003     0.1173      1.263    101.745  87.805480     0.1962      7.309    -2.9440 1.7366e+00    10.1246      3.212      4.659    18.2639 0.0000e+00
      3.277      0.003     0.1171      1.265    101.750  87.730095     0.0442      7.310    -3.6685 1.7432e+00     5.0597      3.213      4.661    18.2724 0.0000e+00
      3.277      0.003     0.1168      1.247    101.695  87.631280    -0.0175      7.311    -4.5097 1.7503e+00     2.3354      3.213      4.661    18.2480 0.0000e+00
      3.277      0.003     0.1179      1.222    101.661  87.564857    -0.0180      7.311    -5.1989 1.7465e+00     2.0527      3.213      4.661    18.1962 0.0000e+00
      3.277      0.004     0.1190      1.224    101.721  87.563071    -0.0361      7.311    -5.7214 1.7219e+00     1.6082      3.213      4.661    18.1405 0.0000e+00
      3.278      0.004     0.1207      1.252    102.016  87.736840    -0.0533      7.311    -6.2661 1.6671e+00     0.8543      3.215      4.663    18.1004 0.0000e+00
      3.280      0.004     0.1181      1.269    102.444  88.011830    -0.0594      7.312    -6.8809 1.6178e+00     0.4531      3.216      4.665    18.0778 0.0000e+00
      3.282      0.004     0.1143      1.264    102.802  88.216036    -0.0602      7.314    -7.4768 1.5918e+00     0.4458      3.218      4.667    18.0659 0.0000e+00
      3.283      0.004     0.1142      1.256    103.019  88.297296    -0.0551      7.315    -8.0499 1.5797e+00     0.5622      3.220      4.670    18.0431 0.0000e+00
      3.284      0.004     0.1191      1.245    103.172  88.358061    -0.0393      7.315    -8.6479 1.5830e+00     0.7326      3.220      4.671    17.9979 0.0000e+00
      3.284      0.003     0.1215      1.240    103.372  88.505335    -0.0265      7.315    -9.2013 1.5737e+00     0.7977      3.221      4.671    17.9528 0.0000e+00
      3.284      0.003     0.1192      1.242    103.732  88.805623    -0.0256      7.315    -9.6644 1.5405e+00     0.7695      3.220      4.671    17.9048 0.0000e+00
      3.285      0.003     0.1201      1.234    104.196  89.189666    -0.0278      7.316   -10.1175 1.5032e+00     0.6988      3.222      4.674    17.8433 0.0000e+00
      3.287      0.004     0.1179      1.231    104.551  89.458928    -0.0366      7.318   -10.6359 1.4683e+00     0.4213      3.224      4.676    17.8059 0.0000e+00
      3.288      0.004     0.1170      1.225    104.776  89.580093    -0.0490      7.319   -11.1998 1.4468e+00    -0.0246      3.225      4.677    17.8034 0.0000e+00
      3.289      0.004     0.1195      1.202    104.956  89.636650    -0.0525      7.319   -11.7730 1.4354e+00    -0.2520      3.226      4.679    17.8024 0.0000e+00
      3.289      0.003     0.1163      1.197    105.132  89.697297    -0.0470      7.320   -12.4040 1.4139e+00    -0.2436      3.226      4.679    17.7966 0.0000e+00
      3.290      0.003     0.1169      1.217    105.394  89.867920    -0.0398      7.320   -13.0647 1.3942e+00    -0.2307      3.227      4.680    17.7867 0.0000e+00
      3.291      0.004     0.1180      1.222    105.767  90.172685    -0.0317      7.321   -13.6530 1.3817e+00    -0.2327      3.227      4.681    17.7498 0.0000e+00
      3.292      0.004     0.1135      1.212    106.198  90.519215    -0.0241      7.324   -14.1827 1.3533e+00    -0.2332      3.228      4.683    17.6954 0.0000e+00
      3.293      0.003     0.1124      1.215    106.568  90.749421    -0.0314      7.325   -14.7372 1.3143e+00    -0.2377      3.230      4.684    17.6486 0.0000e+00
      3.295      0.003     0.1176      1.226    106.690  90.729190    -0.0448      7.324   -15.2812 1.2875e+00    -0.2527      3.231      4.686    17.6211 0.0000e+00
      3.296      0.003     0.1174      1.222    106.698  90.656169    -0.0528      7.324   -15.6829 1.2811e+00    -0.2770      3.232      4.688    17.6235 0.0000e+00
      3.296      0.003     0.1144      1.203    106.904  90.820770    -0.0533      7.324   -15.9801 1.2799e+00    -0.2932      3.232      4.688    17.6292 0.0000e+00
      3.296      0.002     0.1158      1.203    107.155  91.065152    -0.0423      7.325   -16.3799 1.2719e+00    -0.2435      3.231      4.687    17.5844 0.0000e+00
      3.297      0.002     0.1174      1.215    107.156  91.129679    -0.0367      7.326   -16.9034 1.2620e+00    -0.1882      3.233      4.689    17.5041 0.0000e+00
      3.298      0.001     0.1185      1.211    107.020  91.092049    -0.0347      7.326   -17.4059 1.2570e+00    -0.2402      3.234      4.691    17.4641 0.0000e+00
      3.298      0.001     0.1133      1.205    106.918  91.055653    -0.0349      7.327   -17.8093 1.2724e+00    -0.2915      3.234      4.691    17.4699 0.0000e+00
      3.298      0.001     0.1143      1.199    106.921  91.071426    -0.0480      7.327   -18.1677 1.2877e+00    -0.2613      3.234      4.690    17.4819 0.0000e+00
      3.298      0.001     0.1178      1.199    107.097  91.219148    -0.0598      7.327   -18.5556 1.2684e+00    -0.2170      3.234      4.691    17.5129 0.0000e+00
      3.298      0.001     0.1147      1.215    107.352  91.441997    -0.0608      7.327   -18.9709 1.2361e+00    -0.1998      3.234      4.691    17.5618 0.0000e+00
      3.299      0.001     0.1154      1.230    107.527  91.602631    -0.0522      7.327   -19.4033 1.2288e+00    -0.1896      3.235      4.692    17.5845 0.0000e+00
      3.300      0.002     0.1143      1.235    107.592  91.634368    -0.0394      7.327   -19.7403 1.2356e+00    -0.1284      3.236      4.694    17.5861 0.0000e+00
      3.300      0.002     0.1133      1.229    107.629  91.571201    -0.0305      7.327   -20.0340 1.2242e+00    -0.0751      3.236      4.693    17.5813 0.0000e+00
      3.300      0.002     0.1165      1.217    107.765  91.538637    -0.0278      7.327   -20.4591 1.2049e+00    -0.0908      3.237      4.695    17.5812 0.0000e+00
      3.300      0.002     0.1178      1.212    108.033  91.622206    -0.0400      7.327   -21.0086 1.1963e+00    -0.1478      3.237      4.694    17.5971 0.0000e+00
      3.301      0.002     0.1180      1.204    108.212  91.690677    -0.0618      7.327   -21.6875 1.1954e+00    -0.2174      3.237      4.695    17.5941 0.0000e+00
      3.301      0.002     0.1179      1.189    108.199  91.666523    -0.0673      7.327   -22.3868 1.1791e+00    -0.2156      3.238      4.696    17.5465 0.0000e+00
      3.302      0.003     0.1159      1.185    108.152  91.648279    -0.0564      7.328   -22.8385 1.1360e+00    -0.1598      3.237      4.695    17.4662 0.0000e+00
      3.303      0.003     0.1162      1.189    108.140  91.661008    -0.0466      7.329   -23.1058 1.0921e+00    -0.1575      3.238      4.697    17.3889 0.0000e+00
      3.304      0.002     0.1163      1.189    108.165  91.693197    -0.0402      7.329   -23.5530 1.0671e+00    -0.1195      3.240      4.699    17.3489 0.0000e+00
      3.305      0.002     0.1131      1.200    108.204  91.719354    -0.0283      7.329   -24.2875 1.0578e+00     0.4023      3.241      4.700    17.3504 0.0000e+00
      3.305      0.003     0.1132      1.215    108.159  91.659129     0.0550      7.329   -25.1905 1.0518e+00     6.3214      3.241      4.701    17.3674 0.0000e+00
      3.305      0.003     0.1149      1.211    108.035  91.537633     0.2097      7.328   -26.1256 1.0503e+00    17.3059      3.241      4.701    17.3781 0.0000e+00
      3.305      0.004     0.1130      1.200    107.935  91.459228     0.2937      7.328   -26.9026 1.0364e+00    23.5639      3.240      4.699    17.3847 0.0000e+00
      3.306      0.004     0.1147      1.194    107.858  91.411029     0.3146      7.328   -27.6160 9.8936e-01    26.8186      3.243      4.703    17.3817 0.0000e+00
      3.308      0.005     0.1175      1.186    107.761  91.336639     0.5120      7.329   -28.3850 9.2178e-01    56.5559      3.244      4.705    17.3680 0.0000e+00
      3.310      0.005     0.1165      1.179    107.661  91.259670     0.8664      7.329   -29.0587 8.6030e-01   111.0006      3.246      4.708    17.3556 0.0000e+00
      3.312      0.005     0.1145      1.176    107.626  91.243910     1.0529      7.329   -29.6530 8.2955e-01   140.7406      3.248      4.711    17.3610 0.0000e+00
      3.313      0.005     0.1146      1.162    107.736  91.336985     1.0611      7.329   -30.2357 8.1296e-01   143.6501      3.248      4.711    17.3756 0.0000e+00
      3.313      0.004     0.1141      1.162    107.946  91.494288     1.0316      7.330   -30.8567 7.8413e-01   146.5885      3.250      4.713    17.3748 0.0000e+00
      3.314      0.004     0.1121      1.190    108.196  91.682431     0.9886      7.330   -31.6551 7.4402e-01   151.7074      3.249      4.713    17.3758 0.0000e+00
      3.315      0.004     0.1139      1.208    108.614  92.021125     0.9735      7.330   -32.8338 7.1825e-01   154.4740      3.251      4.715    17.3887 0.0000e+00
      3.317      0.005     0.1110      1.204    109.085  92.408026     0.9820      7.330   -34.1817 6.9777e-01   154.0447      3.253      4.718    17.3905 0.0000e+00
      3.317      0.006     0.1094      1.201    109.182  92.479115     1.0170      7.330   -35.1318 6.6684e-01   146.8235      3.253      4.718    17.3751 0.0000e+00
      3.318      0.006     0.1150      1.197    108.921  92.244368     1.0800      7.330   -35.7173 6.3361e-01   133.6030      3.253      4.718    17.3620 0.0000e+00
      3.320      0.006     0.1172      1.186    108.580  91.923952     1.1197      7.331   -36.1840 5.8754e-01   126.2579      3.255      4.721    17.3576 0.0000e+00
      3.323      0.006     0.1148      1.179    108.245  91.595437     1.1138      7.331   -36.6457 5.3994e-01   124.1810      3.260      4.727    17.3516 0.0000e+00
      3.325      0.006     0.1153      1.179    108.054  91.389964     1.0341      7.332   -37.2559 5.1581e-01   109.2766      3.262      4.731    17.3454 0.0000e+00
      3.326      0.005     0.1156      1.188    108.058  91.348327     0.8965      7.332   -37.9690 5.1455e-01    82.2100      3.261      4.730    17.3443 0.0000e+00
      3.327      0.004     0.1132      1.192    108.111  91.346447     0.8155      7.332   -38.6423 5.1375e-01    67.3949      3.262      4.731    17.3294 0.0000e+00
      3.327      0.004     0.1134      1.177    108.100  91.303554     0.7954      7.332   -39.2880 5.0728e-01    65.1122      3.263      4.732    17.3030 0.0000e+00
      3.328      0.004     0.1127      1.177    108.317  91.465913     0.6866      7.332   -40.1838 4.9869e-01    54.5423      3.262      4.732    17.2856 0.0000e+00
      3.329      0.005     0.1139      1.183    109.089  92.100581     0.4982      7.332   -41.3861 4.7988e-01    35.3439      3.264      4.734    17.2654 0.0000e+00
      3.331      0.006     0.1166      1.175    109.920  92.805406     0.3992      7.332   -42.7256 4.5241e-01    24.8939      3.266      4.737    17.2392 0.0000e+00
      3.332      0.008     0.1117      1.193    110.393  93.243311     0.3801      7.328   -44.1621 4.1848e-01    23.9067      3.267      4.739    17.2235 0.0000e+00
      3.333      0.010     0.1127      1.214    110.668  93.513870     0.3585      7.316   -45.6761 3.8447e-01    23.4085      3.267      4.739    17.2188 0.0000e+00
      3.336      0.012     0.1161      1.201    110.840  93.658768     0.2714      7.298   -48.9862 3.4540e-01    19.7579      3.272      4.745    17.2067 0.0000e+00
      3.340      0.014     0.1105      1.177    110.945  93.722617     0.1261      7.278   -56.3080 2.9659e-01    13.1749      3.276      4.751    17.2013 0.0000e+00
      3.344      0.015     0.1144      1.162    111.022  93.776765     0.0494      7.262   -66.2321 2.5817e-01     9.6059      3.280      4.756    17.2284 0.0000e+00
      3.348      0.016     0.1191      1.154    111.482  94.186181     0.0523      7.252   -75.5394 2.3138e-01     9.5686      3.284      4.763    17.2549 0.0000e+00
      3.352      0.016     0.1151      1.152    112.393  94.982046     0.0940      7.248   -82.6301 2.1217e-01    12.8611      3.287      4.768    17.2504 0.0000e+00
      3.356      0.015     0.1130      1.157    113.024  95.508736     0.1629      7.247   -87.8659 1.9125e-01    18.9790      3.292      4.774    17.2303 0.0000e+00
      3.360      0.014     0.1115      1.171    112.959  95.399782     0.2034      7.248   -92.0396 1.5785e-01    22.3258      3.295      4.779    17.2230 0.0000e+00
      3.364      0.012     0.1107      1.195    112.414  94.873737     0.1995      7.251   -95.1514 1.3488e-01    22.7551      3.299      4.785    17.2371 0.0000e+00
      3.367      0.011     0.1104      1.223    111.959  94.430142     0.2074      7.254   -97.6995 1.3327e-01    24.8524      3.302      4.790    17.2561 0.0000e+00
      3.370      0.009     0.1110      1.234    111.744  94.172602     0.2499      7.258  -100.6498 1.4533e-01    28.7600      3.304      4.793    17.2573 0.0000e+00
      3.372      0.008     0.1123      1.228    111.447  93.859674     0.2799      7.262  -103.8931 1.5739e-01    30.9228      3.306      4.795    17.2252 0.0000e+00
      3.373      0.006     0.1146      1.216    111.098  93.573610     0.3045      7.267  -107.0583 1.4854e-01    31.7018      3.307      4.797    17.1888 0.0000e+00
      3.374      0.005     0.1187      1.206    110.819  93.386424     0.4645      7.271  -110.1827 1.3128e-01    38.1443      3.309      4.799    17.1743 0.0000e+00
      3.376      0.005     0.1197      1.201    110.091  92.805509     0.7323      7.274  -112.9322 1.2499e-01    49.8608      3.311      4.802    17.1347 0.0000e+00
      3.377      0.005     0.1186      1.191    109.595  92.403642     0.8779      7.277  -115.2654 1.2734e-01    56.2659      3.312      4.804    17.0873 0.0000e+00
      3.378      0.005     0.1171      1.180    110.348  93.045022     0.9441      7.281  -117.5709 1.3240e-01    57.2783      3.312      4.804    17.1027 0.0000e+00
      3.379      0.005     0.1156      1.175    111.037  93.624857     1.5657      7.284  -120.0732 1.3200e-01    62.1011      3.313      4.807    17.1366 0.0000e+00
      3.381      0.004     0.1159      1.172    111.105  93.687835     2.7261      7.288  -122.7211 1.2682e-01    70.7851      3.315      4.809    17.1470 0.0000e+00
      3.381      0.004     0.1149      1.167    111.148  93.742856     3.3801      7.293  -125.2371 1.2410e-01    75.5112      3.316      4.809    17.1536 0.0000e+00
      3.382      0.004     0.1130      1.169    111.101  93.717452     3.4711      7.297  -127.6930 1.2385e-01    75.9978      3.317      4.811    17.1579 0.0000e+00
      3.384      0.004     0.1133      1.185    110.937  93.571597     3.6851      7.301  -130.0440 1.2378e-01    76.5321      3.318      4.813    17.1534 0.0000e+00
      3.385      0.003     0.1129      1.197    110.740  93.379237     4.0626      7.305  -131.9810 1.2368e-01    77.4626      3.319      4.813    17.1545 0.0000e+00
      3.386      0.003     0.1123      1.209    110.596  93.236935     4.2636      7.310  -133.6477 1.2364e-01    77.9226      3.320      4.815    17.1665 0.0000e+00
      3.386      0.002     0.1116      1.229    110.544  93.187261     4.3013      7.313  -135.2256 1.2372e-01    77.3805      3.321      4.816    17.1766 0.0000e+00
      3.386      0.002     0.1144      1.227    110.508  93.160424     4.6272      7.315  -136.6048 1.2375e-01    71.4206      3.320      4.816    17.1741 0.0000e+00
      3.387      0.002     0.1160      1.213    110.342  93.039711     5.2325      7.318  -137.7614 1.2373e-01    60.5847      3.321      4.817    17.1554 0.0000e+00
      3.387      0.002     0.1147      1.211    110.027  92.809470     5.5686      7.322  -138.7984 1.2373e-01    54.7187      3.321      4.817    17.1442 0.0000e+00
      3.388      0.002     0.1206      1.215    109.677  92.540079     5.6201      7.326  -139.7650 1.2370e-01    53.8521      3.322      4.819    17.1452 0.0000e+00
      3.389      0.002     0.1184      1.224    109.407  92.327732     5.8142      7.330  -140.6730 1.2367e-01    49.0824      3.323      4.820    17.1438 0.0000e+00
      3.389      0.002     0.1159      1.230    109.248  92.214510     6.1674      7.333  -141.6029 1.2372e-01    40.3623      3.324      4.821    17.1511 0.0000e+00
      3.390      0.002     0.1169      1.234    109.118  92.125571     6.3614      7.335  -142.5766 1.2369e-01    35.6273      3.324      4.822    17.1750 0.0000e+00
      3.390      0.001     0.1163      1.241    108.972  92.015930     6.3705      7.338  -143.4117 1.2360e-01    35.2141      3.325      4.822    17.1861 0.0000e+00
      3.390      0.001     0.1180      1.240    108.924  91.970533     6.3360      7.342  -144.0430 1.2366e-01    35.1953      3.324      4.822    17.1873 0.0000e+00
      3.390      0.000     0.1186      1.228    109.031  92.022070     6.1195      7.346  -144.6168 1.2380e-01    35.9133      3.325      4.822    17.2010 0.0000e+00
      3.390 2.2168e-08     0.1185      1.227    109.152  92.066368     5.7490      7.349  -145.1006 1.2384e-01    37.3368      3.324      4.822    17.2102 0.0000e+00
      3.390 2.4385e-07     0.1193      1.226    109.195  92.060664     5.5522      7.352  -145.5045 1.2378e-01    38.1273      3.325      4.822    17.2179 0.0000e+00
      3.390 6.1640e-07     0.1206      1.218    109.236  92.080307     5.5383      7.355  -145.9739 1.2373e-01    38.3665      3.325      4.822    17.2212 0.0000e+00
      3.390      0.000     0.1169      1.211    109.358  92.176599     5.4475      7.359  -146.4743 1.2372e-01    40.1262      3.324      4.822    17.1999 0.0000e+00
      3.390      0.000     0.1183      1.194    109.557  92.334132     5.2528      7.362  -146.9943 1.2372e-01    43.2802      3.324      4.822    17.1650 0.0000e+00
      3.390      0.001     0.1190      1.191    109.711  92.457936     5.1320      7.364  -147.6144 1.2372e-01    44.9723      3.324      4.821    17.1445 0.0000e+00
      3.390      0.001     0.1163      1.212    109.715  92.464553     5.1029      7.366  -148.2933 1.2372e-01    45.1795      3.325      4.822    17.1424 0.0000e+00
      3.391      0.001     0.1179      1.208    109.653  92.414140     5.0335      7.369  -148.9215 1.2374e-01    46.3319      3.325      4.823    17.1421 0.0000e+00
      3.391      0.001     0.1146      1.192    109.597  92.357429     4.9173      7.372  -149.4457 1.2374e-01    48.4875      3.325      4.823    17.1347 0.0000e+00
      3.391      0.001     0.1126      1.214    109.527  92.287882     4.8632      7.376  -149.8996 1.2369e-01    49.7223      3.326      4.824    17.1299 0.0000e+00
      3.391      0.000     0.1187      1.227    109.509  92.273151     4.8617      7.378  -150.4521 1.2364e-01    49.9888      3.325      4.823    17.1353 0.0000e+00
      3.391 1.8628e-08     0.1177      1.200    109.543  92.306576     4.8083      7.380  -151.1352 1.2368e-01    50.3430      3.326      4.824    17.1378 0.0000e+00
      3.391 2.0490e-07     0.1115      1.177    109.559  92.310260     4.7167      7.383  -151.7920 1.2373e-01    50.7947      3.325      4.823    17.1311 0.0000e+00
      3.391 2.0490e-07     0.1179      1.169    109.606  92.317681     4.6701      7.385  -152.4567 1.2373e-01    51.0088      3.325      4.823    17.1235 0.0000e+00
      3.391 1.8627e-08     0.1208      1.160    109.752  92.396257     4.6608      7.387  -153.1488 1.2372e-01    50.9850      3.326      4.824    17.1249 0.0000e+00
      3.391 1.6934e-09     0.1146      1.162    109.990  92.560343     4.5960      7.390  -153.7073 1.2372e-01    51.3948      3.326      4.824    17.1315 0.0000e+00
      3.391 1.5395e-10     0.1127      1.177    110.259  92.774496     4.4865      7.393  -154.3060 1.2372e-01    52.3433      3.326      4.824    17.1289 0.0000e+00
      3.392 1.3995e-11     0.1134      1.194    110.449  92.949400     4.4348      7.396  -154.9674 1.2370e-01    52.9568      3.326      4.825    17.1116 0.0000e+00
      3.392 1.2723e-12     0.1112      1.214    110.489  93.020739     4.4445      7.397  -155.4233 1.2373e-01    53.0393      3.326      4.824    17.0876 0.0000e+00
      3.392 1.1568e-13     0.1115      1.219    110.562  93.128057     4.5711      7.399  -155.7742 1.2380e-01    52.4527      3.326      4.824    17.0686 0.0000e+00
      3.392 1.0705e-14     0.1143      1.210    110.798  93.356196     4.8086      7.402  -156.1126 1.2380e-01    51.3296      3.326      4.824    17.0627 0.0000e+00
      3.392 3.0415e-15     0.1141      1.200    111.012  93.552100     4.9438      7.404  -156.5027 1.2376e-01    50.7323      3.326      4.825    17.0699 0.0000e+00
      3.392 2.3028e-14     0.1182      1.176    111.093  93.651406     4.9323      7.407  -156.9642 1.2378e-01    50.6626      3.327      4.825    17.0883 0.0000e+00
      3.392 2.5236e-13     0.1183      1.168    111.056  93.666092     4.7450      7.410  -157.3906 1.2379e-01    50.5546      3.326      4.825    17.1156 0.0000e+00
      3.392 2.7759e-12     0.1157      1.194    110.948  93.602462     4.4358      7.413  -157.7861 1.2376e-01    50.4178      3.326      4.825    17.1293 0.0000e+00
      3.392 3.0535e-11     0.1171      1.211    110.857  93.518416     4.2640      7.415  -158.1320 1.2375e-01    50.3753      3.326      4.824    17.1276 0.0000e+00
      3.392 3.3589e-10     0.1126      1.205    110.834  93.477101     4.2330      7.417  -158.3891 1.2373e-01    50.4157      3.327      4.825    17.1413 0.0000e+00
      3.393 3.6947e-09     0.1101      1.197    110.856  93.484696     4.2276      7.418  -158.5731 1.2374e-01    50.4282      3.327      4.826    17.1711 0.0000e+00
      3.393 4.0642e-08     0.1160      1.199    110.848  93.482960     4.1986      7.420  -158.8076 1.2374e-01    50.3896      3.327      4.826    17.1865 0.0000e+00
      3.393 4.4706e-07     0.1175      1.204    110.810  93.456121     4.1407      7.422  -159.2461 1.2369e-01    50.3252      3.327      4.826    17.1776 0.0000e+00
      3.393      0.000     0.1159      1.200    110.778  93.414727     4.1097      7.425  -159.7446 1.2368e-01    50.2648      3.327      4.826    17.1633 0.0000e+00
      3.393      0.000     0.1148      1.184    110.766  93.364243     4.1077      7.427  -160.1024 1.2369e-01    50.3766      3.327      4.825    17.1575 0.0000e+00
      3.393      0.001     0.1154      1.166    110.823  93.354730     4.1067      7.429  -160.4741 1.2373e-01    51.9495      3.327      4.826    17.1628 0.0000e+00
      3.393      0.002     0.1163      1.159    111.130  93.554147     4.0978      7.431  -161.4004 1.2376e-01    54.7995      3.327      4.826    17.1693 0.0000e+00
      3.393      0.002     0.1159      1.159    111.382  93.739054     4.0908      7.432  -162.0961 1.2372e-01    56.2105      3.327      4.826    17.1638 0.0000e+00
      3.393 -9.990e-29     0.1144 -9.990e-29 -9.990e-29 -9.990e-29 -9.990e-29 -9.990e-29 -9.990e-29 1.2368e-01 -9.990e-29      3.328      4.827    17.1430 0.0000e+00
      3.394 -9.990e-29     0.1115 -9.990e-29 -9.990e-29 -9.990e-29 -9.990e-29 -9.990e-29 -9.990e-29 1.2372e-01 -9.990e-29      3.328      4.827    17.1162 0.0000e+00
      3.397 -9.990e-29     0.1117 -9.990e-29 -9.990e-29 -9.990e-29 -9.990e-29 -9.990e-29 -9.990e-29 1.2377e-01 -9.990e-29      3.331      4.830    17.0838 0.0000e+00
      3.398 -9.990e-29     0.1119 -9.990e-29 -9.990e-29 -9.990e-29 -9.990e-29 -9.990e-29 -9.990e-29 1.2377e-01 -9.990e-29      3.334      4.835    17.0641 0.0000e+00
