* Sea-Bird SBE19plus  Data File:
* FileName = C:\R\Reservoirs\Data\DataNotYetUploadedToEDI\Raw_CTD\RawDownloads\081424_ccr50_S8188_0003.hex
* Software version 2.8.0.119
* Temperature SN = 8188
* Conductivity SN = 8188
* System UpLoad Time = Aug 16 2024 10:37:10
* <ApplicationData>
* <Seaterm232>
* <SoftwareVersion>2.8.0.119</SoftwareVersion>
* <BuildDate>07-Nov-2018</BuildDate>
* </Seaterm232>
* </ApplicationData>
* <InstrumentState>
* <HardwareData DeviceType='SBE19plus' SerialNumber='01908188'>
*
*    <Manufacturer>Sea-Bird Electronics, Inc.</Manufacturer>
*
*    <FirmwareVersion>3.1.8</FirmwareVersion>
*
*    <FirmwareDate>Mar  9 2016 16:22:29</FirmwareDate>
*
*    <CommandSetVersion>1.4</CommandSetVersion>
*
*    <PCBAssembly PCBSerialNum='260079' AssemblyNum='41054K'/>
*
*    <PCBAssembly PCBSerialNum='260083' AssemblyNum='41059E'/>
*
*    <PCBAssembly PCBSerialNum='260085' AssemblyNum='41606B'/>
*
*    <PCBAssembly PCBSerialNum='260081' AssemblyNum='41967C'/>
*
*    <MfgDate>30 Mar 2022</MfgDate>
*
*    <InternalSensors>
*
*       <Sensor id='Main Temperature'>
*
*          <type>temperature0</type>
*
*          <SerialNumber>01908188</SerialNumber>
*
*       </Sensor>
*
*       <Sensor id='Main Conductivity'>
*
*          <type>conductivity-0</type>
*
*          <SerialNumber>01908188</SerialNumber>
*
*       </Sensor>
*
*       <Sensor id='Main Pressure'>
*
*          <type>strain-0</type>
*
*          <SerialNumber>12220741</SerialNumber>
*
*       </Sensor>
*
*    </InternalSensors>
*
*    <ExternalSensors>
*
*       <Sensor id='volt 0'>
*
*          <type>CHL</type>
*
*          <SerialNumber>FLNTURT-7096</SerialNumber>
*
*       </Sensor>
*
*       <Sensor id='volt 1'>
*
*          <type>NTU</type>
*
*          <SerialNumber>FLNTURT-7096</SerialNumber>
*
*       </Sensor>
*
*       <Sensor id='volt 2'>
*
*          <type>OXY</type>
*
*          <SerialNumber>43-4269</SerialNumber>
*
*       </Sensor>
*
*       <Sensor id='volt 3'>
*
*          <type>not assigned</type>
*
*          <SerialNumber>not assigned</SerialNumber>
*
*       </Sensor>
*
*       <Sensor id='volt 4'>
*
*          <type>PAR</type>
*
*          <SerialNumber>PARLOGICSW-2209</SerialNumber>
*
*       </Sensor>
*
*       <Sensor id='volt 5'>
*
*          <type>not assigned</type>
*
*          <SerialNumber>not assigned</SerialNumber>
*
*       </Sensor>
*
*       <Sensor id='serial'>
*
*          <type>WETLABS</type>
*
*          <SerialNumber>FL3-7350</SerialNumber>
*
*       </Sensor>
*
*    </ExternalSensors>
*
* </HardwareData>
* <StatusData DeviceType='SBE19plus' SerialNumber='01908188'>
*
*    <DateTime>2024-08-16T10:35:18</DateTime>
*
*    <LoggingState>not logging</LoggingState>
*
*    <EventSummary numEvents='0'/>
*
*    <Power>
*
*       <vMain>12.4</vMain>
*
*       <vLith>8.6</vLith>
*
*       <iMain>61.7</iMain>
*
*       <iPump>49.8</iPump>
*
*       <iExt01>21.9</iExt01>
*
*       <iExt2345>21.1</iExt2345>
*
*       <iSerial>55.5</iSerial>
*
*    </Power>
*
*    <MemorySummary>
*
*       <Bytes>279875</Bytes>
*
*       <Samples>11195</Samples>
*
*       <SamplesFree>2620730</SamplesFree>
*
*       <SampleLength>25</SampleLength>
*
*       <Profiles>7</Profiles>
*
*    </MemorySummary>
*
* </StatusData>
* <ConfigurationData DeviceType='SBE19plus' SerialNumber='01908188'>
*
*    <ProfileMode>
*
*       <ScansToAverage>1</ScansToAverage>
*
*       <MinimumCondFreq>2</MinimumCondFreq>
*
*       <PumpDelay>90</PumpDelay>
*
*       <AutoRun>no</AutoRun>
*
*       <IgnoreSwitch>no</IgnoreSwitch>
*
*    </ProfileMode>
*
*    <Battery>
*
*       <Type>alkaline</Type>
*
*       <CutOff>7.5</CutOff>
*
*    </Battery>
*
*    <DataChannels>
*
*       <ExtVolt0>yes</ExtVolt0>
*
*       <ExtVolt1>yes</ExtVolt1>
*
*       <ExtVolt2>yes</ExtVolt2>
*
*       <ExtVolt3>no</ExtVolt3>
*
*       <ExtVolt4>yes</ExtVolt4>
*
*       <ExtVolt5>no</ExtVolt5>
*
*       <SBE38>no</SBE38>
*
*       <WETLABS>yes</WETLABS>
*
*       <OPTODE>no</OPTODE>
*
*       <SBE63>no</SBE63>
*
*       <SeaFET>no</SeaFET>
*
*       <GTD>no</GTD>
*
*    </DataChannels>
*
*    <EchoCharacters>yes</EchoCharacters>
*
*    <OutputExecutedTag>yes</OutputExecutedTag>
*
*    <OutputFormat>raw HEX</OutputFormat>
*
* </ConfigurationData>
* <CalibrationCoefficients DeviceType='SBE19plus' SerialNumber='01908188'>
*
*    <Calibration format='TEMP1' id='Main Temperature'>
*
*       <SerialNum>01908188</SerialNum>
*
*       <CalDate>07-May-24</CalDate>
*
*       <TA0>1.249325e-03</TA0>
*
*       <TA1>2.751683e-04</TA1>
*
*       <TA2>-1.314205e-06</TA2>
*
*       <TA3>1.914222e-07</TA3>
*
*       <TOFFSET>0.000000e+00</TOFFSET>
*
*    </Calibration>
*
*    <Calibration format='WBCOND0' id='Main Conductivity'>
*
*       <SerialNum>01908188</SerialNum>
*
*       <CalDate>07-May-24</CalDate>
*
*       <G>-1.014855e+00</G>
*
*       <H>1.444624e-01</H>
*
*       <I>-3.430060e-04</I>
*
*       <J>4.842261e-05</J>
*
*       <CPCOR>-9.570000e-08</CPCOR>
*
*       <CTCOR>3.250000e-06</CTCOR>
*
*       <CSLOPE>1.000000e+00</CSLOPE>
*
*    </Calibration>
*
*    <Calibration format='STRAIN0' id='Main Pressure'>
*
*       <SerialNum>12220741</SerialNum>
*
*       <CalDate>03-Apr-24</CalDate>
*
*       <PA0>7.209200e-02</PA0>
*
*       <PA1>4.836684e-04</PA1>
*
*       <PA2>-3.501227e-12</PA2>
*
*       <PTCA0>5.244614e+05</PTCA0>
*
*       <PTCA1>2.020364e+01</PTCA1>
*
*       <PTCA2>-6.074616e-01</PTCA2>
*
*       <PTCB0>2.522087e+01</PTCB0>
*
*       <PTCB1>5.750000e-04</PTCB1>
*
*       <PTCB2>0.000000e+00</PTCB2>
*
*       <PTEMPA0>-5.770713e+01</PTEMPA0>
*
*       <PTEMPA1>5.343973e+01</PTEMPA1>
*
*       <PTEMPA2>-5.775530e-01</PTEMPA2>
*
*       <POFFSET>7.020000e-01</POFFSET>
*
*       <PRANGE>1.600000e+02</PRANGE>
*
*    </Calibration>
*
*    <Calibration format='VOLT0' id='Volt 0'>
*
*       <OFFSET>-4.657200e-02</OFFSET>
*
*       <SLOPE>1.248989e+00</SLOPE>
*
*    </Calibration>
*
*    <Calibration format='VOLT0' id='Volt 1'>
*
*       <OFFSET>-4.600800e-02</OFFSET>
*
*       <SLOPE>1.249849e+00</SLOPE>
*
*    </Calibration>
*
*    <Calibration format='VOLT0' id='Volt 2'>
*
*       <OFFSET>-4.668000e-02</OFFSET>
*
*       <SLOPE>1.250379e+00</SLOPE>
*
*    </Calibration>
*
*    <Calibration format='VOLT0' id='Volt 3'>
*
*       <OFFSET>-4.643200e-02</OFFSET>
*
*       <SLOPE>1.251002e+00</SLOPE>
*
*    </Calibration>
*
*    <Calibration format='VOLT0' id='Volt 4'>
*
*       <OFFSET>-4.606100e-02</OFFSET>
*
*       <SLOPE>1.249962e+00</SLOPE>
*
*    </Calibration>
*
*    <Calibration format='VOLT0' id='Volt 5'>
*
*       <OFFSET>-4.642700e-02</OFFSET>
*
*       <SLOPE>1.248530e+00</SLOPE>
*
*    </Calibration>
*
*    <Calibration format='FREQ0' id='external frequency channel'>
*
*       <EXTFREQSF>1.000018e+00</EXTFREQSF>
*
*    </Calibration>
*
* </CalibrationCoefficients>
* <EventCounters DeviceType='SBE19plus' SerialNumber='01908188'>
*
*    <EventSummary numEvents='0'/>
*
* </EventCounters></InstrumentState>
* <Headers>
*
* cast   3 14 Aug 2024 10:26:35 samples 5538 to 6498, avg = 1, stop = mag switch
*
# nquan = 16
# nvalues = 961                         
# units = specified
# name 0 = depFM: Depth [fresh water, m]
# name 1 = dz/dtM: Descent Rate [m/s]
# name 2 = sbeox0Mg/L: Oxygen, SBE 43 [mg/l]
# name 3 = sbeox0PS: Oxygen, SBE 43 [% saturation]
# name 4 = specc: Specific Conductance [uS/cm]
# name 5 = c0uS/cm: Conductivity [uS/cm]
# name 6 = wetCDOM: Fluorescence, WET Labs CDOM [mg/m^3]
# name 7 = flECO-AFL: Fluorescence, WET Labs ECO-AFL/FL [mg/m^3]
# name 8 = flECO-AFL1: Fluorescence, WET Labs ECO-AFL/FL, 2 [mg/m^3]
# name 9 = flECO-AFL2: Fluorescence, WET Labs ECO-AFL/FL, 3 [mg/m^3]
# name 10 = par/sat/log: PAR/Logarithmic, Satlantic
# name 11 = turbWETntu0: Turbidity, WET Labs ECO [NTU]
# name 12 = prdM: Pressure, Strain Gauge [db]
# name 13 = prdE: Pressure, Strain Gauge [psi]
# name 14 = tv290C: Temperature [ITS-90, deg C]
# name 15 = flag:  0.000e+00
# span 0 =     -0.421,      3.861       
# span 1 =     -0.217,      0.132       
# span 2 =     4.2738,     9.1020       
# span 3 =     53.136,    114.024       
# span 4 =   -448.625,    116.630       
# span 5 =-464.495410, 121.050845       
# span 6 =    -4.5000,    13.5900       
# span 7 =    -1.2077,   245.1568       
# span 8 =    -3.0246,     4.7286       
# span 9 =   -14.5089,    11.5479       
# span 10 = 1.2867e+02, 3.4595e+03      
# span 11 =    -6.9866,    25.0088      
# span 12 =     -0.413,      3.786      
# span 13 =     -0.599,      5.492      
# span 14 =    24.9075,    26.8931      
# span 15 = 0.0000e+00, 0.0000e+00      
# interval = seconds: 0.25
# start_time = Aug 14 2024 10:26:35 [Instrument's time stamp, header]
# bad_flag = -9.990e-29
# <Sensors count="10" >
#   <sensor Channel="1" >
#     <!-- Count, Temperature -->
#     <TemperatureSensor SensorID="58" >
#       <SerialNumber>8188</SerialNumber>
#       <CalibrationDate>07-May-24</CalibrationDate>
#       <A0>1.24932504e-003</A0>
#       <A1>2.75168293e-004</A1>
#       <A2>-1.31420465e-006</A2>
#       <A3>1.91422179e-007</A3>
#       <Slope>1.00000000</Slope>
#       <Offset>0.0000</Offset>
#     </TemperatureSensor>
#   </sensor>
#   <sensor Channel="2" >
#     <!-- Frequency 0, Conductivity -->
#     <ConductivitySensor SensorID="3" >
#       <SerialNumber>8188</SerialNumber>
#       <CalibrationDate>07-May-24</CalibrationDate>
#       <UseG_J>1</UseG_J>
#       <!-- Cell const and series R are applicable only for wide range sensors. -->
#       <SeriesR>0.0000</SeriesR>
#       <CellConst>2000.0000</CellConst>
#       <ConductivityType>0</ConductivityType>
#       <Coefficients equation="0" >
#         <A>0.00000000e+000</A>
#         <B>0.00000000e+000</B>
#         <C>0.00000000e+000</C>
#         <D>0.00000000e+000</D>
#         <M>0.0</M>
#         <CPcor>-9.57000000e-008</CPcor>
#       </Coefficients>
#       <Coefficients equation="1" >
#         <G>-1.01485473e+000</G>
#         <H>1.44462400e-001</H>
#         <I>-3.43006030e-004</I>
#         <J>4.84226116e-005</J>
#         <CPcor>-9.57000000e-008</CPcor>
#         <CTcor>3.2500e-006</CTcor>
#         <!-- WBOTC not applicable unless ConductivityType = 1. -->
#         <WBOTC>0.00000000e+000</WBOTC>
#       </Coefficients>
#       <Slope>1.00000000</Slope>
#       <Offset>0.00000</Offset>
#     </ConductivitySensor>
#   </sensor>
#   <sensor Channel="3" >
#     <!-- Count, Pressure, Strain Gauge -->
#     <PressureSensor SensorID="46" >
#       <SerialNumber>8188</SerialNumber>
#       <CalibrationDate>03-Apr-24</CalibrationDate>
#       <PA0>7.20920045e-002</PA0>
#       <PA1>4.83668449e-004</PA1>
#       <PA2>-3.50122678e-012</PA2>
#       <PTEMPA0>-5.77071299e+001</PTEMPA0>
#       <PTEMPA1>5.34397285e+001</PTEMPA1>
#       <PTEMPA2>-5.77553003e-001</PTEMPA2>
#       <PTCA0>5.24461366e+005</PTCA0>
#       <PTCA1>2.02036405e+001</PTCA1>
#       <PTCA2>-6.07461634e-001</PTCA2>
#       <PTCB0>2.52208750e+001</PTCB0>
#       <PTCB1>5.75000000e-004</PTCB1>
#       <PTCB2>0.00000000e+000</PTCB2>
#       <Offset>0.000000</Offset>
#     </PressureSensor>
#   </sensor>
#   <sensor Channel="4" >
#     <!-- A/D voltage 0, Fluorometer, WET Labs ECO-AFL/FL -->
#     <FluoroWetlabECO_AFL_FL_Sensor SensorID="20" >
#       <SerialNumber>FLNTURT-7096</SerialNumber>
#       <CalibrationDate>21-Mar-2024</CalibrationDate>
#       <ScaleFactor>5.00000000e+001</ScaleFactor>
#       <!-- Dark output -->
#       <Vblank>0.0710</Vblank>
#     </FluoroWetlabECO_AFL_FL_Sensor>
#   </sensor>
#   <sensor Channel="5" >
#     <!-- A/D voltage 1, Turbidity Meter, WET Labs, ECO-NTU -->
#     <TurbidityMeter SensorID="67" >
#       <SerialNumber>FLNTURT-7096</SerialNumber>
#       <CalibrationDate>21-Mar-2024</CalibrationDate>
#       <ScaleFactor>198.000000</ScaleFactor>
#       <!-- Dark output -->
#       <DarkVoltage>0.070000</DarkVoltage>
#     </TurbidityMeter>
#   </sensor>
#   <sensor Channel="6" >
#     <!-- A/D voltage 2, Oxygen, SBE 43 -->
#     <OxygenSensor SensorID="38" >
#       <SerialNumber>4269</SerialNumber>
#       <CalibrationDate>08-May-24</CalibrationDate>
#       <Use2007Equation>1</Use2007Equation>
#       <CalibrationCoefficients equation="0" >
#         <!-- Coefficients for Owens-Millard equation. -->
#         <Boc>0.0000</Boc>
#         <Soc>0.0000e+000</Soc>
#         <offset>0.0000</offset>
#         <Pcor>0.00e+000</Pcor>
#         <Tcor>0.0000</Tcor>
#         <Tau>0.0</Tau>
#       </CalibrationCoefficients>
#       <CalibrationCoefficients equation="1" >
#         <!-- Coefficients for Sea-Bird equation - SBE calibration in 2007 and later. -->
#         <Soc>4.3983e-001</Soc>
#         <offset>-0.4978</offset>
#         <A>-4.5504e-003</A>
#         <B> 2.4929e-004</B>
#         <C>-4.1306e-006</C>
#         <D0> 2.5826e+000</D0>
#         <D1> 1.92634e-004</D1>
#         <D2>-4.64803e-002</D2>
#         <E> 3.6000e-002</E>
#         <Tau20> 1.9700</Tau20>
#         <H1>-3.3000e-002</H1>
#         <H2> 5.0000e+003</H2>
#         <H3> 1.4500e+003</H3>
#       </CalibrationCoefficients>
#     </OxygenSensor>
#   </sensor>
#   <sensor Channel="7" >
#     <!-- A/D voltage 3, PAR/Logarithmic, Satlantic -->
#     <PARLog_SatlanticSensor SensorID="76" >
#       <SerialNumber>2209</SerialNumber>
#       <CalibrationDate>14-Jan-2022</CalibrationDate>
#       <a0>9.8861e-001</a0>
#       <a1>8.0845e-001</a1>
#       <Im>1.3589e+000</Im>
#       <Multiplier>1.0000e+000</Multiplier>
#     </PARLog_SatlanticSensor>
#   </sensor>
#   <sensor Channel="8" >
#     <!-- Serial RS-232, Fluorometer, WET Labs ECO-AFL/FL, 2 -->
#     <FluoroWetlabECO_AFL_FL_Sensor SensorID="20" >
#       <SerialNumber>FL3-7350</SerialNumber>
#       <CalibrationDate>10-Mar-2022</CalibrationDate>
#       <ScaleFactor>4.26000000e-002</ScaleFactor>
#       <!-- Dark output -->
#       <Vblank>50.0000</Vblank>
#     </FluoroWetlabECO_AFL_FL_Sensor>
#   </sensor>
#   <sensor Channel="9" >
#     <!-- Serial RS-232, Fluorometer, WET Labs ECO-AFL/FL, 3 -->
#     <FluoroWetlabECO_AFL_FL_Sensor SensorID="20" >
#       <SerialNumber>FL3-7350</SerialNumber>
#       <CalibrationDate>10-Mar-2022</CalibrationDate>
#       <ScaleFactor>4.23000000e-002</ScaleFactor>
#       <!-- Dark output -->
#       <Vblank>48.0000</Vblank>
#     </FluoroWetlabECO_AFL_FL_Sensor>
#   </sensor>
#   <sensor Channel="10" >
#     <!-- Serial RS-232, Fluorometer, WET Labs ECO CDOM -->
#     <FluoroWetlabCDOM_Sensor SensorID="19" >
#       <SerialNumber>FL3-7350</SerialNumber>
#       <CalibrationDate>10-Mar-2022</CalibrationDate>
#       <ScaleFactor>0.090</ScaleFactor>
#       <!-- Dark output -->
#       <Vblank>50.000</Vblank>
#     </FluoroWetlabCDOM_Sensor>
#   </sensor>
# </Sensors>
# datcnv_date = Aug 29 2024 11:54:55, 7.26.7.129 [datcnv_vars = 15]
# datcnv_in = C:\R\Reservoirs\Data\DataNotYetUploadedToEDI\Raw_CTD\RawDownloads\081424_ccr90_S8188003.hex C:\R\Reservoirs\Data\DataNotYetUploadedToEDI\Raw_CTD\RawDownloads\SBE19plusV2_8188_start20240601.xmlcon
# datcnv_skipover = 0
# datcnv_ox_hysteresis_correction = yes
# datcnv_ox_tau_correction = yes
# filter_date = Aug 29 2024 11:57:15, 7.26.7.129
# filter_in = C:\R\Reservoirs\Data\DataNotYetUploadedToEDI\Raw_CTD\RawDownloads\081424_ccr90_S8188003.cnv
# filter_low_pass_tc_A = 0.500
# filter_low_pass_tc_B = 1.000
# filter_low_pass_A_vars = sbeox0Mg/L sbeox0PS specc c0uS/cm tv290C
# filter_low_pass_B_vars = depFM dz/dtM prdM prdE
# alignctd_date = Aug 29 2024 11:58:45, 7.26.7.129
# alignctd_in = C:\R\Reservoirs\Data\DataNotYetUploadedToEDI\Raw_CTD\RawDownloads\081424_ccr90_S8188003.cnv
# alignctd_adv = dz/dtM 1.000, sbeox0PS 1.000, specc 1.000, c0uS/cm 1.000, flECO-AFL 1.000, turbWETntu0 1.000                                                                                                                        
# file_type = ascii
*END*
     -0.387      0.047     8.5265    103.036     54.049  54.991864    -4.5000   245.1568    -2.1300    -2.0304 9.7437e+02     4.6152     -0.379     -0.551    24.9075 0.0000e+00
     -0.375      0.058     8.5187    103.049     72.639  74.114281    -4.5000   245.1263    -2.1300    -2.0304 1.1812e+03     4.7209     -0.368     -0.533    24.9572 0.0000e+00
     -0.359      0.070     8.5060    103.072     88.624  90.701999    -4.5000   245.1339    -2.1300    -2.0304 1.2829e+03     4.5850     -0.352     -0.511    25.0403 0.0000e+00
     -0.339      0.082     8.4849    103.112     99.734 102.360357     0.0000     0.0702    -0.2130     0.8883 1.5067e+03     0.4911     -0.333     -0.483    25.1793 0.0000e+00
     -0.315      0.092     8.4527    103.178    106.328 109.394735     0.0000     0.0511    -0.2130     0.8883 1.6166e+03     0.4156     -0.309     -0.449    25.3897 0.0000e+00
     -0.289      0.099     8.4135    103.282    110.222 113.626976     0.0000     0.0359    -0.2130     0.8883 1.6888e+03     0.3249     -0.283     -0.410    25.6490 0.0000e+00
     -0.261      0.102     8.3752    103.434    112.502 116.153687     0.0000     0.0435    -0.2130     0.8883 1.8045e+03     0.4458     -0.255     -0.371    25.9085 0.0000e+00
     -0.232      0.102     8.3436    103.630    113.837 117.660670     0.0000     0.2876    -0.2130     0.8883 1.7222e+03     0.9443     -0.228     -0.330    26.1353 0.0000e+00
     -0.205      0.097     8.3208    103.847    114.615 118.553790    12.3300     0.2991    -0.6390     7.8255 1.4740e+03     0.8688     -0.201     -0.291    26.3201 0.0000e+00
     -0.180      0.090     8.3073    104.052    115.044 119.055215    12.3300     0.3143    -0.6390     7.8255 1.4423e+03     0.8688     -0.176     -0.255    26.4638 0.0000e+00
     -0.157      0.082     8.3034    104.226    115.240 119.290657    12.3300     0.2991    -0.6390     7.8255 1.4956e+03     0.7781     -0.154     -0.224    26.5699 0.0000e+00
     -0.138      0.074     8.3080    104.358    115.290 119.354907    12.3300     0.1846    -0.6390     7.8255 1.5342e+03     0.6875     -0.135     -0.196    26.6441 0.0000e+00
     -0.122      0.067     8.3178    104.447    115.288 119.351109    11.3400     0.1427     0.0000     0.2961 1.5215e+03     0.6422     -0.119     -0.173    26.6940 0.0000e+00
     -0.107      0.063     8.3294    104.500    115.319 119.370259    11.3400     0.1579     0.0000     0.2961 1.4734e+03     0.7479     -0.105     -0.152    26.7260 0.0000e+00
     -0.093      0.061     8.3406    104.539    115.411 119.447468    11.3400     0.1961     0.0000     0.2961 1.4206e+03     0.7177     -0.092     -0.133    26.7445 0.0000e+00
     -0.079      0.063     8.3499    104.595    115.525 119.553315    11.3400     0.2266     0.0000     0.2961 1.4080e+03     0.4609     -0.078     -0.113    26.7526 0.0000e+00
     -0.064      0.067     8.3569    104.705    115.604 119.636016    12.0600     0.2381     0.0426     0.1692 1.4792e+03     0.3098     -0.063     -0.091    26.7532 0.0000e+00
     -0.047      0.073     8.3619    104.892    115.638 119.683618    12.0600     0.2152     0.0426     0.1692 1.5597e+03     0.4609     -0.046     -0.066    26.7487 0.0000e+00
     -0.027      0.078     8.3660    105.147    115.666 119.730821    12.0600     0.2075     0.0426     0.1692 1.5953e+03     0.3854     -0.026     -0.038    26.7415 0.0000e+00
     -0.005      0.083     8.3712    105.438    115.713 119.800215    12.0600     0.3067     0.0426     0.1692 1.6300e+03     0.9141     -0.005     -0.007    26.7364 0.0000e+00
      0.018      0.086     8.3800    105.730    115.764 119.876301    12.0600     0.3258     0.0426     0.1692 1.6873e+03     0.9141      0.018      0.026    26.7370 0.0000e+00
      0.041      0.088     8.3941    105.995    115.804 119.941365    11.8800     0.2991     0.0852     0.2538 1.7087e+03     0.8083      0.041      0.059    26.7426 0.0000e+00
      0.064      0.089     8.4133    106.213    115.842 120.000757    11.8800     0.2915     0.0852     0.2538 1.6991e+03     0.8235      0.063      0.091    26.7505 0.0000e+00
      0.086      0.092     8.4351    106.377    115.876 120.054313    11.8800     0.2876     0.0852     0.2538 1.7406e+03     0.6120      0.084      0.122    26.7597 0.0000e+00
      0.108      0.095     8.4570    106.499    115.903 120.096314    11.8800     0.2724     0.0852     0.2538 1.7669e+03     0.7177      0.106      0.154    26.7697 0.0000e+00
      0.132      0.100     8.4766    106.597    115.935 120.141959    11.7000     0.3143     0.0852     0.5499 1.7773e+03     0.8386      0.129      0.187    26.7797 0.0000e+00
      0.157      0.107     8.4927    106.683    115.980 120.201421    11.7000     0.3067     0.0852     0.5499 1.7998e+03     0.6724      0.154      0.223    26.7887 0.0000e+00
      0.185      0.115     8.5046    106.747    116.031 120.266553    11.7000     0.2876     0.0852     0.5499 8.3980e+02     0.8990      0.181      0.263    26.7964 0.0000e+00
      0.216      0.121     8.5134    106.731    116.077 120.328720    11.7000     0.2876     0.0852     0.5499 1.4052e+03     0.8083      0.212      0.307    26.8028 0.0000e+00
      0.249      0.127     8.5204    106.524    116.113 120.380496    11.6100     0.2876     0.1278     0.2115 1.0981e+03     0.9443      0.244      0.354    26.8081 0.0000e+00
      0.283      0.131     8.5266    105.914    116.129 120.411685    11.6100     0.2991     0.1278     0.2115 1.4619e+03     0.8688      0.278      0.403    26.8132 0.0000e+00
      0.318      0.132     8.5308    104.549    116.119 120.414602    11.6100     0.2571     0.1278     0.2115 8.7672e+02     0.8083      0.312      0.452    26.8187 0.0000e+00
      0.352      0.132     8.5286    102.133    116.098 120.402029    11.6100     0.2686     0.1278     0.2115 5.5453e+02     0.9594      0.345      0.501    26.8247 0.0000e+00
      0.386      0.129     8.5111     98.698    116.088 120.398616    11.8800     0.2915     0.0000     0.0423 1.0682e+03     1.0047      0.379      0.549    26.8311 0.0000e+00
      0.419      0.125     8.4615     94.576    116.096 120.411455    11.8800     0.3029     0.0000     0.0423 6.6746e+02     0.7932      0.411      0.596    26.8374 0.0000e+00
      0.452      0.120     8.3516     90.224    116.108 120.427968    11.8800     0.2953     0.0000     0.0423 7.2854e+02     0.6724      0.443      0.642    26.8431 0.0000e+00
      0.482      0.114     8.1579     86.135    116.113 120.436554    11.8800     0.2991     0.0000     0.0423 9.0793e+02     0.7026      0.473      0.685    26.8474 0.0000e+00
      0.510      0.108     7.8832     82.745    116.105 120.431503    11.8800     0.2876     0.0000     0.0423 1.2353e+03     0.5364      0.500      0.725    26.8502 0.0000e+00
      0.536      0.102     7.5537     80.315    116.080 120.407467    11.8800     0.2953     0.0852     0.1269 9.3944e+02     0.5817      0.526      0.762    26.8522 0.0000e+00
      0.561      0.096     7.2058     78.879    116.045 120.370039    11.8800     0.3716     0.0852     0.1269 6.6500e+02     0.6724      0.550      0.798    26.8540 0.0000e+00
      0.584      0.089     6.8791     78.261    116.012 120.333241    11.8800     0.3639     0.0852     0.1269 7.0212e+02     0.5666      0.573      0.831    26.8556 0.0000e+00
      0.607      0.083     6.6082     78.159    115.988 120.303263    11.8800     0.3792     0.0852     0.1269 1.0299e+03     0.6422      0.595      0.863    26.8569 0.0000e+00
      0.627      0.076     6.4141     78.257    115.979 120.290113    11.8800     0.3601     0.0426     0.1692 5.4474e+02     0.7177      0.615      0.893    26.8575 0.0000e+00
      0.646      0.067     6.2994     78.320    116.002 120.312289    11.8800     0.3525     0.0426     0.1692 8.5267e+02     0.6875      0.634      0.920    26.8572 0.0000e+00
      0.663      0.058     6.2501     78.214    116.049 120.361700    11.8800     0.3487     0.0426     0.1692 7.8594e+02     0.5817      0.650      0.943    26.8559 0.0000e+00
      0.677      0.048     6.2422     77.890    116.094 120.409517    11.8800     0.3639     0.0426     0.1692 5.6205e+02     0.7177      0.664      0.963    26.8540 0.0000e+00
      0.688      0.039     6.2502     77.372    116.115 120.432484    11.8800     0.3334     0.0426     0.2538 5.3419e+02     0.7026      0.675      0.979    26.8524 0.0000e+00
      0.696      0.030     6.2553     76.733    116.111 120.428726    11.8800     0.3449     0.0426     0.2538 5.1931e+02     0.6724      0.683      0.990    26.8516 0.0000e+00
      0.701      0.022     6.2468     76.071    116.095 120.413243    11.8800     0.3411     0.0426     0.2538 4.0536e+02     0.6724      0.688      0.998    26.8516 0.0000e+00
      0.705      0.015     6.2209     75.488    116.072 120.389908    11.8800     0.3525     0.0426     0.2538 5.9537e+02     0.5666      0.692      1.003    26.8520 0.0000e+00
      0.707      0.010     6.1796     75.043    116.044 120.360498    11.8800     0.3563     0.0852     0.2538 7.7779e+02     0.6422      0.694      1.006    26.8524 0.0000e+00
      0.709      0.007     6.1285     74.747    116.023 120.339176    11.8800     0.3067     0.0852     0.2538 6.7343e+02     0.7177      0.695      1.008    26.8527 0.0000e+00
      0.710      0.005     6.0756     74.616    116.018 120.334258    11.8800     0.3105     0.0852     0.2538 5.4190e+02     0.6120      0.696      1.009    26.8531 0.0000e+00
      0.710      0.004     6.0290     74.682    116.015 120.330429    11.8800     0.2953     0.0852     0.2538 7.9418e+02     0.6724      0.697      1.010    26.8533 0.0000e+00
      0.711      0.005     5.9934     74.922    115.995 120.308667    11.8800     0.2800     0.0852     0.2538 1.0330e+03     0.5969      0.697      1.011    26.8534 0.0000e+00
      0.712      0.005     5.9697     75.239    115.955 120.263167    11.8800     0.3067     0.0426     0.2115 5.6413e+02     0.5666      0.698      1.012    26.8534 0.0000e+00
      0.713      0.006     5.9593     75.538    115.913 120.215802    11.8800     0.2724     0.0426     0.2115 6.4409e+02     0.6875      0.700      1.015    26.8534 0.0000e+00
      0.716      0.005     5.9646     75.787    115.912 120.209949    11.8800     0.2762     0.0426     0.2115 7.9712e+02     0.7026      0.702      1.018    26.8534 0.0000e+00
      0.718      0.005     5.9838     76.029    115.955 120.252048    11.8800     0.2724     0.0426     0.2115 1.2702e+03     0.6120      0.704      1.021    26.8528 0.0000e+00
      0.720      0.004     6.0093     76.340    116.007 120.305318    11.9700     0.3029     0.0426     0.0846 8.3362e+02     0.6120      0.706      1.023    26.8514 0.0000e+00
      0.720      0.002     6.0334     76.737    116.043 120.341958    11.9700     0.2724     0.0426     0.0846 1.7615e+03     0.6875      0.706      1.024    26.8495 0.0000e+00
      0.719      0.001     6.0535     77.135    116.059 120.355736    11.9700     0.2762     0.0426     0.0846 7.5975e+02     0.6724      0.706      1.023    26.8476 0.0000e+00
      0.719      0.001     6.0730     77.432    116.062 120.354327    11.9700     0.2876     0.0426     0.0846 7.2791e+02     0.6271      0.705      1.022    26.8465 0.0000e+00
      0.719      0.000     6.0978     77.610    116.064 120.353358    11.9700     0.2800     0.0852     0.2115 9.7416e+02     0.6875      0.705      1.022    26.8462 0.0000e+00
      0.719      0.000     6.1296     77.727    116.071 120.360570    11.9700     0.3563     0.0852     0.2115 9.7564e+02     0.6724      0.706      1.023    26.8457 0.0000e+00
      0.720     -0.001     6.1615     77.843    116.079 120.369887    11.9700     0.3716     0.0852     0.2115 7.4148e+02     0.6573      0.706      1.024    26.8445 0.0000e+00
      0.720     -0.002     6.1854     77.955    116.079 120.371790    11.9700     0.3487     0.0852     0.2115 6.2533e+02     0.5969      0.706      1.023    26.8427 0.0000e+00
      0.719     -0.003     6.1998     77.987    116.073 120.366788    11.9700     0.3639     0.0852     0.2115 1.8896e+03     0.7328      0.705      1.022    26.8414 0.0000e+00
      0.718     -0.005     6.2092     77.860    116.065 120.357546    11.9700     0.3563     0.0426     0.2961 5.8702e+02     0.6120      0.704      1.020    26.8411 0.0000e+00
      0.716     -0.007     6.2184     77.571    116.058 120.349603    11.9700     0.3716     0.0426     0.2961 1.4638e+03     0.6724      0.702      1.018    26.8418 0.0000e+00
      0.715     -0.009     6.2272     77.196    116.061 120.352841    11.9700     0.3639     0.0426     0.2961 9.8373e+02     0.5666      0.701      1.016    26.8427 0.0000e+00
      0.712     -0.011     6.2297     76.834    116.070 120.364123    11.9700     0.3525     0.0426     0.2961 1.0194e+03     0.6422      0.699      1.013    26.8430 0.0000e+00
      0.709     -0.013     6.2196     76.540    116.071 120.366456    11.8800     0.3411     0.0000     0.1692 7.6721e+02     0.6422      0.696      1.008    26.8426 0.0000e+00
      0.706     -0.016     6.1966     76.287    116.058 120.352459    11.8800     0.3334     0.0000     0.1692 9.9081e+02     0.7479      0.692      1.003    26.8422 0.0000e+00
      0.702     -0.021     6.1666     76.008    116.036 120.326402    11.8800     0.3449     0.0000     0.1692 9.8695e+02     0.6875      0.688      0.998    26.8424 0.0000e+00
      0.697     -0.027     6.1375     75.682    116.000 120.285336    11.8800     0.3372     0.0000     0.1692 1.5262e+03     0.6120      0.683      0.991    26.8431 0.0000e+00
      0.691     -0.035     6.1140     75.346    115.956 120.234314    12.0600     0.3449     0.0426     0.0846 6.9741e+02     0.4458      0.677      0.982    26.8437 0.0000e+00
      0.682     -0.045     6.0938     75.054    115.928 120.197736    12.0600     0.3449     0.0426     0.0846 6.4957e+02     0.3552      0.669      0.970    26.8435 0.0000e+00
      0.671     -0.057     6.0717     74.876    115.928 120.189849    12.0600     0.3639     0.0426     0.0846 2.3133e+03     0.4156      0.658      0.954    26.8425 0.0000e+00
      0.655     -0.070     6.0459     74.911    115.929 120.184547    12.0600     0.3525     0.0426     0.0846 1.7372e+03     0.3400      0.642      0.931    26.8408 0.0000e+00
      0.635     -0.082     6.0193     75.232    115.894 120.140410    11.8800     0.3563     0.0000     0.1692 8.3325e+02     0.6120      0.622      0.902    26.8383 0.0000e+00
      0.610     -0.093     5.9963     75.800    115.823 120.053670    11.8800     0.3411     0.0000     0.1692 1.0248e+03     0.6120      0.598      0.868    26.8352 0.0000e+00
      0.583     -0.102     5.9824     76.509    115.749 119.957204    11.8800     0.3487     0.0000     0.1692 9.1686e+02     0.6422      0.572      0.829    26.8319 0.0000e+00
      0.555     -0.108     5.9856     77.309    115.684 119.863294    11.8800     0.3296     0.0000     0.1692 9.7501e+02     0.6271      0.544      0.790    26.8289 0.0000e+00
      0.527     -0.111     6.0117     78.228    115.598 119.746894    11.8800     0.3296     0.0000     0.1692 6.6068e+02     0.5817      0.517      0.749    26.8254 0.0000e+00
      0.498     -0.112     6.0576     79.263    115.451 119.572962    11.8800     0.3487     0.0426     0.3807 1.1330e+03     0.6120      0.488      0.708    26.8200 0.0000e+00
      0.468     -0.111     6.1152     80.285    115.204 119.303116    11.8800     0.3334     0.0426     0.3807 1.1293e+03     0.6724      0.459      0.665    26.8114 0.0000e+00
      0.439     -0.107     6.1805     81.103    114.795 118.873397    11.8800     0.3639     0.0426     0.3807 1.1147e+03     0.5666      0.430      0.624    26.7998 0.0000e+00
      0.410     -0.101     6.2553     81.586    114.107 118.161212    11.8800     0.2991     0.0426     0.3807 1.4147e+03     0.6271      0.403      0.584    26.7879 0.0000e+00
      0.384     -0.092     6.3391     81.674    112.963 116.980647    11.9700     0.2648     0.0000     0.1269 1.1234e+03     0.6875      0.377      0.546    26.7785 0.0000e+00
      0.361     -0.081     6.4215     81.303    111.093 115.048890    11.9700     0.2953     0.0000     0.1269 2.6475e+03     0.5515      0.354      0.513    26.7726 0.0000e+00
      0.341     -0.068     6.4873     80.419    108.028 111.878809    11.9700     0.2953     0.0000     0.1269 1.2757e+03     0.5817      0.335      0.485    26.7699 0.0000e+00
      0.326     -0.055     6.5259     79.072    102.960 106.633050    11.9700     0.2800     0.0000     0.1269 2.2690e+03     0.7479      0.320      0.464    26.7700 0.0000e+00
      0.314     -0.043     6.5327     77.452     94.537  97.912746    12.0600     0.3143     0.0426     0.1269 1.0150e+03     0.6120      0.308      0.447    26.7716 0.0000e+00
      0.306     -0.032     6.5028     75.814     80.503  83.380479    12.0600     0.2915     0.0426     0.1269 1.3735e+03     0.6724      0.300      0.436    26.7735 0.0000e+00
      0.301     -0.023     6.4319     74.363     57.099  59.144976    12.0600     0.2915     0.0426     0.1269 9.9426e+02     0.5817      0.295      0.428    26.7750 0.0000e+00
      0.297     -0.017     6.3241     73.179     18.086  18.747438    12.0600     0.2800     0.0426     0.1269 9.0616e+02     0.5515      0.291      0.422    26.7758 0.0000e+00
      0.294     -0.013     6.1945     72.255    -46.924 -48.566811    12.0600     0.2991     0.0426     0.1269 1.2085e+03     0.6875      0.289      0.418    26.7758 0.0000e+00
      0.292     -0.010     6.0636     71.549   -155.252-160.732235    11.8800     0.2953     0.0426     0.2538 9.7670e+02     0.6120      0.287      0.415    26.7750 0.0000e+00
      0.290     -0.009     5.9476     71.002   -335.787-347.659614    11.8800     0.2991     0.0426     0.2538 8.3925e+02     0.7177      0.285      0.413    26.7736 0.0000e+00
      0.288     -0.008     5.8532     70.534   -448.625-464.495410    11.8800     0.2953     0.0426     0.2538 1.8155e+03     0.6422      0.282      0.410    26.7719 0.0000e+00
      0.286     -0.008     5.7795     70.058   -335.801-347.684997    11.8800     0.2876     0.0426     0.2538 1.2556e+03     0.6573      0.280      0.406    26.7701 0.0000e+00
      0.284     -0.007     5.7233     69.498   -155.281-160.783769    12.1500     0.2876     0.0426     0.0423 9.9017e+02     0.7479      0.278      0.404    26.7681 0.0000e+00
      0.282     -0.007     5.6799     68.831    -46.977 -48.654240    12.1500     0.2762     0.0426     0.0423 1.3417e+03     0.6422      0.277      0.401    26.7659 0.0000e+00
      0.280     -0.006     5.6428     68.083     18.002  18.616800    12.1500     0.2915     0.0426     0.0423 1.2191e+03     0.6724      0.275      0.399    26.7636 0.0000e+00
      0.279     -0.006     5.6048     67.301     56.990  58.978296    12.1500     0.2800     0.0426     0.0423 1.1807e+03     0.6271      0.274      0.397    26.7612 0.0000e+00
      0.278     -0.006     5.5602     66.540     80.387  83.197315    12.0600     0.2800     0.0426     0.3384 1.0012e+03     0.5213      0.273      0.395    26.7585 0.0000e+00
      0.277     -0.006     5.5070     65.829     94.428  97.728259    12.0600     0.3067     0.0426     0.3384 1.2035e+03     0.5666      0.271      0.393    26.7558 0.0000e+00
      0.275     -0.006     5.4473     65.169    102.850 106.442047    12.0600     0.2953     0.0426     0.3384 7.7543e+02     0.7177      0.270      0.391    26.7532 0.0000e+00
      0.274     -0.006     5.3851     64.557    107.904 111.666355    12.0600     0.2724     0.0426     0.3384 1.2025e+03     0.6120      0.268      0.389    26.7505 0.0000e+00
      0.272     -0.007     5.3244     63.990    110.937 114.798334    12.1500     0.2762     0.0426     0.1269 1.1369e+03     0.5213      0.266      0.387    26.7479 0.0000e+00
      0.270     -0.007     5.2677     63.460    112.755 116.673176    12.1500     0.2915     0.0426     0.1269 1.5502e+03     0.7177      0.265      0.384    26.7451 0.0000e+00
      0.268     -0.006     5.2152     62.963    113.846 117.794839    12.1500     0.2876     0.0426     0.1269 1.0333e+03     0.5817      0.263      0.381    26.7420 0.0000e+00
      0.266     -0.005     5.1666     62.499    114.497 118.462434    12.1500     0.3067     0.0426     0.1269 2.0491e+03     0.5969      0.261      0.379    26.7386 0.0000e+00
      0.265     -0.003     5.1216     62.066    114.877 118.849985    12.1500     0.2571     0.0426     0.1269 1.0659e+03     0.6724      0.260      0.377    26.7351 0.0000e+00
      0.264     -0.001     5.0795     61.654    115.095 119.068839    11.7900     0.2915     0.0426     0.2115 1.5874e+03     0.6120      0.259      0.375    26.7316 0.0000e+00
      0.264      0.001     5.0400     61.246    115.222 119.193359    11.7900     0.2838     0.0426     0.2115 9.3965e+02     0.6271      0.259      0.375    26.7284 0.0000e+00
      0.264      0.003     5.0031     60.835    115.298 119.264751    11.7900     0.2724     0.0426     0.2115 1.0553e+03     0.5666      0.259      0.376    26.7255 0.0000e+00
      0.266      0.005     4.9687     60.427    115.345 119.306054    11.7900     0.2915     0.0426     0.2115 1.0108e+03     0.6422      0.261      0.378    26.7227 0.0000e+00
      0.268      0.006     4.9359     60.032    115.376 119.332281    11.8800     0.2838     0.0426     0.2115 9.2546e+02     0.7479      0.262      0.381    26.7199 0.0000e+00
      0.270      0.007     4.9036     59.659    115.392 119.342425    11.8800     0.2800     0.0426     0.2115 1.6557e+03     0.6573      0.264      0.384    26.7168 0.0000e+00
      0.272      0.007     4.8709     59.311    115.399 119.343192    11.8800     0.2800     0.0426     0.2115 1.1251e+03     0.7026      0.267      0.387    26.7138 0.0000e+00
      0.274      0.006     4.8385     58.994    115.416 119.354787    11.8800     0.2800     0.0426     0.2115 8.8900e+02     0.7026      0.269      0.389    26.7108 0.0000e+00
      0.276      0.005     4.8071     58.724    115.451 119.384304    11.8800     0.2800     0.0426     0.1692 7.5727e+02     0.6120      0.270      0.392    26.7080 0.0000e+00
      0.277      0.003     4.7774     58.535    115.492 119.419609    11.8800     0.2991     0.0426     0.1692 1.0486e+03     0.7630      0.271      0.394    26.7053 0.0000e+00
      0.277      0.002     4.7498     58.455    115.518 119.438115    11.8800     0.2686     0.0426     0.1692 9.6657e+02     0.7177      0.272      0.394    26.7026 0.0000e+00
      0.277      0.002     4.7247     58.489    115.523 119.432756    11.8800     0.3029     0.0426     0.1692 1.1096e+03     0.6422      0.272      0.394    26.6997 0.0000e+00
      0.277      0.001     4.7033     58.590    115.525 119.418102    11.8800     0.2762     0.0426     0.1692 1.2874e+03     0.6120      0.272      0.394    26.6969 0.0000e+00
      0.277      0.001     4.6884     58.686    115.545 119.414251    11.8800     0.2991     0.0000     0.1692 8.5082e+02     0.5515      0.272      0.394    26.6940 0.0000e+00
      0.278      0.001     4.6823     58.726    115.591 119.428174    11.8800     0.2953     0.0000     0.1692 9.4067e+02     0.6120      0.273      0.395    26.6907 0.0000e+00
      0.279      0.001     4.6854     58.705    115.650 119.451580    11.8800     0.2724     0.0000     0.1692 1.2007e+03     0.6724      0.273      0.396    26.6860 0.0000e+00
      0.279      0.000     4.6942     58.647    115.702 119.470706    11.8800     0.2876     0.0000     0.1692 1.1533e+03     0.7177      0.274      0.397    26.6786 0.0000e+00
      0.279     -0.001     4.7027     58.589    115.724 119.466647    12.0600     0.2724     0.0426     0.0846 1.1219e+03     0.7026      0.274      0.397    26.6678 0.0000e+00
      0.279     -0.002     4.7072     58.552    115.716 119.438319    12.0600     0.2724     0.0426     0.0846 3.0651e+03     0.6271      0.273      0.397    26.6536 0.0000e+00
      0.278     -0.003     4.7068     58.527    115.705 119.410172    12.0600     0.2762     0.0426     0.0846 9.2125e+02     0.7328      0.273      0.396    26.6373 0.0000e+00
      0.277     -0.004     4.7034     58.495    115.703 119.394702    12.0600     0.2953     0.0426     0.0846 1.1411e+03     0.6120      0.272      0.394    26.6224 0.0000e+00
      0.276     -0.004     4.6997     58.451    115.707 119.387783    12.0600     0.3525     0.0426     0.2961 1.1528e+03     0.6724      0.271      0.393    26.6111 0.0000e+00
      0.275     -0.004     4.6975     58.401    115.715 119.387570    12.0600     0.3639     0.0426     0.2961 1.2040e+03     0.6875      0.269      0.391    26.6024 0.0000e+00
      0.274     -0.004     4.6961     58.346    115.723 119.386004    12.0600     0.3639     0.0426     0.2961 1.5512e+03     0.5969      0.268      0.389    26.5951 0.0000e+00
      0.272     -0.004     4.6940     58.265    115.727 119.378668    12.0600     0.3525     0.0426     0.2961 1.0407e+03     0.6120      0.267      0.387    26.5890 0.0000e+00
      0.271     -0.004     4.6909     58.142    115.732 119.371605    11.9700     0.3067     0.0426     0.1692 1.0518e+03     0.7026      0.266      0.386    26.5844 0.0000e+00
      0.270     -0.003     4.6873     57.982    115.734 119.362931    11.9700     0.3105     0.0426     0.1692 1.1224e+03     0.6422      0.265      0.385    26.5805 0.0000e+00
      0.270     -0.003     4.6831     57.800    115.727 119.346333    11.9700     0.2800     0.0426     0.1692 9.8759e+02     0.7479      0.264      0.384    26.5763 0.0000e+00
      0.269     -0.002     4.6771     57.607    115.718 119.329384    11.9700     0.2991     0.0426     0.1692 1.5846e+03     0.6271      0.264      0.383    26.5714 0.0000e+00
      0.269     -0.002     4.6677     57.411    115.721 119.327566    11.9700     0.3334     0.0426     0.1692 7.7089e+02     0.7026      0.263      0.382    26.5662 0.0000e+00
      0.268     -0.002     4.6552     57.236    115.736 119.340396    11.9700     0.3487     0.0852     0.2115 9.1129e+02     0.7177      0.263      0.382    26.5614 0.0000e+00
      0.268     -0.002     4.6409     57.114    115.747 119.351292    11.9700     0.3563     0.0852     0.2115 1.1308e+03     0.6875      0.262      0.381    26.5573 0.0000e+00
      0.267     -0.002     4.6257     57.071    115.747 119.351158    11.9700     0.3563     0.0852     0.2115 1.3924e+03     0.6422      0.261      0.379    26.5540 0.0000e+00
      0.266     -0.001     4.6102     57.111    115.740 119.343960    11.9700     0.3372     0.0852     0.2115 7.1366e+02     0.6875      0.261      0.378    26.5518 0.0000e+00
      0.266     -0.000     4.5962     57.196    115.739 119.339779    11.9700     0.3525     0.0852     0.1692 9.3740e+02     0.6422      0.260      0.378    26.5508 0.0000e+00
      0.266      0.001     4.5864     57.272    115.755 119.349502    11.9700     0.3563     0.0852     0.1692 9.1070e+02     0.6422      0.260      0.378    26.5505 0.0000e+00
      0.266      0.002     4.5829     57.314    115.783 119.367721    11.9700     0.3449     0.0852     0.1692 1.3049e+03     0.6120      0.261      0.379    26.5507 0.0000e+00
      0.267      0.003     4.5862     57.343    115.811 119.383292    11.9700     0.3716     0.0852     0.1692 1.2167e+03     0.6875      0.262      0.380    26.5505 0.0000e+00
      0.268      0.004     4.5931     57.394    115.829 119.388363    11.9700     0.3449     0.0000     0.0846 2.0892e+03     0.5515      0.263      0.381    26.5492 0.0000e+00
      0.269      0.004     4.5995     57.476    115.829 119.376287    11.9700     0.3372     0.0000     0.0846 1.4135e+03     0.5817      0.264      0.382    26.5464 0.0000e+00
      0.270      0.005     4.6032     57.570    115.824 119.359843    11.9700     0.3449     0.0000     0.0846 9.5571e+02     0.6724      0.265      0.384    26.5419 0.0000e+00
      0.271      0.005     4.6060     57.640    115.826 119.350648    11.9700     0.2648     0.0000     0.0846 9.8566e+02     0.5364      0.266      0.386    26.5361 0.0000e+00
      0.273      0.005     4.6106     57.656    115.832 119.346250    11.9700     0.2609     0.0000     0.0846 1.0931e+03     0.5817      0.268      0.388    26.5302 0.0000e+00
      0.275      0.005     4.6177     57.619    115.842 119.345476    11.9700     0.2648     0.0426     0.2538 1.2846e+03     0.6422      0.269      0.390    26.5249 0.0000e+00
      0.276      0.004     4.6256     57.556    115.850 119.344119    11.9700     0.2648     0.0426     0.2538 1.0212e+03     0.7479      0.271      0.393    26.5201 0.0000e+00
      0.277      0.003     4.6316     57.507    115.858 119.341815    11.9700     0.2686     0.0426     0.2538 8.3452e+02     0.6271      0.272      0.394    26.5152 0.0000e+00
      0.277      0.002     4.6333     57.508    115.864 119.337950    11.9700     0.2571     0.0426     0.2538 1.0236e+03     0.6724      0.272      0.394    26.5105 0.0000e+00
      0.277      0.001     4.6307     57.564    115.867 119.331494    12.0600     0.2876     0.0426     0.1269 1.3687e+03     0.6724      0.272      0.394    26.5061 0.0000e+00
      0.277      0.000     4.6260     57.650    115.873 119.328724    12.0600     0.2648     0.0426     0.1269 9.1985e+02     0.6724      0.272      0.394    26.5015 0.0000e+00
      0.277      0.000     4.6225     57.730    115.887 119.332902    12.0600     0.3563     0.0426     0.1269 1.0378e+03     0.7026      0.272      0.394    26.4969 0.0000e+00
      0.277     -0.001     4.6229     57.778    115.909 119.345143    12.0600     0.3716     0.0426     0.1269 1.2896e+03     0.6573      0.272      0.394    26.4927 0.0000e+00
      0.277     -0.001     4.6278     57.796    115.935 119.360709    12.0600     0.3678     0.0426     0.3384 1.1161e+03     0.6422      0.272      0.394    26.4887 0.0000e+00
      0.277     -0.001     4.6350     57.805    115.957 119.371748    12.0600     0.3372     0.0426     0.3384 1.3350e+03     0.6120      0.272      0.394    26.4848 0.0000e+00
      0.277     -0.001     4.6418     57.821    115.972 119.377204    12.0600     0.2800     0.0426     0.3384 6.7739e+02     0.3854      0.271      0.394    26.4805 0.0000e+00
      0.276     -0.002     4.6460     57.835    115.977 119.374530    12.0600     0.2876     0.0426     0.3384 1.0557e+03     0.3854      0.271      0.393    26.4760 0.0000e+00
      0.276     -0.002     4.6479     57.828    115.966 119.359013    12.0600     0.2876     0.0426     0.1692 1.1579e+03     0.3703      0.270      0.392    26.4711 0.0000e+00
      0.276     -0.002     4.6490     57.785    115.953 119.342515    12.0600     0.2838     0.0426     0.1692 8.4676e+02     0.3854      0.270      0.392    26.4662 0.0000e+00
      0.275     -0.002     4.6506     57.697    115.952 119.340641    12.0600     0.2800     0.0426     0.1692 8.1587e+02     0.7479      0.270      0.391    26.4620 0.0000e+00
      0.275     -0.002     4.6520     57.569    115.960 119.348890    12.0600     0.2724     0.0426     0.1692 8.9171e+02     0.6120      0.270      0.391    26.4587 0.0000e+00
      0.275     -0.002     4.6516     57.419    115.963 119.353460    12.0600     0.2953     0.0426     0.1692 7.2412e+02     0.6724      0.269      0.391    26.4564 0.0000e+00
      0.274     -0.001     4.6483     57.267    115.960 119.351570    12.0600     0.2991     0.0426     0.3807 1.4943e+03     0.6120      0.269      0.390    26.4552 0.0000e+00
      0.274     -0.001     4.6412     57.126    115.957 119.350715    12.0600     0.2571     0.0426     0.3807 2.0349e+03     0.7630      0.268      0.389    26.4549 0.0000e+00
      0.274     -0.000     4.6309     57.001    115.956 119.350669    12.0600     0.2876     0.0426     0.3807 9.8352e+02     0.6271      0.268      0.389    26.4551 0.0000e+00
      0.274      0.000     4.6189     56.876    115.956 119.351419    12.0600     0.2953     0.0426     0.3807 7.5547e+02     0.6422      0.268      0.389    26.4556 0.0000e+00
      0.274      0.001     4.6065     56.731    115.952 119.349165    11.8800     0.2876     0.0852     0.1269 7.9418e+02     0.7177      0.268      0.389    26.4562 0.0000e+00
      0.274      0.002     4.5952     56.553    115.942 119.339306    11.8800     0.2915     0.0852     0.1269 1.0981e+03     0.5817      0.269      0.390    26.4568 0.0000e+00
      0.275      0.002     4.5850     56.341    115.933 119.331213    11.8800     0.2876     0.0852     0.1269 1.0879e+03     0.6422      0.269      0.391    26.4574 0.0000e+00
      0.276      0.002     4.5749     56.097    115.928 119.326729    11.8800     0.2800     0.0852     0.1269 9.2546e+02     0.7328      0.270      0.392    26.4579 0.0000e+00
      0.276      0.002     4.5632     55.836    115.926 119.324658    11.8800     0.2800     0.0426     0.0846 1.0008e+03     0.6422      0.271      0.393    26.4584 0.0000e+00
      0.277      0.001     4.5489     55.585    115.929 119.328449    11.8800     0.3220     0.0426     0.0846 2.1092e+03     0.6120      0.272      0.394    26.4588 0.0000e+00
      0.277      0.001     4.5318     55.381    115.931 119.331110    11.8800     0.3563     0.0426     0.0846 1.0564e+03     0.6422      0.272      0.394    26.4591 0.0000e+00
      0.277      0.000     4.5122     55.242    115.924 119.325352    11.8800     0.3449     0.0426     0.0846 9.2970e+02     0.6271      0.271      0.394    26.4594 0.0000e+00
      0.277      0.000     4.4912     55.155    115.916 119.317639    11.8800     0.3411     0.0426     0.0846 1.1548e+03     0.5666      0.271      0.393    26.4596 0.0000e+00
      0.276      0.000     4.4710     55.096    115.912 119.313917    11.9700     0.3411     0.0426     0.2115 8.3235e+02     0.5817      0.271      0.393    26.4599 0.0000e+00
      0.276      0.000     4.4546     55.033    115.911 119.313191    11.9700     0.3525     0.0426     0.2115 5.9446e+02     0.7177      0.271      0.393    26.4601 0.0000e+00
      0.277      0.001     4.4433     54.945    115.916 119.319270    11.9700     0.3639     0.0426     0.2115 1.9658e+03     0.6875      0.271      0.393    26.4604 0.0000e+00
      0.277      0.001     4.4363     54.825    115.930 119.333773    11.9700     0.3411     0.0426     0.2115 1.1493e+03     0.6271      0.272      0.394    26.4607 0.0000e+00
      0.278      0.000     4.4315     54.685    115.940 119.344568    11.9700     0.3258     0.0426     0.1692 7.2475e+02     0.7026      0.272      0.395    26.4610 0.0000e+00
      0.278      0.000     4.4264     54.549    115.937 119.342530    11.9700     0.3563     0.0426     0.1692 8.7939e+02     0.6120      0.272      0.395    26.4612 0.0000e+00
      0.278     -0.001     4.4193     54.439    115.926 119.331118    11.9700     0.3678     0.0426     0.1692 1.0303e+03     0.7328      0.272      0.395    26.4613 0.0000e+00
      0.277     -0.001     4.4097     54.362    115.906 119.311289    11.9700     0.3449     0.0426     0.1692 7.5465e+02     0.6573      0.272      0.394    26.4615 0.0000e+00
      0.277     -0.001     4.3984     54.305    115.885 119.289755    11.8800     0.3601     0.0426     0.3384 8.4217e+02     0.6271      0.271      0.394    26.4618 0.0000e+00
      0.276     -0.001     4.3875     54.243    115.877 119.280778    11.8800     0.3601     0.0426     0.3384 1.5097e+03     0.6422      0.271      0.393    26.4620 0.0000e+00
      0.276     -0.001     4.3786     54.149    115.878 119.281963    11.8800     0.3601     0.0426     0.3384 1.3326e+03     0.5817      0.271      0.393    26.4623 0.0000e+00
      0.276     -0.001     4.3724     54.014    115.882 119.285624    11.8800     0.3678     0.0426     0.3384 1.0527e+03     0.6422      0.271      0.393    26.4624 0.0000e+00
      0.276     -0.001     4.3678     53.845    115.889 119.292739    12.0600     0.3372     0.0852     0.2115 1.1391e+03     0.6422      0.271      0.392    26.4625 0.0000e+00
      0.276     -0.001     4.3628     53.656    115.898 119.301205    12.0600     0.2876     0.0852     0.2115 8.3307e+02     0.6422      0.270      0.392    26.4624 0.0000e+00
      0.276     -0.001     4.3553     53.466    115.906 119.309278    12.0600     0.2991     0.0852     0.2115 1.1322e+03     0.6120      0.270      0.392    26.4623 0.0000e+00
      0.275     -0.002     4.3444     53.295    115.916 119.319112    12.0600     0.2876     0.0852     0.2115 9.2225e+02     0.5969      0.270      0.392    26.4621 0.0000e+00
      0.275     -0.002     4.3308     53.172    115.929 119.333328    12.0600     0.2800     0.0852     0.2115 1.0537e+03     0.5817      0.269      0.391    26.4620 0.0000e+00
      0.274     -0.002     4.3156     53.136    115.942 119.347716    12.2400     0.2648     0.0426     0.1269 5.7153e+02     0.6724      0.269      0.390    26.4618 0.0000e+00
      0.273     -0.002     4.3004     53.210    115.947 119.354112    12.2400     0.2800     0.0426     0.1269 9.2105e+02     0.7328      0.268      0.389    26.4617 0.0000e+00
      0.272     -0.001     4.2866     53.376    115.943 119.350222    12.2400     0.2876     0.0426     0.1269 1.4461e+03     0.6120      0.267      0.387    26.4618 0.0000e+00
      0.272      0.001     4.2767     53.583    115.937 119.343009    12.2400     0.2724     0.0426     0.1269 1.6793e+03     0.6271      0.267      0.387    26.4620 0.0000e+00
      0.273      0.002     4.2738     53.793    115.947 119.350553    11.9700     0.3639     0.0852     0.2115 2.7555e+03     0.6422      0.267      0.388    26.4624 0.0000e+00
      0.274      0.003     4.2797     54.004    115.976 119.374863    11.9700     0.3372     0.0852     0.2115 1.6279e+03     0.5969      0.268      0.390    26.4629 0.0000e+00
      0.275      0.004     4.2930     54.243    116.001 119.394421    11.9700     0.3525     0.0852     0.2115 2.1300e+03     0.5969      0.270      0.391    26.4632 0.0000e+00
      0.276      0.004     4.3097     54.534    116.009 119.398437    11.9700     0.3296     0.0852     0.2115 1.5425e+03     0.6120      0.271      0.393    26.4628 0.0000e+00
      0.277      0.004     4.3267     54.871    116.004 119.391985    12.0600     0.3411     0.0852     0.2961 1.6829e+03     0.5515      0.271      0.394    26.4613 0.0000e+00
      0.278      0.004     4.3439     55.203    115.995 119.381344    12.0600     0.3525     0.0852     0.2961 1.8096e+03     0.5817      0.272      0.395    26.4588 0.0000e+00
      0.279      0.004     4.3633     55.469    115.989 119.375678    12.0600     0.3334     0.0852     0.2961 9.3354e+02     0.5817      0.274      0.397    26.4563 0.0000e+00
      0.280      0.003     4.3869     55.650    115.991 119.377476    12.0600     0.3525     0.0852     0.2961 9.8974e+02     0.6120      0.275      0.399    26.4546 0.0000e+00
      0.281      0.002     4.4140     55.765    115.990 119.375217    12.0600     0.3372     0.0852     0.2961 7.0472e+02     0.6422      0.276      0.400    26.4537 0.0000e+00
      0.282      0.001     4.4407     55.847    115.979 119.364298    11.8800     0.3411     0.0852     0.2538 7.9401e+02     0.7177      0.277      0.401    26.4534 0.0000e+00
      0.282      0.001     4.4622     55.923    115.965 119.349807    11.8800     0.3449     0.0852     0.2538 1.0115e+03     0.5515      0.277      0.401    26.4535 0.0000e+00
      0.282      0.000     4.4767     56.000    115.950 119.335882    11.8800     0.3411     0.0852     0.2538 1.3849e+03     0.6271      0.276      0.401    26.4534 0.0000e+00
      0.281     -0.001     4.4860     56.063    115.941 119.326811    11.8800     0.3639     0.0852     0.2538 1.7769e+03     0.6573      0.276      0.400    26.4532 0.0000e+00
      0.281     -0.001     4.4926     56.100    115.941 119.328175    11.9700     0.3411     0.0852     0.2115 8.7292e+02     0.5515      0.276      0.400    26.4531 0.0000e+00
      0.281      0.000     4.4987     56.112    115.951 119.340337    11.9700     0.3639     0.0852     0.2115 9.1467e+02     0.7177      0.275      0.400    26.4534 0.0000e+00
      0.281      0.000     4.5048     56.103    115.963 119.354541    11.9700     0.3372     0.0852     0.2115 5.4249e+02     0.5817      0.275      0.399    26.4538 0.0000e+00
      0.281      0.001     4.5098     56.070    115.969 119.362573    11.9700     0.3449     0.0852     0.2115 1.8219e+03     0.6271      0.275      0.399    26.4540 0.0000e+00
      0.281      0.001     4.5128     55.998    115.967 119.362574    11.9700     0.3487     0.0000     0.1692 1.3735e+03     0.7177      0.275      0.400    26.4544 0.0000e+00
      0.282      0.002     4.5137     55.879    115.962 119.358545    11.9700     0.3487     0.0000     0.1692 7.1630e+02     0.6422      0.276      0.400    26.4552 0.0000e+00
      0.282      0.002     4.5129     55.733    115.961 119.357412    11.9700     0.3372     0.0000     0.1692 2.0751e+03     0.6120      0.277      0.402    26.4562 0.0000e+00
      0.283      0.002     4.5102     55.594    115.962 119.358873    11.9700     0.3372     0.0000     0.1692 1.8482e+03     0.6875      0.277      0.403    26.4570 0.0000e+00
      0.284      0.001     4.5043     55.478    115.962 119.359317    12.0600     0.3372     0.0426     0.0846 1.0505e+03     0.6875      0.278      0.403    26.4575 0.0000e+00
      0.284      0.001     4.4948     55.379    115.965 119.362864    12.0600     0.3449     0.0426     0.0846 1.2746e+03     0.6573      0.278      0.404    26.4579 0.0000e+00
      0.284     -0.001     4.4830     55.288    115.973 119.370460    12.0600     0.3716     0.0426     0.0846 1.4392e+03     0.7026      0.278      0.404    26.4583 0.0000e+00
      0.284     -0.002     4.4718     55.220    115.983 119.380128    12.0600     0.2724     0.0426     0.0846 7.7223e+02     0.6724      0.278      0.404    26.4586 0.0000e+00
      0.283     -0.003     4.4624     55.209    115.993 119.390448    12.0600     0.2915     0.0426     0.0846 7.8937e+02     0.6120      0.278      0.403    26.4587 0.0000e+00
      0.282     -0.004     4.4545     55.280    115.998 119.396169    11.8800     0.2724     0.0426     0.1692 2.3063e+03     0.6120      0.277      0.401    26.4587 0.0000e+00
      0.281     -0.004     4.4472     55.418    115.997 119.394818    11.8800     0.2800     0.0426     0.1692 9.3965e+02     0.7177      0.275      0.399    26.4585 0.0000e+00
      0.279     -0.004     4.4418     55.577    115.992 119.390034    11.8800     0.2762     0.0426     0.1692 1.1139e+03     0.7026      0.274      0.397    26.4583 0.0000e+00
      0.278     -0.004     4.4409     55.714    115.991 119.388542    11.8800     0.2876     0.0426     0.1692 1.3455e+03     0.5969      0.272      0.396    26.4582 0.0000e+00
      0.277     -0.004     4.4465     55.821    115.992 119.389945    12.0600     0.2686     0.0426     0.2961 1.7312e+03     0.5213      0.271      0.394    26.4583 0.0000e+00
      0.276     -0.003     4.4577     55.923    115.992 119.390616    12.0600     0.2800     0.0426     0.2961 1.5252e+03     0.5969      0.271      0.393    26.4584 0.0000e+00
      0.275     -0.002     4.4705     56.054    115.993 119.390735    12.0600     0.3411     0.0426     0.2961 7.7475e+02     0.6271      0.270      0.391    26.4584 0.0000e+00
      0.274     -0.001     4.4815     56.222    115.993 119.390333    12.0600     0.3296     0.0426     0.2961 1.1601e+03     0.5666      0.269      0.390    26.4583 0.0000e+00
      0.274      0.001     4.4901     56.385    115.997 119.393303    11.9700     0.3563     0.0852     0.2538 1.0592e+03     0.7026      0.268      0.390    26.4583 0.0000e+00
      0.274      0.003     4.4983     56.486    116.006 119.400437    11.9700     0.3449     0.0852     0.2538 1.2324e+03     0.6724      0.269      0.390    26.4583 0.0000e+00
      0.276      0.004     4.5089     56.496    116.012 119.405636    11.9700     0.3143     0.0852     0.2538 1.2445e+03     0.6724      0.270      0.392    26.4583 0.0000e+00
      0.277      0.005     4.5224     56.419    116.016 119.406288    11.9700     0.2724     0.0852     0.2538 1.0350e+03     0.5969      0.272      0.394    26.4580 0.0000e+00
      0.279      0.006     4.5355     56.282    116.020 119.406564    12.1500     0.2991     0.0426     0.3807 1.4467e+03     0.6573      0.274      0.397    26.4574 0.0000e+00
      0.281      0.006     4.5437     56.124    116.027 119.410541    12.1500     0.2800     0.0426     0.3807 1.0430e+03     0.5817      0.275      0.399    26.4569 0.0000e+00
      0.283      0.006     4.5446     55.978    116.032 119.411276    12.1500     0.2953     0.0426     0.3807 1.2583e+03     0.6120      0.277      0.402    26.4561 0.0000e+00
      0.284      0.006     4.5385     55.861    116.030 119.404966    12.1500     0.2571     0.0426     0.3807 1.2796e+03     0.7328      0.278      0.404    26.4549 0.0000e+00
      0.285      0.006     4.5276     55.764    116.031 119.401929    12.1500     0.2571     0.0426     0.3807 1.1074e+03     0.7026      0.279      0.406    26.4533 0.0000e+00
      0.286      0.005     4.5150     55.672    116.037 119.405355    11.9700     0.2953     0.0852     0.0846 1.4452e+03     0.6724      0.281      0.407    26.4516 0.0000e+00
      0.288      0.005     4.5034     55.564    116.041 119.408157    11.9700     0.2991     0.0852     0.0846 8.4989e+02     0.6422      0.282      0.409    26.4498 0.0000e+00
      0.289      0.003     4.4941     55.424    116.043 119.411081    11.9700     0.2876     0.0852     0.0846 3.4595e+03     0.6422      0.283      0.411    26.4479 0.0000e+00
      0.290      0.002     4.4865     55.255    116.048 119.418908    11.9700     0.2838     0.0852     0.0846 2.0429e+03     0.6120      0.284      0.413    26.4461 0.0000e+00
      0.291      0.000     4.4791     55.092    116.052 119.425724    12.0600     0.2800     0.0852     0.1269 8.1676e+02     0.7026      0.285      0.414    26.4450 0.0000e+00
      0.291     -0.002     4.4704     54.998    116.051 119.429346    12.0600     0.2876     0.0852     0.1269 1.0232e+03     0.5515      0.285      0.413    26.4446 0.0000e+00
      0.290     -0.004     4.4591     55.044    116.051 119.434742    12.0600     0.2648     0.0852     0.1269 7.9160e+02     0.5969      0.284      0.412    26.4450 0.0000e+00
      0.288     -0.005     4.4455     55.266    116.046 119.435350    12.0600     0.2571     0.0852     0.1269 1.2652e+03     0.6422      0.282      0.409    26.4460 0.0000e+00
      0.285     -0.005     4.4324     55.614    116.033 119.427331    11.9700     0.2762     0.0426     0.0846 2.5974e+03     0.6271      0.280      0.406    26.4474 0.0000e+00
      0.284     -0.005     4.4247     55.977    116.021 119.420549    11.9700     0.2800     0.0426     0.0846 1.2627e+03     0.6724      0.278      0.403    26.4492 0.0000e+00
      0.283     -0.004     4.4282     56.256    116.019 119.421197    11.9700     0.2648     0.0426     0.0846 8.7273e+02     0.6120      0.277      0.402    26.4514 0.0000e+00
      0.282     -0.002     4.4458     56.407    116.023 119.425447    11.9700     0.2762     0.0426     0.0846 1.4875e+03     0.7479      0.277      0.402    26.4539 0.0000e+00
      0.282     -0.001     4.4736     56.434    116.029 119.430432    11.9700     0.2648     0.0426     0.0846 1.0931e+03     0.5817      0.277      0.402    26.4566 0.0000e+00
      0.282     -0.001     4.5026     56.371    116.033 119.433481    12.0600     0.2800     0.0426     0.1692 1.2396e+03     0.5817      0.277      0.402    26.4589 0.0000e+00
      0.282     -0.000     4.5249     56.261    116.031 119.431405    12.0600     0.2876     0.0426     0.1692 1.6329e+03     0.6573      0.277      0.402    26.4600 0.0000e+00
      0.283     -0.000     4.5371     56.129    116.028 119.427653    12.0600     0.3067     0.0426     0.1692 7.7610e+02     0.7328      0.277      0.402    26.4600 0.0000e+00
      0.283     -0.000     4.5393     55.998    116.029 119.429224    12.0600     0.2953     0.0426     0.1692 1.2080e+03     0.7026      0.277      0.402    26.4595 0.0000e+00
      0.283     -0.000     4.5343     55.897    116.034 119.436536    11.9700     0.3411     0.0426     0.2115 2.4140e+03     0.6875      0.277      0.402    26.4592 0.0000e+00
      0.283     -0.000     4.5254     55.847    116.033 119.439539    11.9700     0.3716     0.0426     0.2115 1.0617e+03     0.7177      0.277      0.402    26.4589 0.0000e+00
      0.283     -0.000     4.5148     55.860    116.024 119.435033    11.9700     0.3601     0.0426     0.2115 9.8866e+02     0.5515      0.277      0.402    26.4588 0.0000e+00
      0.283     -0.000     4.5043     55.927    116.016 119.429818    11.9700     0.3563     0.0426     0.2115 1.5292e+03     0.6120      0.277      0.402    26.4590 0.0000e+00
      0.283     -0.000     4.4961     56.023    116.015 119.430505    11.9700     0.2609     0.0426     0.2538 1.5048e+03     0.5666      0.277      0.402    26.4600 0.0000e+00
      0.283      0.000     4.4919     56.127    116.021 119.437277    11.9700     0.2724     0.0426     0.2538 9.3679e+02     0.6422      0.277      0.402    26.4617 0.0000e+00
      0.283      0.000     4.4928     56.217    116.028 119.443938    11.9700     0.2915     0.0426     0.2538 1.4237e+03     0.6724      0.277      0.402    26.4634 0.0000e+00
      0.283      0.000     4.4981     56.289    116.033 119.448264    11.9700     0.2648     0.0426     0.2538 8.0286e+02     0.6120      0.277      0.402    26.4648 0.0000e+00
      0.283      0.000     4.5058     56.350    116.033 119.447410    12.1500     0.2876     0.0426     0.1692 1.3321e+03     0.5666      0.277      0.402    26.4656 0.0000e+00
      0.283      0.000     4.5140     56.400    116.027 119.441145    12.1500     0.2953     0.0426     0.1692 1.5539e+03     0.5364      0.277      0.402    26.4659 0.0000e+00
      0.283      0.001     4.5213     56.430    116.022 119.435802    12.1500     0.2762     0.0426     0.1692 1.5556e+03     0.6724      0.277      0.402    26.4657 0.0000e+00
      0.283      0.001     4.5271     56.437    116.021 119.433955    12.1500     0.2800     0.0426     0.1692 9.7925e+02     0.5666      0.277      0.402    26.4653 0.0000e+00
      0.283      0.001     4.5321     56.425    116.023 119.435112    12.1500     0.3449     0.0426     0.1692 6.6659e+02     0.5817      0.278      0.403    26.4650 0.0000e+00
      0.284      0.002     4.5361     56.394    116.024 119.435580    11.8800     0.3449     0.0000     0.2115 1.1812e+03     0.6271      0.278      0.403    26.4648 0.0000e+00
      0.284      0.002     4.5385     56.342    116.020 119.431485    11.8800     0.3258     0.0000     0.2115 7.0304e+02     0.5515      0.279      0.404    26.4647 0.0000e+00
      0.285      0.002     4.5391     56.268    116.015 119.425735    11.8800     0.3487     0.0000     0.2115 1.0585e+03     0.6120      0.279      0.405    26.4646 0.0000e+00
      0.285      0.001     4.5382     56.178    116.009 119.420797    11.8800     0.3372     0.0000     0.2115 1.5943e+03     0.5817      0.280      0.405    26.4643 0.0000e+00
      0.285      0.001     4.5357     56.084    116.003 119.415354    11.9700     0.3411     0.0426     0.2115 9.4128e+02     0.6724      0.280      0.406    26.4641 0.0000e+00
      0.285      0.001     4.5315     55.999    115.999 119.411954    11.9700     0.3449     0.0426     0.2115 3.2616e+03     0.6422      0.280      0.406    26.4639 0.0000e+00
      0.286      0.001     4.5256     55.926    115.999 119.413693    11.9700     0.3525     0.0426     0.2115 1.5097e+03     0.5666      0.281      0.407    26.4639 0.0000e+00
      0.286      0.001     4.5183     55.843    116.001 119.417034    11.9700     0.3449     0.0426     0.2115 1.6145e+03     0.6724      0.281      0.407    26.4640 0.0000e+00
      0.286      0.000     4.5107     55.730    116.009 119.426867    12.0600     0.3143     0.0426     0.2538 1.9044e+03     0.6422      0.281      0.407    26.4644 0.0000e+00
      0.286      0.000     4.5039     55.580    116.026 119.445815    12.0600     0.3449     0.0426     0.2538 2.7513e+03     0.5213      0.281      0.407    26.4649 0.0000e+00
      0.286      0.000     4.4979     55.406    116.041 119.462930    12.0600     0.3411     0.0426     0.2538 9.4744e+02     0.6271      0.281      0.407    26.4656 0.0000e+00
      0.286     -0.001     4.4912     55.222    116.051 119.474773    12.0600     0.3563     0.0426     0.2538 1.3097e+03     0.6120      0.281      0.407    26.4662 0.0000e+00
      0.286     -0.001     4.4820     55.038    116.059 119.484503    12.0600     0.3296     0.0426     0.2538 1.2420e+03     0.6724      0.281      0.407    26.4666 0.0000e+00
      0.286     -0.001     4.4700     54.864    116.067 119.494716    12.0600     0.3449     0.0426     0.1692 1.7804e+03     0.7026      0.281      0.407    26.4672 0.0000e+00
      0.285     -0.001     4.4560     54.707    116.071 119.500133    12.0600     0.3296     0.0426     0.1692 1.4953e+03     0.5666      0.280      0.406    26.4679 0.0000e+00
      0.285     -0.001     4.4411     54.566    116.067 119.498200    12.0600     0.3258     0.0426     0.1692 1.8962e+03     0.5515      0.280      0.405    26.4687 0.0000e+00
      0.285     -0.001     4.4262     54.430    116.064 119.496400    12.0600     0.3563     0.0426     0.1692 2.3734e+03     0.7328      0.280      0.405    26.4695 0.0000e+00
      0.285      0.000     4.4122     54.298    116.064 119.498255    12.0600     0.3487     0.0426     0.3384 8.5323e+02     0.7177      0.280      0.405    26.4703 0.0000e+00
      0.285      0.000     4.3995     54.188    116.063 119.500260    12.0600     0.3258     0.0426     0.3384 9.4971e+02     0.6573      0.280      0.405    26.4711 0.0000e+00
      0.285      0.001     4.3881     54.117    116.059 119.498948    12.0600     0.3449     0.0426     0.3384 8.4713e+02     0.7479      0.280      0.405    26.4718 0.0000e+00
      0.285      0.002     4.3771     54.078    116.052 119.493970    12.0600     0.3449     0.0426     0.3384 2.0523e+03     0.7177      0.280      0.405    26.4725 0.0000e+00
      0.285      0.003     4.3664     54.056    116.040 119.483998    12.1500     0.3449     0.1278     0.1692 1.4064e+03     0.6724      0.280      0.406    26.4734 0.0000e+00
      0.286      0.003     4.3575     54.038    116.028 119.474375    12.1500     0.3525     0.1278     0.1692 9.6573e+02     0.6875      0.281      0.407    26.4744 0.0000e+00
      0.287      0.004     4.3516     54.026    116.021 119.470534    12.1500     0.3372     0.1278     0.1692 1.5472e+03     0.8688      0.282      0.409    26.4756 0.0000e+00
      0.289      0.004     4.3484     54.046    116.020 119.471452    12.1500     0.3449     0.1278     0.1692 8.5955e+02     0.6573      0.283      0.411    26.4768 0.0000e+00
      0.290      0.004     4.3466     54.138    116.023 119.477375    12.0600     0.3563     0.0426     0.2115 1.1624e+03     0.7026      0.285      0.413    26.4779 0.0000e+00
      0.291      0.004     4.3450     54.351    116.034 119.489881    12.0600     0.3449     0.0426     0.2115 6.6240e+02     0.5364      0.286      0.414    26.4791 0.0000e+00
      0.292      0.003     4.3439     54.765    116.045 119.502305    12.0600     0.3220     0.0426     0.2115 9.5198e+02     0.6271      0.286      0.415    26.4803 0.0000e+00
      0.293      0.002     4.3455     55.471    116.046 119.503958    12.0600     0.3296     0.0426     0.2115 8.1463e+02     0.6422      0.287      0.416    26.4814 0.0000e+00
      0.294     -0.001     4.3528     56.546    116.046 119.501282    12.0600     0.3296     0.0426     0.2115 1.1156e+03     0.7026      0.288      0.417    26.4823 0.0000e+00
      0.294     -0.005     4.3699     58.098    116.058 119.503565    12.2400     0.3296     0.0000     0.2115 7.0243e+02     0.6724      0.288      0.418    26.4829 0.0000e+00
      0.294     -0.011     4.4031     60.313    116.080 119.511415    12.2400     0.4021     0.0000     0.2115 6.0937e+02     0.6271      0.288      0.418    26.4835 0.0000e+00
      0.291     -0.018     4.4599     63.355    116.102 119.526922    12.2400     0.4135     0.0000     0.2115 8.0794e+02     0.7177      0.286      0.414    26.4837 0.0000e+00
      0.286     -0.024     4.5464     67.180    116.115 119.550220    12.2400     0.4021     0.0000     0.2115 1.2027e+03     0.7177      0.280      0.406    26.4822 0.0000e+00
      0.277     -0.027     4.6716     71.427    116.104 119.569520    11.9700     0.3830     0.0426     0.3807 1.2001e+03     0.6422      0.271      0.393    26.4779 0.0000e+00
      0.266     -0.028     4.8501     75.510    116.064 119.571966    11.9700     0.3182     0.0426     0.3807 2.6799e+03     0.6120      0.260      0.378    26.4719 0.0000e+00
      0.256     -0.026     5.0949     78.864    116.016 119.564218    11.9700     0.2838     0.0426     0.3807 1.2933e+03     0.7328      0.251      0.364    26.4687 0.0000e+00
      0.249     -0.023     5.4019     81.134    115.978 119.554214    11.9700     0.2724     0.0426     0.3807 1.7387e+03     0.6573      0.244      0.355    26.4728 0.0000e+00
      0.246     -0.019     5.7420     82.214    115.951 119.543289    12.0600     0.2800     0.0000     0.0846 1.0353e+03     0.6573      0.241      0.349    26.4858 0.0000e+00
      0.243     -0.016     6.0682     82.191    115.934 119.536529    12.0600     0.2762     0.0000     0.0846 1.1171e+03     0.7479      0.239      0.346    26.5047 0.0000e+00
      0.242     -0.015     6.3357     81.311    115.925 119.536133    12.0600     0.2724     0.0000     0.0846 1.4280e+03     0.6120      0.237      0.343    26.5227 0.0000e+00
      0.239     -0.016     6.5168     79.949    115.918 119.541993    12.0600     0.3067     0.0000     0.0846 1.5634e+03     0.7630      0.234      0.340    26.5353 0.0000e+00
      0.235     -0.018     6.6027     78.499    115.904 119.547672    12.0600     0.2953     0.0000     0.0846 1.3043e+03     0.5364      0.230      0.334    26.5428 0.0000e+00
      0.229     -0.019     6.6005     77.220    115.875 119.546685    11.8800     0.2724     0.1278     0.4653 3.2470e+02     0.6724      0.224      0.325    26.5472 0.0000e+00
      0.222     -0.020     6.5294     76.191    115.836 119.538768    11.8800     0.3296     0.1278     0.4653 1.0745e+03     0.7479      0.218      0.315    26.5511 0.0000e+00
      0.215     -0.019     6.4195     75.356    115.795 119.529815    11.8800     0.3449     0.1278     0.4653 1.3771e+03     0.7479      0.211      0.306    26.5567 0.0000e+00
      0.210     -0.016     6.3021     74.610    115.762 119.525442    11.8800     0.3487     0.1278     0.4653 9.8331e+02     0.6573      0.206      0.299    26.5656 0.0000e+00
      0.207     -0.013     6.1981     73.875    115.739 119.524484    11.8800     0.3220     0.0426     0.2538 1.3000e+03     0.5969      0.203      0.294    26.5778 0.0000e+00
      0.205     -0.009     6.1139     73.128    115.727 119.526686    11.8800     0.2762     0.0426     0.2538 1.5915e+03     0.6573      0.201      0.291    26.5921 0.0000e+00
      0.203     -0.007     6.0454     72.381    115.724 119.532636    11.8800     0.2876     0.0426     0.2538 1.6407e+03     0.6120      0.200      0.289    26.6065 0.0000e+00
      0.202     -0.005     5.9841     71.667    115.735 119.547922    11.8800     0.2915     0.0426     0.2538 1.0836e+03     0.6120      0.199      0.288    26.6192 0.0000e+00
      0.202     -0.004     5.9241     71.013    115.753 119.568618    12.0600     0.2991     0.0426     0.0846 1.1335e+03     0.6875      0.198      0.287    26.6289 0.0000e+00
      0.201     -0.003     5.8635     70.419    115.766 119.582242    12.0600     0.2800     0.0426     0.0846 1.2007e+03     0.4458      0.197      0.285    26.6354 0.0000e+00
      0.199     -0.003     5.8033     69.843    115.772 119.586425    12.0600     0.2648     0.0426     0.0846 9.9794e+02     0.3854      0.196      0.284    26.6391 0.0000e+00
      0.199     -0.002     5.7458     69.227    115.777 119.588285    12.0600     0.2953     0.0426     0.0846 1.1559e+03     0.4005      0.195      0.282    26.6410 0.0000e+00
      0.198     -0.002     5.6933     68.539    115.786 119.594316    12.2400     0.2648     0.0852    -0.1269 1.5950e+03     0.2947      0.194      0.282    26.6418 0.0000e+00
      0.198     -0.002     5.6457     67.781    115.798 119.602128    12.2400     0.3525     0.0852    -0.1269 1.0441e+03     0.6120      0.194      0.282    26.6417 0.0000e+00
      0.198     -0.002     5.5995     66.985    115.811 119.609802    12.2400     0.3449     0.0852    -0.1269 1.4924e+03     0.6875      0.194      0.282    26.6407 0.0000e+00
      0.198     -0.003     5.5503     66.211    115.820 119.613384    12.2400     0.3411     0.0852    -0.1269 9.6301e+02     0.6271      0.194      0.281    26.6395 0.0000e+00
      0.197     -0.003     5.4952     65.529    115.817 119.605827    12.2400     0.3411     0.0852    -0.1269 1.0656e+03     0.5817      0.193      0.280    26.6381 0.0000e+00
      0.196     -0.004     5.4346     64.967    115.805 119.587116    12.3300     0.3258     0.0426     0.1692 1.3148e+03     0.6120      0.192      0.278    26.6363 0.0000e+00
      0.194     -0.004     5.3710     64.494    115.794 119.570264    12.3300     0.3449     0.0426     0.1692 1.6895e+03     0.7177      0.191      0.276    26.6339 0.0000e+00
      0.193     -0.005     5.3092     64.059    115.798 119.566779    12.3300     0.3601     0.0426     0.1692 8.3199e+02     0.6573      0.190      0.275    26.6315 0.0000e+00
      0.192     -0.005     5.2548     63.617    115.806 119.565731    12.3300     0.3182     0.0426     0.1692 6.6818e+02     0.5364      0.188      0.273    26.6292 0.0000e+00
      0.191     -0.006     5.2099     63.144    115.814 119.562838    12.0600     0.3563     0.0000     0.1692 1.3813e+03     0.5213      0.187      0.271    26.6268 0.0000e+00
      0.189     -0.007     5.1722     62.643    115.833 119.569329    12.0600     0.3182     0.0000     0.1692 1.4686e+03     0.6573      0.186      0.269    26.6241 0.0000e+00
      0.188     -0.008     5.1376     62.135    115.859 119.586936    12.0600     0.3449     0.0000     0.1692 4.4983e+02     0.6120      0.184      0.267    26.6209 0.0000e+00
      0.185     -0.010     5.1025     61.671    115.887 119.612351    12.0600     0.3639     0.0000     0.1692 1.4769e+03     0.6271      0.182      0.264    26.6170 0.0000e+00
      0.182     -0.010     5.0650     61.317    115.910 119.638351    11.8800     0.3487     0.0426     0.2115 1.1890e+03     0.4156      0.179      0.259    26.6120 0.0000e+00
      0.179     -0.010     5.0253     61.131    115.922 119.655865    11.8800     0.3372     0.0426     0.2115 1.5662e+03     0.4609      0.175      0.254    26.6067 0.0000e+00
      0.176     -0.009     4.9849     61.145    115.926 119.667565    11.8800     0.3601     0.0426     0.2115 1.8623e+03     0.3703      0.172      0.250    26.6027 0.0000e+00
      0.173     -0.006     4.9478     61.380    115.937 119.690574    11.8800     0.3296     0.0426     0.2115 1.5482e+03     0.5213      0.170      0.246    26.6012 0.0000e+00
      0.171     -0.003     4.9193     61.898    115.970 119.743027    11.8800     0.3525     0.0426     0.2115 1.5166e+03     0.6422      0.168      0.244    26.6019 0.0000e+00
      0.171     -0.000     4.9042     62.862    116.041 119.844914    12.1500     0.3449     0.0852     0.1269 1.4798e+03     0.6422      0.168      0.243    26.6042 0.0000e+00
      0.172      0.002     4.9049     64.591    116.188 120.043407    12.1500     0.3487     0.0852     0.1269 1.3289e+03     0.6422      0.169      0.245    26.6075 0.0000e+00
      0.174      0.004     4.9232     67.624    116.380 120.317426    12.1500     0.3334     0.0852     0.1269 2.0042e+03     0.5969      0.170      0.247    26.6124 0.0000e+00
      0.176      0.005     4.9639     72.556    116.505 120.548017    12.1500     0.3678     0.0852     0.1269 2.0103e+03     0.5364      0.172      0.250    26.6200 0.0000e+00
      0.177      0.005     5.0397     79.467    116.543 120.690662    12.0600     0.3639     0.0852     0.2115 1.4003e+03     0.6120      0.174      0.252    26.6323 0.0000e+00
      0.179      0.005     5.1760     87.597    116.546 120.779408    12.0600     0.3487     0.0852     0.2115 1.2860e+03     0.6724      0.175      0.254    26.6526 0.0000e+00
      0.179      0.006     5.4154     95.806    116.551 120.847926    12.0600     0.3296     0.0852     0.2115 1.3463e+03     0.5817      0.176      0.255    26.6851 0.0000e+00
      0.180      0.006     5.8056    103.099    116.575 120.916491    12.0600     0.3945     0.0852     0.2115 1.2866e+03     0.5969      0.177      0.257    26.7284 0.0000e+00
      0.182      0.006     6.3536    108.775    116.603 120.973383    12.0600     0.4059     0.0852     0.2115 1.4055e+03     0.5364      0.178      0.259    26.7729 0.0000e+00
      0.184      0.006     6.9993    112.445    116.607 120.995765    12.0600     0.3868     0.0852     0.2115 1.0350e+03     0.6422      0.180      0.261    26.8098 0.0000e+00
      0.186      0.005     7.6521    114.024    116.575 120.973603    12.0600     0.4135     0.0852     0.2115 1.2318e+03     0.6573      0.182      0.264    26.8369 0.0000e+00
      0.187      0.005     8.2324    113.744    116.522 120.924992    12.0600     0.4173     0.0852     0.2115 1.3870e+03     0.9141      0.184      0.266    26.8555 0.0000e+00
      0.188      0.004     8.6842    112.141    116.477 120.882979    12.1500     0.4021     0.0426     0.1692 2.0068e+03     0.9292      0.185      0.268    26.8676 0.0000e+00
      0.189      0.003     8.9764    109.889    116.450 120.858363    12.1500     0.4135     0.0426     0.1692 2.2631e+03     0.8386      0.185      0.269    26.8752 0.0000e+00
      0.189      0.001     9.1020    107.551    116.426 120.834579    12.1500     0.4364     0.0426     0.1692 1.5743e+03     0.9745      0.186      0.269    26.8800 0.0000e+00
      0.189      0.000     9.0793    105.459    116.397 120.805285    12.1500     0.3525     0.0426     0.1692 1.3991e+03     0.6120      0.186      0.270    26.8830 0.0000e+00
      0.189     -0.002     8.9511    103.742    116.378 120.786673    12.1500     0.3296     0.0426     0.1692 1.5186e+03     0.6422      0.186      0.270    26.8848 0.0000e+00
      0.189     -0.004     8.7713    102.396    116.383 120.791783    12.3300     0.3487     0.0852     0.2115 1.6068e+03     0.6724      0.186      0.269    26.8860 0.0000e+00
      0.188     -0.006     8.5845    101.361    116.406 120.815976    12.3300     0.3601     0.0852     0.2115 1.2743e+03     0.5666      0.184      0.267    26.8868 0.0000e+00
      0.186     -0.007     8.4175    100.584    116.434 120.845701    12.3300     0.4059     0.0852     0.2115 1.3729e+03     0.3400      0.182      0.264    26.8872 0.0000e+00
      0.183     -0.007     8.2804    100.024    116.450 120.862879    12.3300     0.4135     0.0852     0.2115 1.4734e+03     0.3098      0.179      0.260    26.8875 0.0000e+00
      0.180     -0.006     8.1729     99.626    116.449 120.862090    11.8800     0.4097     0.0000     0.5499 1.4956e+03     0.4156      0.177      0.256    26.8878 0.0000e+00
      0.178     -0.005     8.0903     99.337    116.461 120.875129    11.8800     0.4212     0.0000     0.5499 1.4019e+03     0.3400      0.175      0.253    26.8880 0.0000e+00
      0.177     -0.002     8.0282     99.131    116.505 120.921476    11.8800     0.3945     0.0000     0.5499 1.3312e+03     0.6120      0.174      0.252    26.8882 0.0000e+00
      0.177      0.000     7.9835     99.000    116.555 120.973482    11.8800     0.4135     0.0000     0.5499 1.1916e+03     0.5969      0.174      0.252    26.8883 0.0000e+00
      0.178      0.003     7.9518     98.931    116.579 120.999008    11.5200     0.3792     0.0426     0.2961 1.2188e+03     0.5515      0.174      0.253    26.8885 0.0000e+00
      0.179      0.005     7.9287     98.908    116.576 120.996859    11.5200     0.4364     0.0426     0.2961 1.2109e+03     0.5817      0.176      0.255    26.8886 0.0000e+00
      0.180      0.006     7.9122     98.916    116.573 120.994466    11.5200     0.4173     0.0426     0.2961 1.5713e+03     0.6120      0.177      0.257    26.8888 0.0000e+00
      0.182      0.006     7.9017     98.928    116.582 121.003194    11.5200     0.4135     0.0426     0.2961 1.4763e+03     0.7479      0.179      0.260    26.8890 0.0000e+00
      0.184      0.006     7.8962     98.926    116.576 120.997365    11.5200     0.3945     0.0426     0.2961 1.3955e+03     0.5364      0.181      0.263    26.8893 0.0000e+00
      0.186      0.005     7.8943     98.904    116.552 120.971425    12.4200     0.4326     0.1704    -0.6768 1.1741e+03     0.6573      0.182      0.265    26.8895 0.0000e+00
      0.188      0.003     7.8949     98.868    116.532 120.950461    12.4200     0.3639     0.1704    -0.6768 1.1996e+03     0.6724      0.184      0.267    26.8897 0.0000e+00
      0.188      0.001     7.8958     98.831    116.519 120.936885    12.4200     0.3449     0.1704    -0.6768 9.4867e+02     0.4760      0.185      0.268    26.8898 0.0000e+00
      0.189     -0.001     7.8957     98.806    116.506 120.923075    12.4200     0.3639     0.1704    -0.6768 1.1340e+03     0.6724      0.185      0.269    26.8898 0.0000e+00
      0.188     -0.004     7.8939     98.797    116.490 120.905351    12.6900     0.3449     0.2130    -1.4382 1.0838e+03     0.6573      0.185      0.268    26.8897 0.0000e+00
      0.187     -0.008     7.8911     98.799    116.467 120.880984    12.6900     0.4097     0.2130    -1.4382 1.4295e+03     0.5969      0.183      0.266    26.8896 0.0000e+00
      0.184     -0.011     7.8882     98.799    116.445 120.857480    12.6900     0.4021     0.2130    -1.4382 1.3679e+03     0.6422      0.181      0.263    26.8894 0.0000e+00
      0.181     -0.013     7.8862     98.782    116.425 120.836574    12.6900     0.4212     0.2130    -1.4382 1.1561e+03     0.6422      0.178      0.258    26.8892 0.0000e+00
      0.177     -0.015     7.8856     98.743    116.417 120.826692    12.2400     0.4212     0.0426    -1.0575 1.2308e+03     0.6724      0.174      0.252    26.8890 0.0000e+00
      0.172     -0.015     7.8857     98.701    116.429 120.839201    12.2400     0.3678     0.0426    -1.0575 1.4049e+03     0.6422      0.169      0.246    26.8887 0.0000e+00
      0.168     -0.014     7.8858     98.683    116.462 120.873438    12.2400     0.3563     0.0426    -1.0575 1.4914e+03     0.6724      0.165      0.239    26.8885 0.0000e+00
      0.163     -0.012     7.8845     98.697    116.511 120.924528    12.2400     0.3639     0.0426    -1.0575 1.5084e+03     0.5364      0.160      0.233    26.8881 0.0000e+00
      0.161     -0.009     7.8814     98.736    116.555 120.970090    11.7900     0.3563     0.0426     0.3807 1.5074e+03     0.5969      0.157      0.229    26.8878 0.0000e+00
      0.159     -0.007     7.8781     98.792    116.583 121.000268    11.7900     0.4288     0.0426     0.3807 1.5252e+03     0.5817      0.156      0.226    26.8875 0.0000e+00
      0.159     -0.004     7.8766     98.857    116.612 121.031113    11.7900     0.3830     0.0426     0.3807 1.3937e+03     0.6724      0.156      0.226    26.8875 0.0000e+00
      0.159     -0.002     7.8777     98.915    116.630 121.050845    11.7900     0.4135     0.0426     0.3807 1.4055e+03     0.6422      0.156      0.226    26.8876 0.0000e+00
      0.159     -0.001     7.8809     98.945    116.627 121.048723    11.7900     0.4021     0.0426     0.3807 1.3396e+03     0.6573      0.155      0.226    26.8878 0.0000e+00
      0.159      0.001     7.8853     98.931    116.626 121.048186    12.1500     0.3945     0.0426     0.1269 1.5455e+03     0.6875      0.155      0.225    26.8881 0.0000e+00
      0.159      0.002     7.8904     98.884    116.623 121.045090    12.1500     0.3868     0.0426     0.1269 1.5398e+03     0.6271      0.155      0.226    26.8884 0.0000e+00
      0.159      0.003     7.8950     98.830    116.593 121.014604    12.1500     0.4288     0.0426     0.1269 1.5679e+03     0.6875      0.156      0.226    26.8888 0.0000e+00
      0.160      0.004     7.8973     98.797    116.553 120.972605    12.1500     0.4021     0.0426     0.1269 1.0576e+03     0.5515      0.157      0.228    26.8891 0.0000e+00
      0.162      0.005     7.8962     98.800    116.531 120.949900    12.2400     0.3792     0.0426     0.0846 1.4705e+03     0.6724      0.159      0.230    26.8893 0.0000e+00
      0.164      0.006     7.8924     98.835    116.535 120.954437    12.2400     0.4212     0.0426     0.0846 1.4209e+03     0.6271      0.161      0.233    26.8895 0.0000e+00
      0.166      0.005     7.8881     98.881    116.554 120.973424    12.2400     0.4288     0.0426     0.0846 2.2744e+03     0.7328      0.162      0.235    26.8896 0.0000e+00
      0.167      0.005     7.8855     98.919    116.563 120.981917    12.2400     0.4021     0.0426     0.0846 1.5469e+03     0.6573      0.164      0.238    26.8897 0.0000e+00
      0.168      0.004     7.8857     98.948    116.559 120.978181    12.3300     0.3143     0.0426     0.2538 1.5628e+03     0.7177      0.165      0.239    26.8897 0.0000e+00
      0.169      0.002     7.8885     98.964    116.551 120.969222    12.3300     0.3487     0.0426     0.2538 1.3572e+03     0.7177      0.166      0.240    26.8896 0.0000e+00
      0.169      0.000     7.8922     98.967    116.527 120.944648    12.3300     0.3449     0.0426     0.2538 1.6075e+03     0.6120      0.166      0.241    26.8894 0.0000e+00
      0.170     -0.001     7.8953     98.958    116.502 120.917911    12.3300     0.3143     0.0426     0.2538 1.0368e+03     0.6120      0.166      0.241    26.8892 0.0000e+00
      0.169     -0.003     7.8976     98.933    116.496 120.911886    12.3300     0.4326     0.0426     0.2538 1.4358e+03     0.5515      0.166      0.241    26.8891 0.0000e+00
      0.168     -0.004     7.8988     98.894    116.511 120.926966    12.0600     0.4135     0.0852     0.4230 1.3949e+03     0.7328      0.165      0.239    26.8891 0.0000e+00
      0.166     -0.005     7.8990     98.855    116.532 120.949171    12.0600     0.3906     0.0852     0.4230 1.3997e+03     0.5817      0.163      0.237    26.8891 0.0000e+00
      0.165     -0.005     7.8983     98.827    116.549 120.966417    12.0600     0.4021     0.0852     0.4230 1.4679e+03     0.7479      0.162      0.234    26.8891 0.0000e+00
      0.164     -0.006     7.8964     98.803    116.566 120.983304    12.0600     0.3525     0.0852     0.4230 1.9311e+03     0.5817      0.160      0.233    26.8889 0.0000e+00
      0.163     -0.007     7.8934     98.759    116.576 120.992332    11.7900     0.3449     0.0426     0.2538 1.4206e+03     0.6120      0.159      0.231    26.8888 0.0000e+00
      0.161     -0.006     7.8903     98.681    116.569 120.983908    11.7900     0.3716     0.0426     0.2538 1.3786e+03     0.6422      0.158      0.229    26.8887 0.0000e+00
      0.159     -0.003     7.8880     98.593    116.554 120.967786    11.7900     0.3563     0.0426     0.2538 1.4034e+03     0.6120      0.155      0.225    26.8885 0.0000e+00
      0.156      0.001     7.8861     98.528    116.539 120.951669    11.7900     0.3449     0.0426     0.2538 1.4727e+03     0.7479      0.153      0.221    26.8882 0.0000e+00
      0.155      0.007     7.8827     98.502    116.527 120.939261    11.9700     0.3258     0.0000     0.3384 1.5179e+03     0.5666      0.151      0.220    26.8877 0.0000e+00
      0.157      0.013     7.8765     98.517    116.516 120.927254    11.9700     0.3563     0.0000     0.3384 1.5205e+03     0.6271      0.153      0.223    26.8871 0.0000e+00
      0.163      0.019     7.8696     98.575    116.505 120.916446    11.9700     0.3334     0.0000     0.3384 1.6815e+03     0.6422      0.159      0.231    26.8867 0.0000e+00
      0.171      0.025     7.8644     98.672    116.497 120.907955    11.9700     0.3220     0.0000     0.3384 2.2533e+03     0.6120      0.167      0.243    26.8866 0.0000e+00
      0.179      0.031     7.8623     98.799    116.485 120.895518    12.5100     0.3334     0.0852     0.0846 1.8900e+03     0.6422      0.175      0.254    26.8866 0.0000e+00
      0.186      0.036     7.8635     98.937    116.474 120.883819    12.5100     0.3411     0.0852     0.0846 1.5215e+03     0.6422      0.182      0.264    26.8867 0.0000e+00
      0.193      0.043     7.8681     99.054    116.475 120.883741    12.5100     0.3639     0.0852     0.0846 1.5084e+03     0.6422      0.189      0.275    26.8867 0.0000e+00
      0.203      0.050     7.8759     99.130    116.485 120.893263    12.5100     0.3563     0.0852     0.0846 1.6536e+03     0.5817      0.199      0.289    26.8868 0.0000e+00
      0.217      0.057     7.8861     99.163    116.487 120.892920    12.5100     0.3372     0.0852     0.0846 1.2148e+03     0.6724      0.213      0.309    26.8867 0.0000e+00
      0.234      0.065     7.8971     99.162    116.479 120.882620    11.7000     0.3678     0.0426    -0.8460 1.6903e+03     0.6573      0.230      0.333    26.8866 0.0000e+00
      0.254      0.071     7.9064     99.142    116.483 120.885619    11.7000     0.3487     0.0426    -0.8460 1.1794e+03     0.7177      0.249      0.361    26.8863 0.0000e+00
      0.274      0.074     7.9126     99.117    116.502 120.904719    11.7000     0.2838     0.0426    -0.8460 1.0796e+03     0.9443      0.269      0.390    26.8856 0.0000e+00
      0.294      0.076     7.9154     99.092    116.517 120.919009    11.7000     0.2838     0.0426    -0.8460 6.4887e+02     0.9594      0.288      0.418    26.8847 0.0000e+00
      0.313      0.077     7.9154     99.067    116.525 120.926296    11.9700     0.2800     0.1704    -0.5922 1.1098e+03     0.9745      0.307      0.445    26.8839 0.0000e+00
      0.332      0.076     7.9139     99.048    116.537 120.938527    11.9700     0.2686     0.1704    -0.5922 1.4546e+03     0.9292      0.326      0.472    26.8832 0.0000e+00
      0.352      0.075     7.9120     99.037    116.544 120.944959    11.9700     0.3029     0.1704    -0.5922 2.7192e+03     0.6120      0.345      0.500    26.8828 0.0000e+00
      0.372      0.074     7.9100     99.035    116.536 120.937307    11.9700     0.2762     0.1704    -0.5922 1.1036e+03     0.6422      0.365      0.528    26.8824 0.0000e+00
      0.391      0.073     7.9081     99.040    116.526 120.927533    12.0600     0.2876     0.0000     0.2115 1.7558e+03     0.7026      0.383      0.556    26.8821 0.0000e+00
      0.409      0.071     7.9066     99.050    116.520 120.923032    12.0600     0.2724     0.0000     0.2115 1.2526e+03     0.6422      0.401      0.582    26.8819 0.0000e+00
      0.426      0.069     7.9057     99.055    116.515 120.920604    12.0600     0.3105     0.0000     0.2115 1.7425e+03     0.8688      0.418      0.606    26.8818 0.0000e+00
      0.443      0.068     7.9055     99.056    116.511 120.917600    12.0600     0.3220     0.0000     0.2115 8.8803e+02     0.9141      0.435      0.631    26.8819 0.0000e+00
      0.460      0.067     7.9058     99.064    116.507 120.915221    12.0600     0.3372     0.0000     0.2115 1.7912e+03     0.9594      0.452      0.655    26.8824 0.0000e+00
      0.477      0.066     7.9065     99.076    116.502 120.910831    12.1500     0.3639     0.0426     0.3384 1.3705e+03     0.8235      0.468      0.679    26.8832 0.0000e+00
      0.494      0.065     7.9069     99.073    116.489 120.897258    12.1500     0.3487     0.0426     0.3384 6.8613e+02     0.6422      0.484      0.703    26.8840 0.0000e+00
      0.510      0.064     7.9069     99.046    116.465 120.872883    12.1500     0.3601     0.0426     0.3384 7.7982e+02     0.6120      0.500      0.726    26.8847 0.0000e+00
      0.527      0.063     7.9074     99.012    116.438 120.845209    12.1500     0.3143     0.0426     0.3384 1.3921e+03     0.6271      0.516      0.749    26.8852 0.0000e+00
      0.543      0.061     7.9083     98.987    116.422 120.828861    12.0600     0.3525     0.0426     0.2115 1.1337e+03     0.6724      0.532      0.772    26.8856 0.0000e+00
      0.558      0.060     7.9080     98.970    116.421 120.827480    12.0600     0.3487     0.0426     0.2115 6.3547e+02     0.5666      0.547      0.794    26.8858 0.0000e+00
      0.573      0.058     7.9059     98.959    116.432 120.838697    12.0600     0.3563     0.0426     0.2115 8.0303e+02     0.5817      0.562      0.816    26.8859 0.0000e+00
      0.588      0.057     7.9032     98.968    116.455 120.861503    12.0600     0.3449     0.0426     0.2115 6.8197e+02     0.7026      0.576      0.836    26.8859 0.0000e+00
      0.602      0.056     7.9012     99.000    116.476 120.881975    12.2400     0.3449     0.0852     0.1692 6.6833e+02     0.6875      0.590      0.856    26.8859 0.0000e+00
      0.615      0.056     7.8998     99.041    116.496 120.901573    12.2400     0.3487     0.0852     0.1692 1.0698e+03     0.7026      0.604      0.875    26.8858 0.0000e+00
      0.629      0.056     7.8989     99.070    116.534 120.939525    12.2400     0.3372     0.0852     0.1692 8.7939e+02     0.5969      0.617      0.895    26.8857 0.0000e+00
      0.644      0.056     7.8997     99.069    116.567 120.971944    12.2400     0.3563     0.0852     0.1692 1.0108e+03     0.6875      0.631      0.916    26.8854 0.0000e+00
      0.658      0.057     7.9023     99.042    116.573 120.977470    12.0600     0.3449     0.0000     0.1692 5.1280e+02     0.6422      0.646      0.936    26.8850 0.0000e+00
      0.673      0.058     7.9056     99.008    116.575 120.977581    12.0600     0.3372     0.0000     0.1692 7.0166e+02     0.7177      0.660      0.957    26.8844 0.0000e+00
      0.688      0.058     7.9080     98.974    116.578 120.980306    12.0600     0.3601     0.0000     0.1692 7.2854e+02     0.6271      0.675      0.978    26.8838 0.0000e+00
      0.703      0.059     7.9080     98.946    116.570 120.970369    12.0600     0.3639     0.0000     0.1692 9.7840e+02     0.6120      0.689      1.000    26.8832 0.0000e+00
      0.718      0.058     7.9060     98.939    116.544 120.943121    12.0600     0.3449     0.0000     0.1692 1.2746e+03     0.6573      0.704      1.021    26.8825 0.0000e+00
      0.733      0.058     7.9033     98.962    116.523 120.921301    12.0600     0.3372     0.0426     0.1692 6.0673e+02     0.6724      0.719      1.043    26.8819 0.0000e+00
      0.748      0.057     7.9007     99.002    116.510 120.909091    12.0600     0.3678     0.0426     0.1692 6.1589e+02     0.6120      0.734      1.064    26.8814 0.0000e+00
      0.763      0.056     7.8985     99.039    116.504 120.903237    12.0600     0.3525     0.0426     0.1692 6.7975e+02     0.6271      0.748      1.085    26.8811 0.0000e+00
      0.777      0.055     7.8980     99.056    116.501 120.900176    12.0600     0.3487     0.0426     0.1692 1.2448e+03     0.5969      0.762      1.104    26.8810 0.0000e+00
      0.790      0.054     7.8998     99.056    116.488 120.887091    12.1500     0.3296     0.0000     0.2115 6.1737e+02     0.5969      0.775      1.123    26.8811 0.0000e+00
      0.803      0.054     7.9030     99.042    116.479 120.878495    12.1500     0.3563     0.0000     0.2115 6.8673e+02     0.6271      0.788      1.142    26.8814 0.0000e+00
      0.817      0.055     7.9059     98.998    116.489 120.888099    12.1500     0.3372     0.0000     0.2115 6.0030e+02     0.6875      0.801      1.162    26.8816 0.0000e+00
      0.830      0.056     7.9072     98.921    116.514 120.914464    12.1500     0.3411     0.0000     0.2115 7.9591e+02     0.6573      0.814      1.181    26.8819 0.0000e+00
      0.845      0.057     7.9072     98.847    116.542 120.942616    12.1500     0.3411     0.0852     0.1692 1.1014e+03     0.6875      0.828      1.201    26.8820 0.0000e+00
      0.859      0.059     7.9061     98.813    116.549 120.948056    12.1500     0.3372     0.0852     0.1692 6.5581e+02     0.6724      0.843      1.222    26.8821 0.0000e+00
      0.875      0.061     7.9025     98.823    116.545 120.942235    12.1500     0.3525     0.0852     0.1692 8.5397e+02     0.6724      0.858      1.245    26.8821 0.0000e+00
      0.891      0.062     7.8964     98.854    116.546 120.941606    12.1500     0.3487     0.0852     0.1692 6.0990e+02     0.6422      0.874      1.268    26.8819 0.0000e+00
      0.908      0.063     7.8906     98.875    116.548 120.941999    12.1500     0.3258     0.0852     0.1692 6.0475e+02     0.6724      0.890      1.291    26.8815 0.0000e+00
      0.924      0.063     7.8879     98.884    116.567 120.961523    12.0600     0.3716     0.0426     0.1692 6.2398e+02     0.6422      0.906      1.314    26.8809 0.0000e+00
      0.940      0.063     7.8888     98.895    116.598 120.993381    12.0600     0.3601     0.0426     0.1692 6.5467e+02     0.6271      0.922      1.338    26.8800 0.0000e+00
      0.956      0.063     7.8914     98.895    116.606 121.002060    12.0600     0.3639     0.0426     0.1692 9.2406e+02     0.5969      0.938      1.360    26.8792 0.0000e+00
      0.972      0.063     7.8932     98.870    116.600 120.995877    12.0600     0.3792     0.0426     0.1692 8.3507e+02     0.6271      0.953      1.382    26.8786 0.0000e+00
      0.988      0.062     7.8940     98.844    116.589 120.985184    12.1500     0.3639     0.0426     0.2538 7.8800e+02     0.5666      0.969      1.405    26.8784 0.0000e+00
      1.004      0.062     7.8949     98.838    116.572 120.967130    12.1500     0.3372     0.0426     0.2538 9.9925e+02     0.5515      0.984      1.427    26.8785 0.0000e+00
      1.020      0.063     7.8948     98.845    116.559 120.952905    12.1500     0.3296     0.0426     0.2538 4.5821e+02     0.5817      1.000      1.450    26.8787 0.0000e+00
      1.036      0.063     7.8928     98.845    116.546 120.938714    12.1500     0.3411     0.0426     0.2538 6.5368e+02     0.6120      1.016      1.473    26.8788 0.0000e+00
      1.052      0.063     7.8907     98.816    116.529 120.920772    12.1500     0.3449     0.0426     0.2538 6.8450e+02     0.7932      1.031      1.496    26.8789 0.0000e+00
      1.068      0.064     7.8903     98.753    116.511 120.902298    12.1500     0.3449     0.0426     0.2538 6.8123e+02     0.5817      1.047      1.519    26.8788 0.0000e+00
      1.084      0.064     7.8909     98.686    116.494 120.884366    12.1500     0.3563     0.0426     0.2538 7.2098e+02     0.6120      1.063      1.542    26.8786 0.0000e+00
      1.101      0.064     7.8909     98.649    116.481 120.872195    12.1500     0.3372     0.0426     0.2538 9.2808e+02     0.5817      1.079      1.565    26.8783 0.0000e+00
      1.117      0.065     7.8886     98.647    116.469 120.860540    12.2400     0.3601     0.0852     0.2538 6.1522e+02     0.6724      1.095      1.589    26.8782 0.0000e+00
      1.133      0.065     7.8836     98.678    116.455 120.846293    12.2400     0.3563     0.0852     0.2538 9.3679e+02     0.5515      1.112      1.612    26.8781 0.0000e+00
      1.150      0.065     7.8783     98.757    116.445 120.837656    12.2400     0.3449     0.0852     0.2538 6.9288e+02     0.6271      1.128      1.636    26.8782 0.0000e+00
      1.167      0.065     7.8753     98.891    116.449 120.842329    12.2400     0.3563     0.0852     0.2538 5.9253e+02     0.6422      1.144      1.660    26.8783 0.0000e+00
      1.183      0.065     7.8750     99.057    116.470 120.865558    12.2400     0.4021     0.0852     0.2538 7.5088e+02     0.6422      1.161      1.683    26.8786 0.0000e+00
      1.200      0.065     7.8775     99.217    116.491 120.887533    12.1500     0.4021     0.0426     0.1692 8.3779e+02     0.6573      1.177      1.707    26.8790 0.0000e+00
      1.217      0.064     7.8837     99.344    116.488 120.886109    12.1500     0.4097     0.0426     0.1692 7.3923e+02     0.6724      1.193      1.731    26.8795 0.0000e+00
      1.233      0.063     7.8943     99.424    116.487 120.884909    12.1500     0.4097     0.0426     0.1692 5.1258e+02     0.6724      1.209      1.754    26.8800 0.0000e+00
      1.250      0.062     7.9075     99.440    116.503 120.901618    12.1500     0.3792     0.0426     0.1692 7.6655e+02     0.7932      1.226      1.777    26.8805 0.0000e+00
      1.266      0.059     7.9202     99.390    116.519 120.918686    12.1500     0.3868     0.0426     0.1692 6.0279e+02     0.9292      1.242      1.800    26.8809 0.0000e+00
      1.281      0.057     7.9303     99.297    116.531 120.930665    12.1500     0.3945     0.0426     0.1692 7.0779e+02     0.8990      1.257      1.822    26.8813 0.0000e+00
      1.295      0.054     7.9366     99.189    116.542 120.940747    12.1500     0.4326     0.0426     0.1692 6.4451e+02     0.9896      1.270      1.842    26.8816 0.0000e+00
      1.308      0.052     7.9379     99.078    116.543 120.939620    12.1500     0.4517     0.0426     0.1692 9.9946e+02     0.6724      1.283      1.860    26.8816 0.0000e+00
      1.320      0.051     7.9340     98.962    116.540 120.932984    12.1500     0.4555     0.0852     0.2538 5.0047e+02     0.5666      1.295      1.878    26.8815 0.0000e+00
      1.333      0.050     7.9265     98.844    116.540 120.929071    12.1500     0.4593     0.0852     0.2538 7.2349e+02     0.5817      1.307      1.896    26.8812 0.0000e+00
      1.345      0.050     7.9180     98.736    116.539 120.920835    12.1500     0.4669     0.0852     0.2538 6.8867e+02     0.7026      1.319      1.913    26.8806 0.0000e+00
      1.358      0.050     7.9093     98.656    116.530 120.904081    12.1500     0.4784     0.0852     0.2538 6.5624e+02     0.7932      1.332      1.931    26.8798 0.0000e+00
      1.371      0.050     7.9002     98.594    116.514 120.880341    12.1500     0.4784     0.0852     0.2538 6.0030e+02     0.8839      1.345      1.950    26.8784 0.0000e+00
      1.384      0.050     7.8910     98.538    116.502 120.861287    12.0600     0.4708     0.0852     0.1692 5.2338e+02     0.9745      1.357      1.969    26.8764 0.0000e+00
      1.397      0.050     7.8828     98.495    116.495 120.847839    12.0600     0.4440     0.0852     0.1692 6.0990e+02     0.8688      1.370      1.987    26.8736 0.0000e+00
      1.410      0.049     7.8769     98.485    116.487 120.836411    12.0600     0.5318     0.0852     0.1692 6.1831e+02     1.0954      1.383      2.006    26.8704 0.0000e+00
      1.423      0.048     7.8724     98.502    116.487 120.835956    12.0600     0.5432     0.0852     0.1692 5.7402e+02     1.2162      1.395      2.024    26.8672 0.0000e+00
      1.435      0.046     7.8683     98.515    116.499 120.850355    12.1500     0.5356     0.0426     0.2538 6.9197e+02     1.2011      1.407      2.041    26.8643 0.0000e+00
      1.446      0.045     7.8652     98.500    116.501 120.855441    12.1500     0.5013     0.0426     0.2538 4.7877e+02     1.0954      1.419      2.057    26.8620 0.0000e+00
      1.457      0.044     7.8647     98.457    116.478 120.832569    12.1500     0.5203     0.0426     0.2538 5.5069e+02     0.9443      1.429      2.072    26.8606 0.0000e+00
      1.467      0.044     7.8660     98.414    116.447 120.797642    12.1500     0.5432     0.0426     0.2538 4.4632e+02     0.9292      1.439      2.087    26.8604 0.0000e+00
      1.477      0.045     7.8670     98.391    116.433 120.777354    12.1500     0.5165     0.0426     0.2538 5.3291e+02     0.7932      1.449      2.102    26.8612 0.0000e+00
      1.489      0.048     7.8656     98.372    116.452 120.790298    12.1500     0.5318     0.0426     0.2538 5.2350e+02     0.8688      1.460      2.118    26.8623 0.0000e+00
      1.501      0.051     7.8621     98.335    116.474 120.805920    12.1500     0.5470     0.0426     0.2538 6.2452e+02     1.0198      1.472      2.136    26.8626 0.0000e+00
      1.515      0.054     7.8588     98.286    116.473 120.796380    12.1500     0.5165     0.0426     0.2538 5.0605e+02     0.9896      1.486      2.155    26.8617 0.0000e+00
      1.529      0.057     7.8573     98.252    116.465 120.779136    12.0600     0.5470     0.0852     0.0846 4.7721e+02     0.8386      1.500      2.175    26.8593 0.0000e+00
      1.544      0.061     7.8562     98.239    116.459 120.763592    12.0600     0.5356     0.0852     0.0846 6.1482e+02     0.8688      1.515      2.197    26.8564 0.0000e+00
      1.560      0.064     7.8537     98.229    116.449 120.745602    12.0600     0.5661     0.0852     0.0846 5.7502e+02     1.0954      1.530      2.219    26.8532 0.0000e+00
      1.577      0.066     7.8503     98.196    116.439 120.728371    12.0600     0.5776     0.0852     0.0846 4.9852e+02     1.1407      1.547      2.243    26.8496 0.0000e+00
      1.594      0.068     7.8481     98.140    116.436 120.719304    12.0600     0.5814     0.0852     0.0846 5.4343e+02     1.1860      1.564      2.268    26.8456 0.0000e+00
      1.612      0.070     7.8477     98.075    116.429 120.705983    12.1500     0.5585     0.0426     0.2115 5.0969e+02     1.1256      1.581      2.293    26.8416 0.0000e+00
      1.630      0.072     7.8473     98.005    116.408 120.678853    12.1500     0.5661     0.0426     0.2115 5.6107e+02     1.1256      1.599      2.319    26.8381 0.0000e+00
      1.649      0.072     7.8451     97.917    116.395 120.660685    12.1500     0.5623     0.0426     0.2115 5.0737e+02     1.2011      1.617      2.346    26.8351 0.0000e+00
      1.668      0.072     7.8410     97.807    116.402 120.664637    12.1500     0.5509     0.0426     0.2115 4.6879e+02     1.1407      1.636      2.373    26.8326 0.0000e+00
      1.687      0.071     7.8362     97.691    116.412 120.671759    12.1500     0.5776     0.0852     0.2115 4.4593e+02     1.0954      1.655      2.400    26.8303 0.0000e+00
      1.706      0.068     7.8309     97.588    116.410 120.667947    12.1500     0.5585     0.0852     0.2115 5.4214e+02     1.0803      1.673      2.426    26.8281 0.0000e+00
      1.723      0.065     7.8241     97.501    116.419 120.676188    12.1500     0.5738     0.0852     0.2115 5.0638e+02     1.1407      1.690      2.451    26.8261 0.0000e+00
      1.739      0.062     7.8155     97.428    116.443 120.700680    12.1500     0.5814     0.0852     0.2115 5.0211e+02     1.2011      1.706      2.474    26.8244 0.0000e+00
      1.754      0.059     7.8064     97.374    116.448 120.705948    12.1500     0.5776     0.0426     0.2538 4.4651e+02     1.2464      1.720      2.495    26.8232 0.0000e+00
      1.769      0.056     7.7983     97.356    116.430 120.687395    12.1500     0.5738     0.0426     0.2538 4.6899e+02     1.1860      1.735      2.516    26.8223 0.0000e+00
      1.782      0.053     7.7915     97.384    116.405 120.662077    12.1500     0.5890     0.0426     0.2538 4.5346e+02     1.0652      1.748      2.535    26.8218 0.0000e+00
      1.795      0.052     7.7857     97.460    116.386 120.643246    12.1500     0.5890     0.0426     0.2538 5.5224e+02     1.0954      1.760      2.553    26.8216 0.0000e+00
      1.807      0.052     7.7814     97.563    116.385 120.641885    12.1500     0.5699     0.0426     0.2538 5.0781e+02     1.1860      1.773      2.571    26.8217 0.0000e+00
      1.820      0.052     7.7799     97.661    116.402 120.657630    12.1500     0.5699     0.0426     0.2538 4.8306e+02     1.4428      1.785      2.589    26.8219 0.0000e+00
      1.834      0.053     7.7821     97.730    116.420 120.674675    12.1500     0.5738     0.0426     0.2538 4.3644e+02     1.2918      1.798      2.608    26.8222 0.0000e+00
      1.847      0.055     7.7881     97.769    116.420 120.671563    12.1500     0.5966     0.0426     0.2538 4.6422e+02     1.4579      1.812      2.628    26.8223 0.0000e+00
      1.862      0.056     7.7964     97.770    116.400 120.649462    12.1500     0.5470     0.0426     0.2538 4.9281e+02     1.3673      1.826      2.648    26.8222 0.0000e+00
      1.877      0.055     7.8043     97.729    116.370 120.616481    12.1500     0.5585     0.0852     0.2538 4.1247e+02     1.1407      1.840      2.669    26.8216 0.0000e+00
      1.892      0.054     7.8100     97.660    116.333 120.577827    12.1500     0.5852     0.0852     0.2538 5.0781e+02     1.2011      1.855      2.690    26.8206 0.0000e+00
      1.906      0.052     7.8132     97.580    116.312 120.555199    12.1500     0.5814     0.0852     0.2538 4.8337e+02     1.1558      1.869      2.711    26.8196 0.0000e+00
      1.919      0.050     7.8134     97.498    116.311 120.554565    12.1500     0.5699     0.0852     0.2538 3.9244e+02     1.1256      1.882      2.730    26.8187 0.0000e+00
      1.931      0.047     7.8103     97.433    116.321 120.563753    12.4200     0.5852     0.0426     0.2538 4.0668e+02     1.1558      1.894      2.747    26.8181 0.0000e+00
      1.942      0.044     7.8048     97.398    116.326 120.569211    12.4200     0.5814     0.0426     0.2538 4.3787e+02     1.0954      1.905      2.762    26.8178 0.0000e+00
      1.953      0.042     7.7984     97.402    116.303 120.544390    12.4200     0.5661     0.0426     0.2538 4.9195e+02     1.1256      1.915      2.777    26.8177 0.0000e+00
      1.963      0.041     7.7919     97.435    116.214 120.452665    12.4200     0.5585     0.0426     0.2538 4.1426e+02     1.2464      1.925      2.792    26.8176 0.0000e+00
      1.974      0.040     7.7866     97.474    116.044 120.275576    12.5100     0.5661     0.0426     0.2961 3.9510e+02     1.2464      1.935      2.807    26.8175 0.0000e+00
      1.984      0.040     7.7839     97.502    115.789 120.011909    12.5100     0.5928     0.0426     0.2961 4.8505e+02     1.1558      1.945      2.821    26.8173 0.0000e+00
      1.994      0.041     7.7842     97.525    115.405 119.613355    12.5100     0.6005     0.0426     0.2961 4.5941e+02     1.1407      1.955      2.835    26.8171 0.0000e+00
      2.004      0.042     7.7869     97.548    114.763 118.947630    12.5100     0.5509     0.0426     0.2961 3.8803e+02     1.1407      1.965      2.849    26.8170 0.0000e+00
      2.014      0.044     7.7900     97.556    113.674 117.819203    12.5100     0.5776     0.0426     0.2961 4.5188e+02     1.2011      1.975      2.864    26.8170 0.0000e+00
      2.025      0.046     7.7922     97.538    111.853 115.931162    12.6000     0.5661     0.0426     0.1692 3.8871e+02     1.0349      1.986      2.880    26.8169 0.0000e+00
      2.037      0.049     7.7940     97.503    108.813 112.780027    12.6000     0.6043     0.0426     0.1692 4.8442e+02     1.2313      1.998      2.897    26.8168 0.0000e+00
      2.050      0.051     7.7959     97.466    103.760 107.543501    12.6000     0.5432     0.0426     0.1692 3.9785e+02     1.1256      2.010      2.916    26.8167 0.0000e+00
      2.064      0.054     7.7967     97.434     95.358  98.835178    12.6000     0.5585     0.0426     0.1692 4.2836e+02     1.0954      2.024      2.935    26.8164 0.0000e+00
      2.078      0.056     7.7953     97.399     81.344  84.312835    12.6000     0.5776     0.0852     0.1692 3.9863e+02     1.1860      2.037      2.955    26.8160 0.0000e+00
      2.092      0.058     7.7925     97.351     57.971  60.091843    12.6000     0.5776     0.0852     0.1692 4.2697e+02     1.1860      2.052      2.976    26.8157 0.0000e+00
      2.108      0.059     7.7897     97.298     19.004  19.713273    12.6000     0.5470     0.0852     0.1692 4.0997e+02     1.1256      2.067      2.998    26.8152 0.0000e+00
      2.124      0.060     7.7872     97.265    -45.935 -47.578492    12.6000     0.5852     0.0852     0.1692 3.9596e+02     1.2464      2.082      3.020    26.8147 0.0000e+00
      2.139      0.060     7.7845     97.276   -154.149-159.711921    12.6900     0.5661     0.0852     0.2115 3.7953e+02     1.1709      2.098      3.043    26.8141 0.0000e+00
      2.155      0.059     7.7808     97.333   -334.515-346.609265    12.6900     0.5661     0.0852     0.2115 4.1139e+02     1.1105      2.113      3.065    26.8135 0.0000e+00
      2.170      0.057     7.7766     97.419   -447.246-463.421636    12.6900     0.5776     0.0852     0.2115 3.7772e+02     1.1860      2.128      3.086    26.8129 0.0000e+00
      2.184      0.055     7.7741     97.506   -334.498-346.592815    12.6900     0.6310     0.0852     0.2115 3.7953e+02     1.1256      2.142      3.106    26.8123 0.0000e+00
      2.198      0.052     7.7751     97.573   -154.114-159.678636    12.8700     0.6272     0.0852     0.2961 3.8135e+02     1.1709      2.156      3.126    26.8118 0.0000e+00
      2.211      0.048     7.7799     97.605    -45.886 -47.533497    12.8700     0.6348     0.0852     0.2961 3.9639e+02     1.0652      2.168      3.145    26.8115 0.0000e+00
      2.223      0.046     7.7869     97.594     19.045  19.745969    12.8700     0.6500     0.0852     0.2961 3.7665e+02     1.1709      2.180      3.162    26.8113 0.0000e+00
      2.234      0.043     7.7938     97.548     57.991  60.100955    12.8700     0.5585     0.0852     0.2961 3.6362e+02     1.0954      2.191      3.177    26.8110 0.0000e+00
      2.244      0.042     7.7990     97.486     81.352  84.304792    12.8700     0.5585     0.0852     0.2961 3.7145e+02     1.0954      2.200      3.191    26.8105 0.0000e+00
      2.254      0.041     7.8016     97.429     95.356  98.811837    12.6900     0.5738     0.0852     0.2961 3.8652e+02     1.1709      2.210      3.206    26.8098 0.0000e+00
      2.264      0.042     7.8008     97.398    103.742 107.494636    12.6900     0.5738     0.0852     0.2961 4.2512e+02     1.0349      2.220      3.220    26.8090 0.0000e+00
      2.275      0.042     7.7973     97.391    108.770 112.696606    12.6900     0.5509     0.0852     0.2961 3.4016e+02     1.1709      2.231      3.235    26.8082 0.0000e+00
      2.286      0.044     7.7924     97.386    111.788 115.816939    12.6900     0.5738     0.0852     0.2961 3.9596e+02     1.1558      2.241      3.251    26.8070 0.0000e+00
      2.297      0.045     7.7881     97.356    113.590 117.679725    12.6900     0.5852     0.1278     0.2538 3.6339e+02     1.1860      2.253      3.267    26.8051 0.0000e+00
      2.309      0.047     7.7860     97.276    114.672 118.797706    12.6900     0.5699     0.1278     0.2538 3.4402e+02     1.1407      2.264      3.284    26.8023 0.0000e+00
      2.321      0.049     7.7859     97.134    115.333 119.481015    12.6900     0.6195     0.1278     0.2538 4.1535e+02     1.0954      2.276      3.301    26.7990 0.0000e+00
      2.333      0.050     7.7859     96.950    115.737 119.899863    12.6900     0.6348     0.1278     0.2538 3.4854e+02     1.1558      2.288      3.319    26.7960 0.0000e+00
      2.346      0.052     7.7838     96.766    115.990 120.161945    12.6900     0.6081     0.0426     0.2538 3.6584e+02     1.0803      2.301      3.337    26.7939 0.0000e+00
      2.360      0.054     7.7776     96.608    116.155 120.333147    12.6900     0.6157     0.0426     0.2538 3.8585e+02     1.0349      2.315      3.357    26.7927 0.0000e+00
      2.374      0.054     7.7664     96.491    116.260 120.443121    12.6900     0.6272     0.0426     0.2538 3.4432e+02     1.4277      2.329      3.377    26.7921 0.0000e+00
      2.389      0.054     7.7517     96.422    116.328 120.513191    12.6900     0.6386     0.0426     0.2538 3.3517e+02     1.3522      2.343      3.398    26.7920 0.0000e+00
      2.403      0.053     7.7369     96.394    116.367 120.554042    12.6900     0.6005     0.0426     0.2538 3.7510e+02     1.3673      2.357      3.418    26.7922 0.0000e+00
      2.417      0.051     7.7242     96.395    116.385 120.572566    12.6900     0.6424     0.0852     0.2115 3.3685e+02     1.3673      2.370      3.438    26.7924 0.0000e+00
      2.430      0.049     7.7148     96.409    116.387 120.573703    12.6900     0.6348     0.0852     0.2115 3.3626e+02     1.4126      2.383      3.456    26.7925 0.0000e+00
      2.442      0.046     7.7093     96.420    116.372 120.557756    12.6900     0.6424     0.0852     0.2115 3.2861e+02     1.3220      2.395      3.473    26.7925 0.0000e+00
      2.453      0.044     7.7070     96.428    116.356 120.540476    12.6900     0.6500     0.0852     0.2115 3.3854e+02     1.4730      2.405      3.488    26.7925 0.0000e+00
      2.463      0.042     7.7071     96.438    116.345 120.529257    12.6000     0.6348     0.0852     0.1692 3.3083e+02     1.3975      2.416      3.503    26.7923 0.0000e+00
      2.474      0.040     7.7083     96.458    116.330 120.513106    12.6000     0.6272     0.0852     0.1692 3.3604e+02     1.2918      2.426      3.518    26.7922 0.0000e+00
      2.483      0.039     7.7092     96.508    116.309 120.491717    12.6000     0.6729     0.0852     0.1692 3.2315e+02     1.3220      2.436      3.532    26.7920 0.0000e+00
      2.493      0.038     7.7099     96.589    116.293 120.475388    12.6000     0.6920     0.0852     0.1692 3.4740e+02     1.3522      2.445      3.546    26.7918 0.0000e+00
      2.502      0.037     7.7107     96.684    116.290 120.471767    12.6900     0.7073     0.0852     0.2115 3.0968e+02     1.3824      2.454      3.559    26.7917 0.0000e+00
      2.512      0.037     7.7123     96.762    116.305 120.487891    12.6900     0.6806     0.0852     0.2115 3.1191e+02     1.3975      2.463      3.572    26.7917 0.0000e+00
      2.521      0.037     7.7163     96.810    116.337 120.520058    12.6900     0.6348     0.0852     0.2115 3.3656e+02     1.3824      2.472      3.585    26.7918 0.0000e+00
      2.530      0.038     7.7228     96.832    116.366 120.548840    12.6900     0.6157     0.0852     0.2115 3.3119e+02     1.3824      2.481      3.598    26.7918 0.0000e+00
      2.539      0.039     7.7304     96.839    116.376 120.557908    12.6900     0.6310     0.0000     0.2961 3.1415e+02     1.4126      2.490      3.611    26.7918 0.0000e+00
      2.549      0.041     7.7367     96.832    116.374 120.553682    12.6900     0.6195     0.0000     0.2961 3.1655e+02     1.3371      2.500      3.625    26.7917 0.0000e+00
      2.559      0.044     7.7405     96.821    116.385 120.563038    12.6900     0.6195     0.0000     0.2961 3.0554e+02     1.3824      2.510      3.640    26.7915 0.0000e+00
      2.570      0.047     7.7423     96.828    116.416 120.592472    12.6900     0.6386     0.0000     0.2961 3.3517e+02     1.3220      2.521      3.656    26.7910 0.0000e+00
      2.583      0.049     7.7430     96.859    116.454 120.629831    12.6900     0.6348     0.0000     0.2961 2.9864e+02     1.3975      2.533      3.674    26.7904 0.0000e+00
      2.596      0.050     7.7425     96.896    116.483 120.659070    12.6900     0.6348     0.0426     0.3384 3.0753e+02     1.3220      2.546      3.693    26.7896 0.0000e+00
      2.610      0.051     7.7418     96.912    116.482 120.657982    12.6900     0.5509     0.0426     0.3384 3.0660e+02     1.3824      2.560      3.713    26.7885 0.0000e+00
      2.624      0.049     7.7425     96.897    116.460 120.636279    12.6900     0.5814     0.0426     0.3384 2.8551e+02     1.3220      2.573      3.732    26.7873 0.0000e+00
      2.637      0.047     7.7451     96.859    116.436 120.614178    12.6900     0.5776     0.0426     0.3384 3.1123e+02     1.3824      2.586      3.751    26.7863 0.0000e+00
      2.649      0.044     7.7481     96.809    116.422 120.601787    12.6900     0.5814     0.0426     0.2538 2.9184e+02     1.4277      2.598      3.768    26.7860 0.0000e+00
      2.659      0.040     7.7494     96.751    116.425 120.607805    12.6900     0.6348     0.0426     0.2538 2.7798e+02     1.3824      2.608      3.782    26.7861 0.0000e+00
      2.669      0.037     7.7481     96.701    116.427 120.613834    12.6900     0.6348     0.0426     0.2538 2.8675e+02     1.4730      2.617      3.796    26.7867 0.0000e+00
      2.677      0.034     7.7450     96.682    116.420 120.609479    12.6900     0.6157     0.0426     0.2538 3.2754e+02     1.4428      2.625      3.807    26.7875 0.0000e+00
      2.685      0.031     7.7408     96.707    116.417 120.609583    12.8700     0.6233     0.0426     0.2115 2.7390e+02     1.4277      2.633      3.818    26.7887 0.0000e+00
      2.692      0.030     7.7360     96.766    116.423 120.618173    12.8700     0.6195     0.0426     0.2115 2.6111e+02     1.4126      2.640      3.829    26.7900 0.0000e+00
      2.699      0.029     7.7318     96.844    116.432 120.629539    12.8700     0.6500     0.0426     0.2115 2.8632e+02     1.3673      2.648      3.839    26.7915 0.0000e+00
      2.707      0.029     7.7301     96.937    116.432 120.630709    12.8700     0.6195     0.0426     0.2115 2.7527e+02     1.4126      2.655      3.850    26.7930 0.0000e+00
      2.714      0.030     7.7319     97.053    116.420 120.617994    12.8700     0.6424     0.0426     0.2115 2.8514e+02     1.3975      2.661      3.860    26.7943 0.0000e+00
      2.721      0.032     7.7365     97.182    116.407 120.604008    12.9600     0.6500     0.0852     0.2961 2.6691e+02     1.3975      2.668      3.870    26.7954 0.0000e+00
      2.729      0.034     7.7425     97.287    116.397 120.593020    12.9600     0.6233     0.0852     0.2961 2.6055e+02     1.3069      2.676      3.881    26.7962 0.0000e+00
      2.738      0.038     7.7500     97.336    116.396 120.590104    12.9600     0.6233     0.0852     0.2961 2.7876e+02     1.3371      2.684      3.893    26.7966 0.0000e+00
      2.747      0.042     7.7592     97.330    116.399 120.590479    12.9600     0.6233     0.0852     0.2961 2.7171e+02     1.4277      2.694      3.908    26.7967 0.0000e+00
      2.759      0.046     7.7695     97.291    116.387 120.574243    12.9600     0.6424     0.0426     0.2538 2.6971e+02     1.6392      2.705      3.924    26.7965 0.0000e+00
      2.772      0.050     7.7780     97.228    116.363 120.545067    12.9600     0.6233     0.0426     0.2538 2.4538e+02     1.6241      2.718      3.942    26.7960 0.0000e+00
      2.785      0.054     7.7820     97.137    116.347 120.523176    12.9600     0.6157     0.0426     0.2538 2.5987e+02     1.6543      2.731      3.962    26.7952 0.0000e+00
      2.800      0.057     7.7817     97.034    116.352 120.522734    12.9600     0.6577     0.0426     0.2538 2.4763e+02     1.6543      2.746      3.983    26.7939 0.0000e+00
      2.815      0.059     7.7789     96.937    116.371 120.535623    12.9600     0.6233     0.0852     0.3384 2.3990e+02     1.5486      2.761      4.004    26.7923 0.0000e+00
      2.830      0.061     7.7741     96.854    116.382 120.541274    12.9600     0.6195     0.0852     0.3384 2.5012e+02     1.6996      2.776      4.026    26.7904 0.0000e+00
      2.846      0.062     7.7671     96.784    116.383 120.537193    12.9600     0.6424     0.0852     0.3384 2.4136e+02     1.6241      2.791      4.048    26.7881 0.0000e+00
      2.862      0.062     7.7592     96.721    116.374 120.522293    12.9600     0.6119     0.0852     0.3384 2.3689e+02     1.6241      2.807      4.071    26.7856 0.0000e+00
      2.878      0.063     7.7518     96.653    116.356 120.500600    12.8700     0.6348     0.0426     0.3384 2.3024e+02     1.6543      2.823      4.094    26.7831 0.0000e+00
      2.895      0.063     7.7455     96.568    116.344 120.486334    12.8700     0.6081     0.0426     0.3384 2.3236e+02     1.6241      2.839      4.117    26.7805 0.0000e+00
      2.911      0.062     7.7403     96.451    116.348 120.487691    12.8700     0.6539     0.0426     0.3384 2.3352e+02     1.6845      2.854      4.140    26.7781 0.0000e+00
      2.926      0.062     7.7355     96.291    116.361 120.497033    12.8700     0.6272     0.0426     0.3384 2.2180e+02     1.7298      2.870      4.162    26.7761 0.0000e+00
      2.942      0.062     7.7302     96.102    116.373 120.504849    12.8700     0.6462     0.0426     0.3384 2.1926e+02     1.5939      2.885      4.184    26.7747 0.0000e+00
      2.958      0.063     7.7236     95.911    116.371 120.497219    12.9600     0.6233     0.0852     0.3384 2.2810e+02     1.5486      2.900      4.206    26.7737 0.0000e+00
      2.973      0.064     7.7144     95.748    116.341 120.460107    12.9600     0.6157     0.0852     0.3384 2.1964e+02     1.6845      2.916      4.229    26.7726 0.0000e+00
      2.989      0.065     7.7019     95.632    116.304 120.415621    12.9600     0.6233     0.0852     0.3384 2.1436e+02     1.6090      2.932      4.252    26.7709 0.0000e+00
      3.006      0.067     7.6870     95.563    116.279 120.383903    12.9600     0.6233     0.0852     0.3384 2.1510e+02     1.5939      2.948      4.275    26.7688 0.0000e+00
      3.023      0.070     7.6721     95.525    116.267 120.364496    12.9600     0.6462     0.0852     0.3384 2.2194e+02     1.6241      2.964      4.300    26.7664 0.0000e+00
      3.041      0.073     7.6594     95.505    116.265 120.356226    12.9600     0.6310     0.0852     0.3384 2.1717e+02     1.6996      2.982      4.325    26.7639 0.0000e+00
      3.060      0.075     7.6505     95.492    116.276 120.360888    12.9600     0.6577     0.0852     0.3384 2.1260e+02     1.5486      3.001      4.352    26.7613 0.0000e+00
      3.081      0.077     7.6453     95.490    116.291 120.371721    12.9600     0.6386     0.0852     0.3384 2.0605e+02     1.6845      3.021      4.382    26.7587 0.0000e+00
      3.102      0.077     7.6427     95.516    116.295 120.371613    13.0500     0.6424     0.0852     0.2961 2.0529e+02     1.6241      3.042      4.412    26.7559 0.0000e+00
      3.122      0.076     7.6414     95.587    116.291 120.364534    13.0500     0.6233     0.0852     0.2961 2.0241e+02     1.5939      3.062      4.441    26.7531 0.0000e+00
      3.142      0.074     7.6408     95.694    116.288 120.360599    13.0500     0.6348     0.0852     0.2961 1.9592e+02     1.5939      3.081      4.469    26.7503 0.0000e+00
      3.160      0.072     7.6409     95.811    116.292 120.362759    13.0500     0.6500     0.0852     0.2961 2.0263e+02     1.7147      3.098      4.494    26.7480 0.0000e+00
      3.177      0.070     7.6432     95.903    116.295 120.363588    13.0500     0.6233     0.0852     0.2961 2.0285e+02     1.6241      3.115      4.518    26.7464 0.0000e+00
      3.194      0.069     7.6491     95.934    116.278 120.343304    13.2300     0.6462     0.0426     0.3807 1.9528e+02     1.5939      3.132      4.542    26.7453 0.0000e+00
      3.211      0.069     7.6577     95.894    116.254 120.314501    13.2300     0.6577     0.0426     0.3807 1.9970e+02     1.6694      3.149      4.567    26.7445 0.0000e+00
      3.229      0.069     7.6671     95.812    116.250 120.307504    13.2300     0.5776     0.0426     0.3807 1.9532e+02     1.6543      3.167      4.593    26.7438 0.0000e+00
      3.247      0.068     7.6746     95.732    116.268 120.322447    13.2300     0.5928     0.0426     0.3807 1.8832e+02     1.6241      3.185      4.619    26.7428 0.0000e+00
      3.265      0.067     7.6773     95.689    116.289 120.341311    13.2300     0.5776     0.0852     0.3384 1.8930e+02     1.5637      3.202      4.644    26.7415 0.0000e+00
      3.283      0.066     7.6743     95.692    116.303 120.353124    13.2300     0.5661     0.0852     0.3384 1.8560e+02     1.5788      3.219      4.669    26.7401 0.0000e+00
      3.299      0.063     7.6679     95.737    116.306 120.353035    13.2300     0.5852     0.0852     0.3384 1.8511e+02     1.8356      3.235      4.692    26.7386 0.0000e+00
      3.315      0.061     7.6618     95.813    116.300 120.345020    13.2300     0.5852     0.0852     0.3384 1.8608e+02     1.8809      3.251      4.715    26.7372 0.0000e+00
      3.330      0.058     7.6585     95.896    116.299 120.342944    13.2300     0.5585     0.0426     0.4230 1.8204e+02     1.8658      3.265      4.736    26.7358 0.0000e+00
      3.345      0.056     7.6589     95.954    116.306 120.350255    13.2300     0.5852     0.0426     0.4230 1.7941e+02     1.8054      3.280      4.757    26.7344 0.0000e+00
      3.358      0.054     7.6627     95.962    116.321 120.364901    13.2300     0.5661     0.0426     0.4230 1.7755e+02     1.8205      3.293      4.777    26.7332 0.0000e+00
      3.371      0.053     7.6689     95.915    116.339 120.382786    13.2300     0.5928     0.0426     0.4230 1.7898e+02     1.8205      3.306      4.795    26.7324 0.0000e+00
      3.384      0.052     7.6755     95.837    116.354 120.396679    13.2300     0.5699     0.0852     0.3807 1.8212e+02     1.9715      3.318      4.813    26.7321 0.0000e+00
      3.397      0.052     7.6802     95.766    116.370 120.410284    13.2300     0.5585     0.0852     0.3807 1.7052e+02     1.8205      3.331      4.831    26.7320 0.0000e+00
      3.410      0.053     7.6809     95.732    116.383 120.419226    13.2300     0.5432     0.0852     0.3807 1.6963e+02     1.5939      3.344      4.850    26.7319 0.0000e+00
      3.423      0.054     7.6772     95.742    116.383 120.413889    13.2300     0.5738     0.0852     0.3807 1.7782e+02     1.6241      3.358      4.869    26.7315 0.0000e+00
      3.437      0.057     7.6711     95.776    116.378 120.400850    13.2300     0.5661     0.0852     0.3807 1.7736e+02     1.6845      3.371      4.889    26.7307 0.0000e+00
      3.452      0.059     7.6656     95.801    116.373 120.384635    13.1400     0.5661     0.0426     0.2961 1.7029e+02     1.5939      3.385      4.910    26.7295 0.0000e+00
      3.467      0.062     7.6631     95.792    116.373 120.372919    13.1400     0.5776     0.0426     0.2961 1.6820e+02     2.1377      3.400      4.931    26.7279 0.0000e+00
      3.483      0.064     7.6642     95.751    116.383 120.370578    13.1400     0.5585     0.0426     0.2961 1.6922e+02     2.0773      3.416      4.954    26.7255 0.0000e+00
      3.500      0.066     7.6674     95.711    116.395 120.368987    13.1400     0.5852     0.0426     0.2961 1.6989e+02     2.1830      3.433      4.979    26.7220 0.0000e+00
      3.518      0.067     7.6701     95.695    116.407 120.367721    13.2300     0.5699     0.0852     0.2538 1.6143e+02     2.1377      3.450      5.004    26.7173 0.0000e+00
      3.536      0.067     7.6700     95.707    116.408 120.354440    13.2300     0.5661     0.0852     0.2538 1.5693e+02     1.9262      3.468      5.029    26.7119 0.0000e+00
      3.554      0.066     7.6676     95.741    116.381 120.309598    13.2300     0.5776     0.0852     0.2538 1.5962e+02     1.8356      3.485      5.054    26.7064 0.0000e+00
      3.571      0.065     7.6651     95.784    116.329 120.233241    13.2300     0.5890     0.0852     0.2538 1.5710e+02     1.8960      3.501      5.078    26.7007 0.0000e+00
      3.587      0.064     7.6646     95.814    116.257 120.125008    13.2300     0.5776     0.0852     0.3384 1.5762e+02     1.8507      3.517      5.101    26.6949 0.0000e+00
      3.602      0.064     7.6664     95.810    116.187 120.006045    13.2300     0.5661     0.0852     0.3384 1.5734e+02     2.0320      3.532      5.123    26.6888 0.0000e+00
      3.618      0.064     7.6702     95.775    116.156 119.916635    13.2300     0.6043     0.0852     0.3384 1.5356e+02     2.0924      3.548      5.145    26.6815 0.0000e+00
      3.634      0.064     7.6750     95.725    116.167 119.870938    13.2300     0.5509     0.0852     0.3384 1.5349e+02     2.1679      3.564      5.169    26.6716 0.0000e+00
      3.651      0.064     7.6793     95.659    116.187 119.844762    13.2300     0.5661     0.0852     0.3384 1.5114e+02     2.0622      3.580      5.193    26.6571 0.0000e+00
      3.668      0.064     7.6818     95.566    116.169 119.787119    13.2300     0.6081     0.0426     0.2538 1.4541e+02     3.2405      3.597      5.217    26.6369 0.0000e+00
      3.684      0.064     7.6825     95.439    116.114 119.682637    13.2300     0.6462     0.0426     0.2538 1.4614e+02     3.1801      3.612      5.240    26.6122 0.0000e+00
      3.699      0.064     7.6818     95.284    116.067 119.565464    13.2300     0.6157     0.0426     0.2538 1.4958e+02     3.2858      3.628      5.262    26.5878 0.0000e+00
      3.715      0.064     7.6794     95.083    116.063 119.472359    13.2300     0.6310     0.0426     0.2538 1.4446e+02     3.1498      3.643      5.284    26.5678 0.0000e+00
      3.731      0.064     7.6742     94.787    116.104 119.424492    13.1400     0.8713     0.0852     0.2115 1.4219e+02     6.7905      3.659      5.307    26.5508 0.0000e+00
      3.749      0.062     7.6669     94.359    116.165 119.417092    13.1400     0.8942     0.0852     0.2115 1.4256e+02     6.9113      3.676      5.332    26.5303 0.0000e+00
      3.766      0.060     7.6585     93.802    116.206 119.416177    13.1400     0.8713     0.0852     0.2115 1.3529e+02     6.7603      3.693      5.357    26.5005 0.0000e+00
      3.782      0.056     7.6475     93.166    116.215 119.405501    13.1400     0.8522     0.0852     0.2115 1.3198e+02     6.8207      3.709      5.379    26.4623 0.0000e+00
      3.796      0.050     7.6290     92.525    116.214 119.402219    13.1400     1.3138     0.0852     0.2961 1.3680e+02     9.1622      3.722      5.399    26.4238 0.0000e+00
      3.807      0.044     7.5987     91.948    116.211 119.405457    13.1400     1.3062     0.0852     0.2961 1.3751e+02     9.0565      3.734      5.416    26.3935 0.0000e+00
      3.817      0.038     7.5564     91.496    116.205 119.408079    13.1400     1.3443     0.0852     0.2961 1.3359e+02     9.2226      3.743      5.430    26.3748 0.0000e+00
      3.826      0.033     7.5064     91.220    116.217 119.426788    13.1400     1.2719     0.0852     0.2961 1.3135e+02     9.2075      3.752      5.442    26.3664 0.0000e+00
      3.834      0.028     7.4549     91.152    116.248 119.458572    13.1400     2.6566     0.0852     0.2961 1.3356e+02    16.1112      3.759      5.453    26.3652 0.0000e+00
      3.840      0.023     7.4081     91.276    116.274 119.483902    13.1400     2.6642     0.0852     0.2961 1.3383e+02    16.0961      3.765      5.462    26.3681 0.0000e+00
      3.845      0.019     7.3711     91.522    116.292 119.501532    13.1400     2.6528     0.0852     0.2961 1.3132e+02    16.0809      3.770      5.469    26.3720 0.0000e+00
      3.849      0.016     7.3485     91.815    116.299 119.512163    13.1400     2.6681     0.0852     0.2961 1.3169e+02    16.0507      3.774      5.475    26.3746 0.0000e+00
      3.852      0.013     7.3431     92.109    116.299 119.518629    13.1400     3.7209     0.0852     0.2961 1.3441e+02    20.8395      3.778      5.480    26.3749 0.0000e+00
      3.855      0.010     7.3532     92.384    116.302 119.530657    13.1400     3.6866     0.0426     0.2115 1.3322e+02    20.9754      3.780      5.483    26.3739 0.0000e+00
      3.857      0.008     7.3730     92.637    116.318 119.555455    13.1400     3.7286     0.0426     0.2115 1.3021e+02    20.9603      3.783      5.486    26.3737 0.0000e+00
      3.859      0.006     7.3964     92.866    116.336 119.581633    13.1400     3.7057     0.0426     0.2115 1.3086e+02    20.8244      3.784      5.489    26.3751 0.0000e+00
      3.860      0.004     7.4197     93.065    116.341 119.594171    13.1400     4.3389     0.0426     0.2115 1.3333e+02    24.4197      3.785      5.490    26.3780 0.0000e+00
      3.861      0.002     7.4414     93.241    116.338 119.598412    13.5900     4.3160     0.0852     0.2538 1.3479e+02    24.4650      3.786      5.491    26.3818 0.0000e+00
      3.861      0.000     7.4613     93.398    116.343 119.609490    13.5900     4.3351     0.0852     0.2538 1.3299e+02    24.5557      3.786      5.492    26.3854 0.0000e+00
      3.861     -0.001     7.4792     93.520    116.358 119.628358    13.5900     4.3160     0.0852     0.2538 1.3075e+02    24.5859      3.786      5.491    26.3886 0.0000e+00
      3.861     -0.003     7.4948     93.572    116.368 119.642046    13.5900     4.4877     0.0852     0.2538 1.3241e+02    25.0088      3.786      5.491    26.3919 0.0000e+00
      3.859     -0.006     7.5086     93.530    116.367 119.646203    13.1400     4.4686     0.0852     0.3807 1.3546e+02    24.8276      3.785      5.489    26.3950 0.0000e+00
      3.858     -0.008     7.5209     93.400    116.358 119.641938    13.1400     4.4953     0.0852     0.3807 1.3296e+02    24.9786      3.783      5.487    26.3974 0.0000e+00
      3.856     -0.012     7.5305     93.222    116.352 119.638115    13.1400     4.5029     0.0852     0.3807 1.3163e+02    24.9182      3.781      5.484    26.3989 0.0000e+00
      3.853     -0.016     7.5345     93.029    116.361 119.647718    13.1400     3.8430     0.0852     0.3807 1.3453e+02    21.7610      3.778      5.479    26.4005 0.0000e+00
      3.848     -0.021     7.5308     92.841    116.383 119.675305    13.1400     3.8506     0.0852     0.3807 1.3426e+02    21.9120      3.774      5.473    26.4027 0.0000e+00
      3.843     -0.028     7.5201     92.699    116.408 119.722232    13.2300     3.8201     0.0852     0.3384 1.3310e+02    21.8365      3.769      5.465    26.4048 0.0000e+00
      3.835     -0.036     7.5056     92.664    116.438 119.799010    13.2300     3.8316     0.0852     0.3384 1.3371e+02    21.7308      3.761      5.455    26.4060 0.0000e+00
      3.826     -0.045     7.4900     92.786    116.453 119.888111    13.2300     1.4855     0.0852     0.3384 1.3106e+02     9.4492      3.752      5.442    26.4062 0.0000e+00
      3.814     -0.055     7.4746     93.077    116.421 119.943290    13.2300     1.4855     0.0852     0.3384 1.3377e+02     9.4945      3.740      5.424    26.4082 0.0000e+00
      3.798     -0.064     7.4619     93.522    116.353 119.951265    13.2300     1.4969     0.0426     0.2961 1.3775e+02     9.4190      3.725      5.402    26.4171 0.0000e+00
      3.779     -0.071     7.4564     94.068    116.282 119.924174    13.2300     1.4855     0.0426     0.2961 1.4133e+02     9.4492      3.707      5.376    26.4370 0.0000e+00
      3.758     -0.075     7.4619     94.640    116.221 119.874796    13.2300     0.5585     0.0426     0.2961 1.4847e+02     3.5124      3.686      5.345    26.4685 0.0000e+00
      3.736     -0.076     7.4803     95.156    116.172 119.809966    13.2300     0.5738     0.0426     0.2961 1.5190e+02     3.4822      3.664      5.314    26.5064 0.0000e+00
      3.715     -0.074     7.5115     95.532    116.145 119.744400    13.1400     0.5852     0.0852     0.2961 1.5091e+02     3.4067      3.643      5.283    26.5398 0.0000e+00
      3.695     -0.068     7.5526     95.710    116.143 119.692614    13.1400     0.5585     0.0852     0.2961 1.5639e+02     3.4973      3.624      5.256    26.5599 0.0000e+00
      3.678     -0.061     7.5978     95.668    116.160 119.662798    13.1400     0.5776     0.0852     0.2961 1.5848e+02     3.4218      3.607      5.232    26.5656 0.0000e+00
      3.664     -0.053     7.6401     95.431    116.197 119.664999    13.1400     0.6386     0.0852     0.2961 1.5608e+02     2.6966      3.593      5.212    26.5592 0.0000e+00
      3.653     -0.047     7.6725     95.062    116.236 119.681799    13.1400     0.6348     0.0000     0.2961 1.5456e+02     2.8175      3.582      5.195    26.5433 0.0000e+00
      3.643     -0.043     7.6898     94.637    116.260 119.691674    13.1400     0.6348     0.0000     0.2961 1.5383e+02     2.7420      3.573      5.181    26.5219 0.0000e+00
      3.634     -0.041     7.6892     94.219    116.279 119.703259    13.1400     0.6386     0.0000     0.2961 1.5683e+02     2.7873      3.564      5.168    26.5015 0.0000e+00
      3.624     -0.042     7.6723     93.856    116.306 119.733645    13.1400     0.6462     0.0000     0.2961 1.5574e+02     3.6484      3.555      5.155    26.4861 0.0000e+00
      3.615     -0.047     7.6440     93.574    116.340 119.784931    13.1400     0.6424     0.0000     0.2961 1.5323e+02     3.6786      3.545      5.141    26.4759 0.0000e+00
      3.603     -0.054     7.6107     93.383    116.355 119.832791    13.1400     0.6272     0.0852     0.1692 1.5256e+02     3.7843      3.534      5.125    26.4696 0.0000e+00
      3.590     -0.064     7.5775     93.301    116.331 119.849983    13.1400     0.6539     0.0852     0.1692 1.5470e+02     3.7843      3.520      5.106    26.4663 0.0000e+00
      3.573     -0.075     7.5482     93.351    116.296 119.859098    13.1400     0.6310     0.0852     0.1692 1.5588e+02     3.0592      3.504      5.082    26.4671 0.0000e+00
      3.552     -0.086     7.5246     93.546    116.285 119.888573    13.1400     0.6233     0.0852     0.1692 1.5717e+02     2.9232      3.484      5.053    26.4741 0.0000e+00
      3.528     -0.097     7.5074     93.868    116.294 119.932268    13.1400     0.6386     0.0426     0.2961 1.6663e+02     2.9384      3.459      5.018    26.4880 0.0000e+00
      3.500     -0.106     7.4983     94.275    116.305 119.973835    13.1400     0.6424     0.0426     0.2961 1.7122e+02     2.9232      3.432      4.978    26.5062 0.0000e+00
      3.470     -0.112     7.4998     94.718    116.303 119.998353    13.1400     0.5776     0.0426     0.2961 1.7089e+02     3.4218      3.403      4.936    26.5255 0.0000e+00
      3.440     -0.115     7.5130     95.150    116.300 120.022364    13.1400     0.5699     0.0426     0.2961 1.7914e+02     3.4671      3.373      4.893    26.5431 0.0000e+00
      3.409     -0.115     7.5368     95.523    116.306 120.058272    13.0500     0.5623     0.0426     0.3807 1.8339e+02     3.5426      3.343      4.849    26.5579 0.0000e+00
      3.379     -0.112     7.5678     95.806    116.312 120.099652    13.0500     0.5776     0.0426     0.3807 1.8661e+02     3.5728      3.314      4.806    26.5707 0.0000e+00
      3.350     -0.106     7.6018     95.996    116.323 120.145539    13.0500     0.5814     0.0426     0.3807 1.9308e+02     2.5456      3.285      4.764    26.5823 0.0000e+00
      3.322     -0.097     7.6348     96.103    116.335 120.186169    13.0500     0.5699     0.0426     0.3807 1.9896e+02     2.5758      3.258      4.725    26.5939 0.0000e+00
      3.297     -0.086     7.6630     96.143    116.348 120.218376    13.0500     0.5661     0.0426     0.3807 2.0471e+02     2.4398      3.234      4.690    26.6068 0.0000e+00
      3.276     -0.075     7.6836     96.128    116.362 120.246747    13.1400     0.5814     0.0852     0.3384 2.0789e+02     2.4096      3.213      4.660    26.6218 0.0000e+00
      3.260     -0.064     7.6967     96.071    116.369 120.264848    13.1400     0.5890     0.0852     0.3384 2.0373e+02     2.1075      3.197      4.636    26.6368 0.0000e+00
      3.246     -0.053     7.7037     96.002    116.366 120.271504    13.1400     0.5738     0.0852     0.3384 2.0466e+02     2.1075      3.184      4.617    26.6487 0.0000e+00
      3.235     -0.044     7.7058     95.971    116.355 120.268489    13.1400     0.5738     0.0852     0.3384 2.0087e+02     2.0773      3.173      4.601    26.6569 0.0000e+00
      3.226     -0.035     7.7038     96.005    116.343 120.265003    13.1400     0.5661     0.0426     0.2538 1.9883e+02     2.1679      3.164      4.588    26.6626 0.0000e+00
      3.218     -0.029     7.6986     96.095    116.349 120.278118    13.1400     0.5814     0.0426     0.2538 2.1103e+02     2.5607      3.156      4.577    26.6673 0.0000e+00
      3.211     -0.023     7.6925     96.200    116.346 120.281328    13.1400     0.5661     0.0426     0.2538 2.0975e+02     2.5456      3.150      4.568    26.6715 0.0000e+00
      3.206     -0.019     7.6894     96.292    116.320 120.259485    13.1400     0.5738     0.0426     0.2538 2.0232e+02     2.5607      3.145      4.561    26.6754 0.0000e+00
      3.203     -0.015     7.6917     96.369    116.307 120.248773    13.2300     0.5966     0.0426     0.2115 2.0250e+02     2.5003      3.141      4.556    26.6789 0.0000e+00
      3.200     -0.013     7.6984     96.434    116.323 120.266338    13.2300     0.6195     0.0426     0.2115 2.0785e+02     3.8901      3.139      4.552    26.6820 0.0000e+00
      3.198     -0.012     7.7065     96.462    116.352 120.296862    13.2300     0.6195     0.0426     0.2115 2.0311e+02     4.0260      3.136      4.549    26.6849 0.0000e+00
      3.195     -0.012     7.7135     96.433    116.361 120.306476    13.2300     0.6310     0.0426     0.2115 2.0449e+02     3.9958      3.134      4.545    26.6871 0.0000e+00
      3.193     -0.013     7.7195     96.360    116.344 120.287743    13.1400     0.6348     0.0426     0.2961 2.0184e+02     3.8901      3.131      4.541    26.6884 0.0000e+00
      3.190     -0.015     7.7246     96.270    116.326 120.267673    13.1400     0.6386     0.0426     0.2961 2.0636e+02     5.0381      3.128      4.536    26.6888 0.0000e+00
      3.186     -0.019     7.7269     96.172    116.319 120.256916    13.1400     0.6272     0.0426     0.2961 1.9935e+02     5.1137      3.124      4.531    26.6889 0.0000e+00
      3.181     -0.023     7.7246     96.051    116.322 120.256605    13.1400     0.6272     0.0426     0.2961 2.0241e+02     5.1439      3.119      4.524    26.6889 0.0000e+00
      3.175     -0.028     7.7188     95.903    116.338 120.270656    13.1400     0.6500     0.0426     0.2961 2.0254e+02     5.1439      3.113      4.516    26.6885 0.0000e+00
      3.167     -0.034     7.7117     95.762    116.363 120.294816    13.1400     0.6233     0.0426     0.3384 1.9940e+02     6.5790      3.106      4.505    26.6876 0.0000e+00
      3.159     -0.042     7.7040     95.679    116.384 120.315522    13.1400     0.6233     0.0426     0.3384 1.9875e+02     6.5639      3.097      4.492    26.6863 0.0000e+00
      3.148     -0.050     7.6945     95.668    116.394 120.326297    13.1400     0.6424     0.0426     0.3384 2.0382e+02     6.5035      3.087      4.477    26.6849 0.0000e+00
      3.135     -0.058     7.6828     95.708    116.405 120.338013    13.1400     0.6424     0.0426     0.3384 2.0382e+02     6.5941      3.074      4.458    26.6837 0.0000e+00
      3.118     -0.065     7.6716     95.777    116.416 120.349795    13.1400     0.5509     0.0852     0.2961 2.0307e+02     6.0805      3.057      4.435    26.6830 0.0000e+00
      3.099     -0.070     7.6650     95.858    116.407 120.340782    13.1400     0.5699     0.0852     0.2961 2.1371e+02     6.0050      3.038      4.407    26.6827 0.0000e+00
      3.078     -0.071     7.6642     95.924    116.380 120.312571    13.1400     0.5623     0.0852     0.2961 2.2515e+02     6.0352      3.018      4.378    26.6826 0.0000e+00
      3.057     -0.068     7.6674     95.951    116.340 120.273640    13.1400     0.5738     0.0852     0.2961 2.2544e+02     6.1409      2.997      4.348    26.6828 0.0000e+00
      3.038     -0.061     7.6729     95.926    116.297 120.235611    12.9600     0.6424     0.0000     0.3384 2.3125e+02     4.2224      2.979      4.321    26.6831 0.0000e+00
      3.023     -0.053     7.6793     95.864    116.280 120.226350    12.9600     0.6386     0.0000     0.3384 2.3505e+02     4.1620      2.964      4.300    26.6832 0.0000e+00
      3.012     -0.044     7.6846     95.788    116.284 120.241388    12.9600     0.6272     0.0000     0.3384 2.2525e+02     4.1620      2.953      4.284    26.6835 0.0000e+00
      3.003     -0.036     7.6865     95.720    116.300 120.268733    12.9600     0.6348     0.0000     0.3384 2.2330e+02     4.1318      2.945      4.272    26.6845 0.0000e+00
      2.997     -0.031     7.6843     95.686    116.331 120.309676    13.1400     0.6348     0.0426     0.3384 2.3679e+02     2.8779      2.939      4.263    26.6869 0.0000e+00
      2.991     -0.028     7.6788     95.700    116.366 120.353133    13.1400     0.6157     0.0426     0.3384 2.2276e+02     3.0743      2.933      4.254    26.6905 0.0000e+00
      2.985     -0.028     7.6720     95.765    116.395 120.388689    13.1400     0.6386     0.0426     0.3384 2.1883e+02     3.0290      2.927      4.246    26.6950 0.0000e+00
      2.979     -0.031     7.6660     95.870    116.404 120.401821    13.1400     0.6424     0.0426     0.3384 2.2716e+02     3.0441      2.921      4.237    26.6997 0.0000e+00
      2.971     -0.036     7.6627     95.979    116.395 120.396032    13.1400     0.6500     0.0426     0.3384 2.2603e+02     3.2103      2.914      4.226    26.7038 0.0000e+00
      2.962     -0.043     7.6634     96.049    116.395 120.397783    13.0500     0.6272     0.0852     0.1692 2.2875e+02     3.2707      2.905      4.213    26.7069 0.0000e+00
      2.951     -0.053     7.6683     96.068    116.392 120.395539    13.0500     0.6195     0.0852     0.1692 2.2305e+02     3.1801      2.894      4.197    26.7092 0.0000e+00
      2.937     -0.065     7.6765     96.055    116.379 120.380700    13.0500     0.6424     0.0852     0.1692 2.2647e+02     3.2254      2.880      4.178    26.7109 0.0000e+00
      2.920     -0.078     7.6850     96.037    116.380 120.377314    13.0500     0.6310     0.0852     0.1692 2.3484e+02     2.5154      2.864      4.154    26.7123 0.0000e+00
      2.899     -0.091     7.6904     96.026    116.392 120.384479    13.0500     0.6348     0.0426     0.3384 2.3505e+02     2.5003      2.844      4.124    26.7133 0.0000e+00
      2.874     -0.104     7.6919     96.020    116.390 120.380099    13.0500     0.6348     0.0426     0.3384 2.3571e+02     2.5154      2.818      4.088    26.7134 0.0000e+00
      2.844     -0.114     7.6911     96.015    116.365 120.355006    13.0500     0.6233     0.0426     0.3384 2.5506e+02     2.5305      2.789      4.045    26.7125 0.0000e+00
      2.811     -0.122     7.6898     96.015    116.339 120.330513    13.0500     0.6539     0.0426     0.3384 2.4666e+02     3.2405      2.757      3.998    26.7107 0.0000e+00
      2.777     -0.126     7.6892     96.026    116.328 120.324093    12.9600     0.6157     0.0852     0.3384 2.5796e+02     3.2405      2.723      3.950    26.7088 0.0000e+00
      2.743     -0.126     7.6889     96.048    116.333 120.336034    12.9600     0.6729     0.0852     0.3384 2.7336e+02     3.3160      2.690      3.902    26.7078 0.0000e+00
      2.710     -0.123     7.6884     96.086    116.360 120.371522    12.9600     0.6005     0.0852     0.3384 2.6883e+02     3.2556      2.658      3.855    26.7078 0.0000e+00
      2.678     -0.115     7.6883     96.147    116.392 120.410017    12.9600     0.6348     0.0852     0.3384 2.9077e+02     2.7269      2.626      3.809    26.7089 0.0000e+00
      2.648     -0.104     7.6889     96.220    116.401 120.423776    12.9600     0.6081     0.0852     0.3384 2.8625e+02     2.8326      2.596      3.766    26.7110 0.0000e+00
      2.621     -0.091     7.6903     96.293    116.394 120.420471    13.0500     0.6310     0.0852     0.2538 3.1793e+02     2.7571      2.570      3.728    26.7140 0.0000e+00
      2.599     -0.078     7.6929     96.357    116.374 120.403221    13.0500     0.6386     0.0852     0.2538 3.1347e+02     2.6362      2.549      3.697    26.7173 0.0000e+00
      2.582     -0.064     7.6974     96.395    116.353 120.385428    13.0500     0.6043     0.0852     0.2538 2.8004e+02     2.5003      2.532      3.673    26.7200 0.0000e+00
      2.570     -0.052     7.7029     96.396    116.357 120.392353    13.0500     0.6462     0.0852     0.2538 2.9664e+02     2.4398      2.520      3.655    26.7218 0.0000e+00
      2.560     -0.043     7.7086     96.362    116.366 120.403839    13.0500     0.6348     0.0852     0.2538 2.9981e+02     2.5305      2.510      3.640    26.7233 0.0000e+00
      2.551     -0.036     7.7135     96.306    116.358 120.396946    13.0500     0.6386     0.0852     0.2538 3.1395e+02     2.5758      2.502      3.628    26.7248 0.0000e+00
      2.544     -0.032     7.7163     96.247    116.337 120.373835    13.0500     0.6767     0.0852     0.2538 2.7569e+02     4.6756      2.494      3.618    26.7264 0.0000e+00
      2.536     -0.030     7.7162     96.203    116.315 120.348348    13.0500     0.6958     0.0852     0.2538 3.3047e+02     4.6454      2.487      3.607    26.7277 0.0000e+00
      2.529     -0.029     7.7134     96.176    116.307 120.337691    13.1400     0.6806     0.0852     0.3384 3.3097e+02     4.6605      2.480      3.597    26.7286 0.0000e+00
      2.522     -0.030     7.7088     96.152    116.310 120.339023    13.1400     0.7225     0.0852     0.3384 3.0395e+02     4.6152      2.473      3.587    26.7291 0.0000e+00
      2.515     -0.033     7.7041     96.119    116.312 120.340695    13.1400     0.6615     0.0852     0.3384 2.9051e+02     7.7271      2.466      3.577    26.7287 0.0000e+00
      2.507     -0.037     7.7008     96.077    116.322 120.351155    13.1400     0.6348     0.0852     0.3384 3.1056e+02     7.6969      2.459      3.566    26.7276 0.0000e+00
      2.499     -0.045     7.6988     96.030    116.342 120.373194    13.1400     0.6157     0.0426     0.3807 3.1545e+02     7.7573      2.450      3.554    26.7262 0.0000e+00
      2.488     -0.055     7.6970     95.974    116.363 120.396684    13.1400     0.6081     0.0426     0.3807 3.0230e+02     7.7573      2.439      3.538    26.7254 0.0000e+00
      2.474     -0.068     7.6943     95.899    116.383 120.419890    13.1400     0.6348     0.0426     0.3807 3.3299e+02     5.3856      2.426      3.518    26.7253 0.0000e+00
      2.456     -0.082     7.6909     95.814    116.398 120.436997    13.1400     0.6310     0.0426     0.3807 2.7182e+02     5.3705      2.408      3.493    26.7256 0.0000e+00
      2.433     -0.098     7.6871     95.741    116.402 120.444568    13.1400     0.6233     0.0426     0.3807 3.0740e+02     5.4309      2.386      3.461    26.7263 0.0000e+00
      2.406     -0.112     7.6825     95.695    116.403 120.448621    13.1400     0.6424     0.0426     0.3384 3.2029e+02     5.3554      2.359      3.421    26.7270 0.0000e+00
      2.373     -0.123     7.6764     95.680    116.417 120.466240    13.1400     0.6157     0.0426     0.3384 3.7177e+02     2.9988      2.327      3.375    26.7278 0.0000e+00
      2.337     -0.131     7.6695     95.697    116.432 120.486121    13.1400     0.6424     0.0426     0.3384 3.1717e+02     2.9988      2.292      3.324    26.7289 0.0000e+00
      2.300     -0.134     7.6634     95.758    116.426 120.485561    13.1400     0.6310     0.0426     0.3384 3.4733e+02     2.9535      2.256      3.272    26.7300 0.0000e+00
      2.264     -0.132     7.6596     95.863    116.418 120.484415    13.0500     0.6348     0.0852     0.2115 4.1336e+02     3.0290      2.220      3.220    26.7313 0.0000e+00
      2.229     -0.126     7.6582     95.989    116.416 120.490378    13.0500     0.6272     0.0852     0.2115 3.7690e+02     2.1075      2.186      3.171    26.7326 0.0000e+00
      2.197     -0.115     7.6593     96.123    116.409 120.493041    13.0500     0.6653     0.0852     0.2115 3.4253e+02     2.0924      2.155      3.125    26.7344 0.0000e+00
      2.167     -0.102     7.6639     96.256    116.396 120.489111    13.0500     0.6348     0.0852     0.2115 4.6191e+02     2.0169      2.126      3.083    26.7369 0.0000e+00
      2.142     -0.087     7.6718     96.377    116.366 120.469542    13.0500     0.6500     0.0852     0.3384 4.4924e+02     2.0622      2.101      3.046    26.7400 0.0000e+00
      2.121     -0.072     7.6814     96.478    116.324 120.437115    13.0500     0.6233     0.0852     0.3384 3.9450e+02     1.8356      2.081      3.017    26.7437 0.0000e+00
      2.106     -0.058     7.6916     96.563    116.277 120.399187    13.0500     0.6348     0.0852     0.3384 4.1095e+02     1.7903      2.066      2.996    26.7477 0.0000e+00
      2.095     -0.046     7.7016     96.644    116.230 120.361647    13.0500     0.6577     0.0852     0.3384 4.1417e+02     1.8809      2.055      2.980    26.7521 0.0000e+00
      2.087     -0.036     7.7106     96.724    116.192 120.330488    13.0500     0.6424     0.0852     0.3384 3.8110e+02     1.9111      2.047      2.968    26.7567 0.0000e+00
      2.080     -0.029     7.7181     96.797    116.146 120.289400    13.0500     0.6310     0.0426     0.1269 4.5012e+02     1.6543      2.040      2.959    26.7616 0.0000e+00
      2.075     -0.024     7.7243     96.857    116.070 120.215424    13.0500     0.6462     0.0426     0.1269 3.9673e+02     1.7147      2.035      2.951    26.7663 0.0000e+00
      2.069     -0.021     7.7301     96.900    115.941 120.084834    13.0500     0.6462     0.0426     0.1269 4.2080e+02     1.6241      2.029      2.943    26.7707 0.0000e+00
      2.065     -0.019     7.7360     96.910    115.715 119.854803    13.0500     0.6386     0.0426     0.1269 4.6899e+02     1.5335      2.025      2.937    26.7744 0.0000e+00
      2.060     -0.017     7.7414     96.896    115.334 119.463989    12.8700     0.6310     0.1278     0.1692 3.9364e+02     3.1801      2.020      2.930    26.7772 0.0000e+00
      2.056     -0.017     7.7460     96.885    114.698 118.808177    12.8700     0.6348     0.1278     0.1692 3.8126e+02     3.1649      2.016      2.924    26.7792 0.0000e+00
      2.052     -0.017     7.7492     96.905    113.625 117.700482    12.8700     0.6386     0.1278     0.1692 4.7971e+02     3.2405      2.012      2.919    26.7807 0.0000e+00
      2.048     -0.019     7.7498     96.960    111.827 115.841516    12.8700     0.6348     0.1278     0.1692 3.8434e+02     3.1498      2.008      2.913    26.7823 0.0000e+00
      2.044     -0.021     7.7484     97.039    108.829 112.739557    12.7800     0.6348     0.0426     0.3384 3.5480e+02     3.2405      2.004      2.907    26.7840 0.0000e+00
      2.038     -0.025     7.7473     97.126    103.817 107.551413    12.7800     0.6272     0.0426     0.3384 4.2539e+02     3.2103      1.999      2.899    26.7856 0.0000e+00
      2.032     -0.031     7.7487     97.217     95.424  98.859573    12.7800     0.6691     0.0426     0.3384 3.6323e+02     3.2103      1.993      2.890    26.7870 0.0000e+00
      2.024     -0.039     7.7529     97.302     81.398  84.332212    12.7800     0.6500     0.0426     0.3384 3.8526e+02     3.2556      1.985      2.879    26.7884 0.0000e+00
      2.014     -0.050     7.7590     97.355     58.016  60.109368    12.7800     0.6195     0.0852     0.2115 4.1815e+02     2.4701      1.975      2.865    26.7900 0.0000e+00
      2.002     -0.062     7.7657     97.362     19.041  19.729618    12.7800     0.6539     0.0852     0.2115 3.9458e+02     2.4852      1.963      2.847    26.7917 0.0000e+00
      1.985     -0.076     7.7728     97.335    -45.933 -47.582975    12.7800     0.6310     0.0852     0.2115 3.6529e+02     2.5607      1.947      2.824    26.7933 0.0000e+00
      1.964     -0.090     7.7795     97.291   -154.229-159.774434    12.7800     0.6424     0.0852     0.2115 4.5041e+02     2.5305      1.926      2.794    26.7941 0.0000e+00
      1.938     -0.103     7.7839     97.221   -334.742-346.776485    12.7800     0.5852     0.0852     0.2115 4.2650e+02     2.7873      1.901      2.757    26.7936 0.0000e+00
      1.908     -0.115     7.7847     97.121   -447.593-463.683492    12.6900     0.5585     0.0426     0.2115 3.8019e+02     2.6966      1.871      2.714    26.7919 0.0000e+00
      1.875     -0.124     7.7829     97.017   -334.822-346.861799    12.6900     0.5699     0.0426     0.2115 4.2125e+02     2.7873      1.839      2.668    26.7897 0.0000e+00
      1.842     -0.130     7.7797     96.938   -154.345-159.899800    12.6900     0.5356     0.0426     0.2115 4.9949e+02     2.8024      1.806      2.620    26.7876 0.0000e+00
      1.807     -0.133     7.7745     96.892    -46.053 -47.715812    12.6900     0.5585     0.0426     0.2115 4.2401e+02     2.0169      1.772      2.570    26.7860 0.0000e+00
      1.772     -0.131     7.7667     96.864     18.920  19.593894    12.7800     0.5623     0.0426     0.2538 5.1582e+02     2.1075      1.738      2.520    26.7852 0.0000e+00
      1.737     -0.126     7.7583     96.833     57.903  59.982574    12.7800     0.5890     0.0426     0.2538 4.8222e+02     2.0924      1.703      2.471    26.7851 0.0000e+00
      1.703     -0.117     7.7518     96.807     81.282  84.208539    12.7800     0.5814     0.0426     0.2538 5.0026e+02     2.1075      1.670      2.422    26.7854 0.0000e+00
      1.672     -0.103     7.7479     96.809     95.300  98.740050    12.7800     0.5776     0.0426     0.2538 5.3967e+02     2.0471      1.640      2.378    26.7862 0.0000e+00
      1.646     -0.087     7.7454     96.845    103.715 107.468178    12.7800     0.5623     0.0426     0.3384 4.7236e+02     1.8658      1.614      2.341    26.7876 0.0000e+00
      1.626     -0.071     7.7427     96.911    108.752 112.696421    12.7800     0.5814     0.0426     0.3384 5.4901e+02     1.9262      1.595      2.313    26.7897 0.0000e+00
      1.613     -0.055     7.7401     97.018    111.766 115.826979    12.7800     0.5699     0.0426     0.3384 4.8579e+02     1.8960      1.581      2.294    26.7928 0.0000e+00
      1.603     -0.042     7.7397     97.180    113.583 117.714673    12.7800     0.5852     0.0426     0.3384 5.2010e+02     2.0018      1.572      2.280    26.7969 0.0000e+00
      1.596     -0.032     7.7419     97.386    114.677 118.850884    12.7800     0.5585     0.0426     0.3384 5.3164e+02     1.8507      1.565      2.270    26.8016 0.0000e+00
      1.590     -0.026     7.7465     97.600    115.340 119.538604    12.6900     0.5776     0.0852     0.1269 4.3530e+02     1.8658      1.559      2.261    26.8060 0.0000e+00
      1.585     -0.022     7.7546     97.784    115.755 119.969226    12.6900     0.5509     0.0852     0.1269 4.4992e+02     1.8507      1.554      2.254    26.8095 0.0000e+00
      1.580     -0.020     7.7672     97.905    116.022 120.245579    12.6900     0.5776     0.0852     0.1269 5.5188e+02     1.3522      1.549      2.247    26.8119 0.0000e+00
      1.576     -0.019     7.7835     97.941    116.203 120.433357    12.6900     0.5699     0.0852     0.1269 4.2006e+02     1.5032      1.545      2.241    26.8132 0.0000e+00
      1.571     -0.019     7.8005     97.898    116.333 120.568630    12.7800     0.5661     0.0426     0.1692 4.9733e+02     1.3371      1.540      2.234    26.8137 0.0000e+00
      1.566     -0.020     7.8152     97.807    116.409 120.647465    12.7800     0.5509     0.0426     0.1692 4.8033e+02     1.3975      1.535      2.227    26.8137 0.0000e+00
      1.561     -0.020     7.8249     97.699    116.430 120.668881    12.7800     0.5852     0.0426     0.1692 5.3967e+02     1.2615      1.530      2.220    26.8137 0.0000e+00
      1.556     -0.022     7.8278     97.603    116.427 120.664592    12.7800     0.5699     0.0426     0.1692 4.7742e+02     1.3220      1.525      2.213    26.8138 0.0000e+00
      1.550     -0.023     7.8243     97.536    116.427 120.663460    12.7800     0.5699     0.0426     0.3384 5.4308e+02     1.3673      1.520      2.205    26.8140 0.0000e+00
      1.545     -0.026     7.8170     97.486    116.419 120.653182    12.7800     0.5738     0.0426     0.3384 5.4485e+02     1.2918      1.515      2.197    26.8140 0.0000e+00
      1.538     -0.030     7.8084     97.426    116.390 120.621015    12.7800     0.5852     0.0426     0.3384 4.2089e+02     1.3522      1.508      2.188    26.8139 0.0000e+00
      1.531     -0.036     7.8008     97.331    116.346 120.572384    12.7800     0.5776     0.0426     0.3384 5.0211e+02     1.5335      1.501      2.178    26.8137 0.0000e+00
      1.522     -0.046     7.7954     97.199    116.303 120.526324    12.6900     0.5509     0.1278     0.3384 4.4739e+02     1.5788      1.493      2.165    26.8132 0.0000e+00
      1.511     -0.058     7.7916     97.059    116.296 120.518563    12.6900     0.5852     0.1278     0.3384 4.4787e+02     1.6543      1.482      2.150    26.8123 0.0000e+00
      1.497     -0.074     7.7870     96.959    116.328 120.551030    12.6900     0.5547     0.1278     0.3384 4.6594e+02     1.6241      1.468      2.129    26.8112 0.0000e+00
      1.477     -0.091     7.7796     96.938    116.360 120.584376    12.6900     0.5776     0.1278     0.3384 4.3521e+02     1.3371      1.449      2.102    26.8102 0.0000e+00
      1.452     -0.109     7.7691     97.007    116.379 120.603489    12.6900     0.5432     0.1278     0.3384 6.0331e+02     1.2464      1.424      2.065    26.8095 0.0000e+00
      1.420     -0.125     7.7579     97.149    116.385 120.609466    12.6900     0.5623     0.0426     0.3384 4.7732e+02     1.3371      1.393      2.020    26.8091 0.0000e+00
      1.383     -0.138     7.7500     97.322    116.386 120.611902    12.6900     0.5661     0.0426     0.3384 4.3682e+02     1.3371      1.356      1.967    26.8088 0.0000e+00
      1.344     -0.146     7.7484     97.486    116.395 120.623448    12.6900     0.5203     0.0426     0.3384 7.2649e+02     1.3220      1.318      1.911    26.8086 0.0000e+00
      1.303     -0.150     7.7539     97.611    116.397 120.627181    12.6900     0.5661     0.0426     0.3384 4.1924e+02     1.3673      1.278      1.854    26.8085 0.0000e+00
      1.263     -0.148     7.7652     97.689    116.395 120.628097    12.6000     0.5356     0.0426     0.3384 4.5425e+02     1.3522      1.239      1.797    26.8086 0.0000e+00
      1.224     -0.141     7.7790     97.735    116.406 120.642444    12.6000     0.5356     0.0426     0.3384 6.5724e+02     1.3673      1.200      1.741    26.8091 0.0000e+00
      1.187     -0.130     7.7920     97.768    116.412 120.654043    12.6000     0.4479     0.0426     0.3384 5.6401e+02     1.0954      1.164      1.688    26.8098 0.0000e+00
      1.153     -0.115     7.8018     97.801    116.410 120.657986    12.6000     0.4822     0.0426     0.3384 8.0794e+02     1.0349      1.131      1.640    26.8107 0.0000e+00
      1.125     -0.098     7.8079     97.837    116.399 120.653326    12.5100     0.4517     0.0426     0.1692 6.8718e+02     1.0652      1.103      1.600    26.8118 0.0000e+00
      1.103     -0.080     7.8114     97.872    116.368 120.624817    12.5100     0.4440     0.0426     0.1692 7.7156e+02     1.1256      1.082      1.569    26.8134 0.0000e+00
      1.086     -0.063     7.8137     97.904    116.321 120.578859    12.5100     0.4593     0.0426     0.1692 7.6805e+02     0.9292      1.066      1.545    26.8156 0.0000e+00
      1.074     -0.047     7.8160     97.933    116.284 120.541205    12.5100     0.4593     0.0426     0.1692 7.5958e+02     0.8235      1.054      1.528    26.8184 0.0000e+00
      1.066     -0.034     7.8185     97.952    116.270 120.525817    12.5100     0.4517     0.0426     0.1692 5.4131e+02     0.9443      1.045      1.516    26.8209 0.0000e+00
      1.059     -0.024     7.8210     97.957    116.267 120.520591    12.4200     0.4593     0.0000     0.2115 7.9608e+02     0.9443      1.039      1.507    26.8226 0.0000e+00
      1.055     -0.017     7.8234     97.947    116.280 120.532133    12.4200     0.4135     0.0000     0.2115 5.0881e+02     0.8839      1.035      1.501    26.8235 0.0000e+00
      1.052     -0.011     7.8257     97.916    116.315 120.567522    12.4200     0.3754     0.0000     0.2115 9.3679e+02     0.8537      1.032      1.497    26.8238 0.0000e+00
      1.051     -0.008     7.8273     97.857    116.339 120.592186    12.4200     0.4288     0.0000     0.2115 4.6332e+02     0.8688      1.031      1.495    26.8236 0.0000e+00
      1.050     -0.005     7.8278     97.770    116.354 120.608704    12.6000     0.3868     0.0426     0.2961 9.1765e+02     0.8990      1.030      1.494    26.8229 0.0000e+00
      1.050     -0.003     7.8271     97.666    116.385 120.641483    12.6000     0.4173     0.0426     0.2961 8.0251e+02     0.8990      1.030      1.493    26.8220 0.0000e+00
      1.049     -0.002     7.8247     97.558    116.413 120.671259    12.6000     0.4021     0.0426     0.2961 8.5045e+02     0.8083      1.029      1.492    26.8215 0.0000e+00
      1.048     -0.002     7.8200     97.454    116.426 120.685970    12.6000     0.4212     0.0426     0.2961 5.4414e+02     0.8537      1.028      1.491    26.8214 0.0000e+00
      1.048     -0.002     7.8130     97.363    116.427 120.689537    12.6000     0.3945     0.0426     0.3384 8.1093e+02     0.8990      1.028      1.491    26.8216 0.0000e+00
      1.048     -0.002     7.8047     97.299    116.417 120.682913    12.6000     0.4021     0.0426     0.3384 5.1236e+02     0.5515      1.028      1.490    26.8220 0.0000e+00
      1.048     -0.003     7.7960     97.277    116.400 120.672333    12.6000     0.4021     0.0426     0.3384 6.9544e+02     0.5969      1.028      1.490    26.8224 0.0000e+00
      1.047     -0.005     7.7877     97.311    116.381 120.658975    12.6000     0.3906     0.0426     0.3384 5.1080e+02     0.6573      1.027      1.490    26.8229 0.0000e+00
      1.046     -0.007     7.7802     97.410    116.369 120.651282    12.3300     0.3868     0.0852     0.2961 7.4180e+02     0.6573      1.026      1.488    26.8238 0.0000e+00
      1.044     -0.010     7.7748     97.570    116.371 120.655204    12.3300     0.4250     0.0852     0.2961 1.0188e+03     0.7026      1.024      1.486    26.8256 0.0000e+00
      1.041     -0.013     7.7727     97.763    116.379 120.663784    12.3300     0.4135     0.0852     0.2961 6.2371e+02     0.6875      1.022      1.481    26.8285 0.0000e+00
      1.038     -0.015     7.7750     97.936    116.386 120.671310    12.3300     0.4135     0.0852     0.2961 6.7007e+02     0.6724      1.018      1.476    26.8315 0.0000e+00
      1.033     -0.018     7.7826     98.048    116.386 120.671786    12.3300     0.3945     0.0852     0.2961 8.4492e+02     0.6422      1.013      1.469    26.8334 0.0000e+00
      1.028     -0.021     7.7953     98.104    116.375 120.661340    12.4200     0.3639     0.0426     0.2538 6.1871e+02     0.6422      1.008      1.462    26.8343 0.0000e+00
      1.023     -0.024     7.8107     98.128    116.365 120.653188    12.4200     0.3411     0.0426     0.2538 7.5383e+02     0.6271      1.003      1.454    26.8346 0.0000e+00
      1.016     -0.028     7.8245     98.131    116.365 120.657157    12.4200     0.3639     0.0426     0.2538 6.6298e+02     0.6875      0.997      1.445    26.8348 0.0000e+00
      1.009     -0.033     7.8334     98.120    116.361 120.658305    12.4200     0.3601     0.0426     0.2538 8.2910e+02     0.6120      0.990      1.435    26.8350 0.0000e+00
      1.001     -0.041     7.8378     98.101    116.367 120.668940    12.5100     0.3296     0.0852     0.2115 7.9332e+02     0.6120      0.982      1.424    26.8353 0.0000e+00
      0.992     -0.051     7.8396     98.092    116.395 120.697900    12.5100     0.3334     0.0852     0.2115 6.2060e+02     0.7026      0.972      1.411    26.8361 0.0000e+00
      0.979     -0.061     7.8396     98.112    116.419 120.718901    12.5100     0.3372     0.0852     0.2115 6.7519e+02     0.6422      0.960      1.392    26.8377 0.0000e+00
      0.962     -0.071     7.8384     98.161    116.443 120.739544    12.5100     0.3449     0.0852     0.2115 8.1783e+02     0.6422      0.943      1.368    26.8401 0.0000e+00
      0.940     -0.080     7.8366     98.218    116.472 120.765333    12.6900     0.3411     0.1278     0.2115 7.6688e+02     0.6724      0.922      1.338    26.8418 0.0000e+00
      0.916     -0.085     7.8359     98.261    116.482 120.773140    12.6900     0.3563     0.1278     0.2115 8.5955e+02     0.5969      0.898      1.303    26.8418 0.0000e+00
      0.891     -0.085     7.8377     98.271    116.473 120.763046    12.6900     0.3449     0.1278     0.2115 4.7940e+02     0.7177      0.873      1.267    26.8405 0.0000e+00
      0.867     -0.080     7.8419     98.242    116.460 120.750362    12.6900     0.3525     0.1278     0.2115 8.7045e+02     0.6120      0.850      1.233    26.8386 0.0000e+00
      0.845     -0.072     7.8467     98.178    116.452 120.743708    12.6900     0.3372     0.1278     0.2115 1.1586e+03     0.7177      0.829      1.203    26.8368 0.0000e+00
      0.828     -0.062     7.8502     98.092    116.450 120.745312    12.4200     0.3334     0.0426     0.2538 1.3807e+03     0.6422      0.812      1.178    26.8357 0.0000e+00
      0.814     -0.051     7.8511     98.013    116.453 120.751599    12.4200     0.3563     0.0426     0.2538 1.4271e+03     0.6422      0.799      1.159    26.8352 0.0000e+00
      0.804     -0.041     7.8488     97.969    116.447 120.750244    12.4200     0.3449     0.0426     0.2538 7.9574e+02     0.6422      0.788      1.144    26.8355 0.0000e+00
      0.796     -0.033     7.8436     97.977    116.435 120.742886    12.4200     0.3563     0.0426     0.2538 9.3354e+02     0.7026      0.780      1.132    26.8363 0.0000e+00
      0.789     -0.026     7.8365     98.036    116.433 120.745568    12.5100     0.3296     0.0852     0.2115 8.5545e+02     0.6573      0.773      1.122    26.8376 0.0000e+00
      0.783     -0.022     7.8300     98.127    116.433 120.751002    12.5100     0.3449     0.0852     0.2115 9.2929e+02     0.7026      0.768      1.114    26.8393 0.0000e+00
      0.779     -0.019     7.8262     98.230    116.432 120.754638    12.5100     0.3372     0.0852     0.2115 6.0213e+02     0.6422      0.764      1.108    26.8412 0.0000e+00
      0.775     -0.016     7.8265     98.327    116.444 120.771447    12.5100     0.2800     0.0852     0.2115 9.8438e+02     0.6573      0.760      1.102    26.8433 0.0000e+00
      0.771     -0.015     7.8309     98.400    116.454 120.785909    12.5100     0.2800     0.0426     0.1269 1.1468e+03     0.6422      0.756      1.097    26.8455 0.0000e+00
      0.768     -0.014     7.8379     98.442    116.441 120.775875    12.5100     0.3220     0.0426     0.1269 6.8494e+02     0.6724      0.753      1.092    26.8479 0.0000e+00
      0.764     -0.013     7.8457     98.467    116.419 120.756674    12.5100     0.2686     0.0426     0.1269 1.0414e+03     0.6422      0.749      1.087    26.8500 0.0000e+00
      0.761     -0.013     7.8533     98.492    116.406 120.745188    12.5100     0.2876     0.0426     0.1269 1.4901e+03     0.8386      0.746      1.082    26.8519 0.0000e+00
      0.758     -0.014     7.8589     98.523    116.397 120.736355    12.3300     0.2800     0.0000     0.2115 1.2119e+03     0.9443      0.743      1.078    26.8534 0.0000e+00
      0.755     -0.016     7.8620     98.566    116.386 120.725820    12.3300     0.2800     0.0000     0.2115 6.1336e+02     0.8537      0.740      1.074    26.8549 0.0000e+00
      0.751     -0.017     7.8638     98.625    116.379 120.720775    12.3300     0.2800     0.0000     0.2115 6.4283e+02     0.8688      0.737      1.068    26.8563 0.0000e+00
      0.746     -0.019     7.8657     98.704    116.385 120.729876    12.3300     0.3525     0.0000     0.2115 8.8399e+02     0.6422      0.732      1.061    26.8572 0.0000e+00
      0.740     -0.021     7.8681     98.789    116.413 120.763551    12.3300     0.3525     0.0000     0.2115 8.7216e+02     0.6724      0.726      1.053    26.8576 0.0000e+00
      0.734     -0.024     7.8714     98.853    116.470 120.826780    12.3300     0.3449     0.0852     0.2538 7.5088e+02     0.5515      0.720      1.044    26.8580 0.0000e+00
      0.728     -0.028     7.8761     98.881    116.524 120.886415    12.3300     0.3716     0.0852     0.2538 7.0748e+02     0.5817      0.714      1.036    26.8589 0.0000e+00
      0.722     -0.034     7.8822     98.879    116.543 120.908350    12.3300     0.3296     0.0852     0.2538 1.2342e+03     0.6875      0.708      1.028    26.8605 0.0000e+00
      0.715     -0.043     7.8887     98.854    116.543 120.910435    12.3300     0.3372     0.0852     0.2538 9.1745e+02     0.5666      0.701      1.017    26.8624 0.0000e+00
      0.705     -0.054     7.8935     98.809    116.538 120.907231    12.4200     0.3716     0.0426     0.0846 1.3534e+03     0.5969      0.691      1.002    26.8642 0.0000e+00
      0.690     -0.068     7.8956     98.768    116.519 120.891881    12.4200     0.3563     0.0426     0.0846 6.2970e+02     0.6573      0.677      0.982    26.8655 0.0000e+00
      0.671     -0.084     7.8953     98.749    116.488 120.864294    12.4200     0.2876     0.0426     0.0846 7.9990e+02     0.6422      0.658      0.955    26.8664 0.0000e+00
      0.647     -0.101     7.8932     98.743    116.454 120.833116    12.4200     0.2876     0.0426     0.0846 1.0292e+03     0.6875      0.635      0.921    26.8672 0.0000e+00
      0.619     -0.119     7.8894     98.729    116.433 120.816038    12.3300     0.2876     0.0426     0.1692 5.5188e+02     0.6271      0.607      0.881    26.8683 0.0000e+00
      0.587     -0.138     7.8859     98.698    116.430 120.818508    12.3300     0.2991     0.0426     0.1692 5.3710e+02     0.6120      0.575      0.834    26.8700 0.0000e+00
      0.550     -0.156     7.8841     98.683    116.443 120.837185    12.3300     0.2648     0.0426     0.1692 5.7878e+02     0.6120      0.539      0.782    26.8719 0.0000e+00
      0.508     -0.174     7.8834     98.708    116.468 120.869047    12.3300     0.2876     0.0426     0.1692 3.9647e+02     0.6120      0.498      0.723    26.8738 0.0000e+00
      0.461     -0.191     7.8819     98.764    116.493 120.900589    12.3300     0.2762     0.0426     0.1692 4.2687e+02     0.5817      0.452      0.656    26.8758 0.0000e+00
      0.408     -0.204     7.8792     98.836    116.513 120.926220    12.0600     0.2686     0.0426     0.1269 1.1026e+03     0.7026      0.400      0.581    26.8779 0.0000e+00
      0.352     -0.213     7.8777     98.914    116.528 120.944774    12.0600     0.3411     0.0426     0.1269 1.0445e+03     0.5666      0.345      0.500    26.8802 0.0000e+00
      0.293     -0.217     7.8793     98.992    116.534 120.953196    12.0600     0.3296     0.0426     0.1269 9.5696e+02     0.6120      0.287      0.416    26.8827 0.0000e+00
      0.234     -0.215     7.8834     99.061    116.525 120.945732    12.0600     0.3525     0.0426     0.1269 1.3379e+03     0.5817      0.230      0.333    26.8852 0.0000e+00
      0.178     -0.208     7.8889     99.111    116.498 120.920392    12.1500     0.3563     0.0000     0.1269 1.5012e+03     0.5515      0.175      0.254    26.8872 0.0000e+00
      0.126     -0.198     7.8949     99.124    116.474 120.896422    12.1500    -0.1472     0.0000     0.1269 1.5358e+03     1.3522      0.124      0.179    26.8887 0.0000e+00
      0.077     -0.187     7.9010     99.070    116.466 120.889436    12.1500    -0.1511     0.0000     0.1269 1.6145e+03     1.3220      0.075      0.109    26.8898 0.0000e+00
      0.031     -0.175     7.9064     98.906    116.471 120.895569    12.1500    -0.1320     0.0000     0.1269 1.5172e+03     1.2615      0.030      0.044    26.8906 0.0000e+00
     -0.011     -0.166     7.9103     98.570    116.481 120.906457    12.0600    -0.1434     0.0426     0.3384 1.4950e+03     1.3673     -0.011     -0.015    26.8913 0.0000e+00
     -0.050     -0.157     7.9112     97.992    116.491 120.917001    12.0600     0.5776     0.0426     0.3384 1.6361e+03    -4.7508     -0.049     -0.071    26.8920 0.0000e+00
     -0.089     -0.149     7.9069     97.111    116.496 120.922011    12.0600     0.5776     0.0426     0.3384 1.6019e+03    -4.7206     -0.087     -0.126    26.8925 0.0000e+00
     -0.126     -0.140     7.8937     95.898    116.490 120.914822    12.0600     0.5776     0.0426     0.3384 1.6583e+03    -4.7508     -0.123     -0.179    26.8928 0.0000e+00
     -0.163     -0.131     7.8668     94.396    116.470 120.893517     9.4500     0.5661    -0.5538    -1.0152 1.5857e+03    -4.8112     -0.159     -0.231    26.8930 0.0000e+00
     -0.196     -0.122     7.8207     92.741    116.427 120.848414     9.4500     0.1732    -0.5538    -1.0152 1.5159e+03     1.8356     -0.192     -0.279    26.8931 0.0000e+00
     -0.225     -0.112     7.7504     91.156    116.334 120.751483     9.4500     0.1770    -0.5538    -1.0152 1.4827e+03     1.8507     -0.221     -0.320    26.8931 0.0000e+00
     -0.251     -0.103     7.6536     89.920    116.170 120.580875     9.4500     0.1427    -0.5538    -1.0152 1.5005e+03     1.9413     -0.246     -0.356    26.8930 0.0000e+00
     -0.274     -0.095     7.5337     89.247    115.899 120.299097     9.4500     0.1427    -0.5538    -1.0152 1.4442e+03     1.8205     -0.269     -0.389    26.8927 0.0000e+00
     -0.296     -0.088     7.4017     89.167    115.425 119.807003     0.0000    -1.2077    -3.0246    11.5479 1.4153e+03     8.9507     -0.290     -0.421    26.8924 0.0000e+00
     -0.317     -0.081     7.2753     89.566    114.583 118.933361     0.0000    -1.1925    -3.0246    11.5479 1.4049e+03     8.9960     -0.311     -0.451    26.8921 0.0000e+00
     -0.338     -0.075     7.1766     90.318    113.117 117.411191     0.0000    -1.2039    -3.0246    11.5479 1.2840e+03     8.9356     -0.332     -0.480    26.8920 0.0000e+00
     -0.357     -0.067     7.1230     91.320    110.620 114.820580     0.0000    -1.2077    -3.0246    11.5479 1.1048e+03     9.0414     -0.350     -0.508    26.8918 0.0000e+00
     -0.373     -0.059     7.1166     92.499    106.435 110.476698     0.0000     1.3710    -2.4708     3.1725 9.6888e+02    -6.8808     -0.366     -0.530    26.8917 0.0000e+00
     -0.385     -0.051     7.1485     93.749     99.450 103.227179     0.0000     1.3520    -2.4708     3.1725 9.6280e+02    -6.9866     -0.378     -0.548    26.8916 0.0000e+00
     -0.395     -0.043     7.2085     94.896     87.804  91.138817     0.0000     1.3787    -2.4708     3.1725 7.4148e+02    -6.8959     -0.388     -0.562    26.8918 0.0000e+00
     -0.403     -0.036     7.2885     95.803     71.611  74.330669     0.0000     1.3710    -2.4708     3.1725 5.1470e+02    -6.9261     -0.395     -0.572    26.8920 0.0000e+00
     -0.408     -0.032     7.3826     96.436     56.031  58.159070     0.0000    -0.7996     4.7286   -14.5089 4.3682e+02     4.4792     -0.400     -0.581    26.8923 0.0000e+00
     -0.413     -0.029     7.4825     96.810     46.202  47.956774     0.0000    -0.8224     4.7286   -14.5089 2.0889e+02     4.4188     -0.405     -0.587    26.8924 0.0000e+00
     -0.416     -0.028     7.5743     96.935     43.039  44.673974     0.0000    -0.8072     4.7286   -14.5089 1.2867e+02     4.4188     -0.408     -0.592    26.8925 0.0000e+00
     -0.418 -9.990e-29     7.6469 -9.990e-29 -9.990e-29 -9.990e-29     0.0000 -9.990e-29     4.7286   -14.5089 1.5197e+02 -9.990e-29     -0.410     -0.595    26.8926 0.0000e+00
     -0.420 -9.990e-29     7.6978 -9.990e-29 -9.990e-29 -9.990e-29     0.0000 -9.990e-29     4.7286   -14.5089 1.4867e+02 -9.990e-29     -0.412     -0.597    26.8924 0.0000e+00
     -0.421 -9.990e-29     7.7279 -9.990e-29 -9.990e-29 -9.990e-29     0.0000 -9.990e-29    -0.6390     9.3060 1.3862e+02 -9.990e-29     -0.413     -0.599    26.8920 0.0000e+00
     -0.421 -9.990e-29     7.7380 -9.990e-29 -9.990e-29 -9.990e-29     0.0000 -9.990e-29    -0.6390     9.3060 1.3041e+02 -9.990e-29     -0.413     -0.599    26.8917 0.0000e+00
