* Sea-Bird SBE19plus  Data File:
* FileName = C:\DATA\081519_fcr50_0000_0001.hex
* Software version 2.8.0.119 SB_Terminal.dll
* Temperature SN = 7809
* Conductivity SN = 7809
* System UpLoad Time = Aug 15 2019 01:05:53
* <ApplicationData>
* <Seaterm232>
* <SoftwareVersion>2.8.0.119</SoftwareVersion>
* <BuildDate>07-Nov-2018</BuildDate>
* </Seaterm232>
* </ApplicationData>
* cast   1 14 Aug 2019 15:01:52 samples 1 to 931, avg = 1, stop = mag switch
# nquan = 16
# nvalues = 701                         
# units = specified
# name 0 = depFM: Depth [fresh water, m]
# name 1 = dz/dtM: Descent Rate [m/s]
# name 2 = sbeox0Mg/L: Oxygen, SBE 43 [mg/l]
# name 3 = sbeox0PS: Oxygen, SBE 43 [% saturation]
# name 4 = specc: Specific Conductance [uS/cm]
# name 5 = c0uS/cm: Conductivity [uS/cm]
# name 6 = flECO-AFL: Fluorescence, WET Labs ECO-AFL/FL [mg/m^3]
# name 7 = ph: pH
# name 8 = orp: Oxidation Reduction Potential [mV]
# name 9 = par/sat/log: PAR/Logarithmic, Satlantic
# name 10 = turbWETntu0: Turbidity, WET Labs ECO [NTU]
# name 11 = prdM: Pressure, Strain Gauge [db]
# name 12 = prdE: Pressure, Strain Gauge [psi]
# name 13 = tv290C: Temperature [ITS-90, deg C]
# name 14 = density00: Density [density, kg/m^3]
# name 15 = flag:  0.000e+00
# span 0 =     -0.627,      9.610       
# span 1 =     -0.366,      0.292       
# span 2 =     0.1731,    11.3441       
# span 3 =      1.622,    142.455       
# span 4 =      0.917,     69.041       
# span 5 =   1.018065,  53.360324       
# span 6 =    -0.1091,     9.5570       
# span 7 =      6.846,      9.399       
# span 8 =  -873.1131,   834.2145       
# span 9 = 1.2336e-01, 3.3560e+02       
# span 10 =    -0.6013,    45.3643      
# span 11 =     -0.617,      9.425      
# span 12 =     -0.896,     13.669      
# span 13 =    11.7846,    30.5540      
# span 14 =   995.4813,   999.5873      
# span 15 = 0.0000e+00, 0.0000e+00      
# interval = seconds: 0.25
# start_time = Aug 14 2019 15:01:52 [Instrument's time stamp, header]
# bad_flag = -9.990e-29
# <Sensors count="9" >
#   <sensor Channel="1" >
#     <!-- Count, Temperature -->
#     <TemperatureSensor SensorID="58" >
#       <SerialNumber>7809</SerialNumber>
#       <CalibrationDate>24-Mar-19</CalibrationDate>
#       <A0>1.21792325e-003</A0>
#       <A1>2.81669265e-004</A1>
#       <A2>-1.60333336e-006</A2>
#       <A3>1.98414625e-007</A3>
#       <Slope>1.00000000</Slope>
#       <Offset>0.0000</Offset>
#     </TemperatureSensor>
#   </sensor>
#   <sensor Channel="2" >
#     <!-- Frequency 0, Conductivity -->
#     <ConductivitySensor SensorID="3" >
#       <SerialNumber>7809</SerialNumber>
#       <CalibrationDate>24-Mar-19</CalibrationDate>
#       <UseG_J>1</UseG_J>
#       <!-- Cell const and series R are applicable only for wide range sensors. -->
#       <SeriesR>0.0000</SeriesR>
#       <CellConst>2000.0000</CellConst>
#       <ConductivityType>0</ConductivityType>
#       <Coefficients equation="0" >
#         <A>0.00000000e+000</A>
#         <B>0.00000000e+000</B>
#         <C>0.00000000e+000</C>
#         <D>0.00000000e+000</D>
#         <M>0.0</M>
#         <CPcor>-9.57000000e-008</CPcor>
#       </Coefficients>
#       <Coefficients equation="1" >
#         <G>-1.00589325e+000</G>
#         <H>1.26816302e-001</H>
#         <I>-1.51560448e-004</I>
#         <J>2.67137274e-005</J>
#         <CPcor>-9.57000000e-008</CPcor>
#         <CTcor>3.2500e-006</CTcor>
#         <!-- WBOTC not applicable unless ConductivityType = 1. -->
#         <WBOTC>0.00000000e+000</WBOTC>
#       </Coefficients>
#       <Slope>1.00000000</Slope>
#       <Offset>0.00000</Offset>
#     </ConductivitySensor>
#   </sensor>
#   <sensor Channel="3" >
#     <!-- Count, Pressure, Strain Gauge -->
#     <PressureSensor SensorID="46" >
#       <SerialNumber>7809</SerialNumber>
#       <CalibrationDate>11-Mar-19</CalibrationDate>
#       <PA0>4.56561833e-002</PA0>
#       <PA1>4.85095118e-004</PA1>
#       <PA2>-2.88327090e-012</PA2>
#       <PTEMPA0>-5.48784562e+001</PTEMPA0>
#       <PTEMPA1>5.53756816e+001</PTEMPA1>
#       <PTEMPA2>-5.86727098e-001</PTEMPA2>
#       <PTCA0>5.25246745e+005</PTCA0>
#       <PTCA1>1.22304214e+001</PTCA1>
#       <PTCA2>-3.56745036e-001</PTCA2>
#       <PTCB0>2.51668750e+001</PTCB0>
#       <PTCB1>3.75000000e-004</PTCB1>
#       <PTCB2>0.00000000e+000</PTCB2>
#       <Offset>0.000000</Offset>
#     </PressureSensor>
#   </sensor>
#   <sensor Channel="4" >
#     <!-- A/D voltage 0, Oxygen, SBE 43 -->
#     <OxygenSensor SensorID="38" >
#       <SerialNumber>0434</SerialNumber>
#       <CalibrationDate>13-Apr-19</CalibrationDate>
#       <Use2007Equation>1</Use2007Equation>
#       <CalibrationCoefficients equation="0" >
#         <!-- Coefficients for Owens-Millard equation. -->
#         <Boc>0.0000</Boc>
#         <Soc>0.0000e+000</Soc>
#         <offset>0.0000</offset>
#         <Pcor>0.00e+000</Pcor>
#         <Tcor>0.0000</Tcor>
#         <Tau>0.0</Tau>
#       </CalibrationCoefficients>
#       <CalibrationCoefficients equation="1" >
#         <!-- Coefficients for Sea-Bird equation - SBE calibration in 2007 and later. -->
#         <Soc>4.2007e-001</Soc>
#         <offset>-0.6109</offset>
#         <A>-4.3656e-003</A>
#         <B> 1.7017e-004</B>
#         <C>-2.5341e-006</C>
#         <D0> 2.5826e+000</D0>
#         <D1> 1.92634e-004</D1>
#         <D2>-4.64803e-002</D2>
#         <E> 3.6000e-002</E>
#         <Tau20> 1.1800</Tau20>
#         <H1>-3.3000e-002</H1>
#         <H2> 5.0000e+003</H2>
#         <H3> 1.4500e+003</H3>
#       </CalibrationCoefficients>
#     </OxygenSensor>
#   </sensor>
#   <sensor Channel="5" >
#     <!-- A/D voltage 1, PAR/Logarithmic, Satlantic -->
#     <PARLog_SatlanticSensor SensorID="76" >
#       <SerialNumber>1122</SerialNumber>
#       <CalibrationDate>08-May-2019</CalibrationDate>
#       <a0>9.7456e-001</a0>
#       <a1>8.1640e-001</a1>
#       <Im>1.3589e+000</Im>
#       <Multiplier>1.0000e+000</Multiplier>
#     </PARLog_SatlanticSensor>
#   </sensor>
#   <sensor Channel="6" >
#     <!-- A/D voltage 2, pH -->
#     <pH_Sensor SensorID="43" >
#       <SerialNumber>0363</SerialNumber>
#       <CalibrationDate>15-Apr-19</CalibrationDate>
#       <Slope>4.5952</Slope>
#       <Offset>2.5370</Offset>
#     </pH_Sensor>
#   </sensor>
#   <sensor Channel="7" >
#     <!-- A/D voltage 3, Oxidation Reduction Potential -->
#     <OxidationReductionPotentialSensor SensorID="41" >
#       <SerialNumber>0363</SerialNumber>
#       <CalibrationDate>15-Apr-19</CalibrationDate>
#       <B>2.499480</B>
#       <M>-0.496195</M>
#       <Offset>0.0</Offset>
#     </OxidationReductionPotentialSensor>
#   </sensor>
#   <sensor Channel="8" >
#     <!-- A/D voltage 4, Fluorometer, WET Labs ECO-AFL/FL -->
#     <FluoroWetlabECO_AFL_FL_Sensor SensorID="20" >
#       <SerialNumber>FLNTURT-2496</SerialNumber>
#       <CalibrationDate>08-May-2019</CalibrationDate>
#       <ScaleFactor>5.00000000e+001</ScaleFactor>
#       <!-- Dark output -->
#       <Vblank>0.0550</Vblank>
#     </FluoroWetlabECO_AFL_FL_Sensor>
#   </sensor>
#   <sensor Channel="9" >
#     <!-- A/D voltage 5, Turbidity Meter, WET Labs, ECO-NTU -->
#     <TurbidityMeter SensorID="67" >
#       <SerialNumber>FLNTURT-2496</SerialNumber>
#       <CalibrationDate>08-May-2019</CalibrationDate>
#       <ScaleFactor>189.000000</ScaleFactor>
#       <!-- Dark output -->
#       <DarkVoltage>0.071000</DarkVoltage>
#     </TurbidityMeter>
#   </sensor>
# </Sensors>
# datcnv_date = Aug 15 2019 01:14:33, 7.26.7.129 [datcnv_vars = 15]
# datcnv_in = C:\DATA\081419_fcr50_1500.hex C:\DATA\SBE19plusV2_7809.xmlcon
# datcnv_skipover = 0
# datcnv_ox_hysteresis_correction = yes
# datcnv_ox_tau_correction = yes
# filter_date = Aug 15 2019 01:15:00, 7.26.7.129
# filter_in = C:\DATA\081419_fcr50_1500.cnv
# filter_low_pass_tc_A = 0.030
# filter_low_pass_tc_B = 0.150
# filter_low_pass_A_vars = prdM prdE tv290C density00
# filter_low_pass_B_vars = depFM dz/dtM sbeox0Mg/L sbeox0PS specc c0uS/cm flECO-AFL ph orp par/sat/log turbWETntu0
# alignctd_date = Aug 15 2019 01:15:51, 7.26.7.129
# alignctd_in = C:\DATA\081419_fcr50_1500.cnv
# alignctd_adv = dz/dtM 1.000, sbeox0Mg/L 1.000, sbeox0PS 1.000, specc 1.000, c0uS/cm 1.000, flECO-AFL 1.000, ph 1.000, orp 1.000, turbWETntu0 1.000                                                                                 
# file_type = ascii
*END*
     -0.627 3.3704e-15     6.8706     91.763      0.984   1.092413    -0.1004      7.077  -728.4949 3.3456e+02    -0.2725     -0.615     -0.892    30.5452   995.4813 0.0000e+00
     -0.627 3.7074e-14     6.8791     91.870      1.045   1.160880    -0.1083      7.542  -873.1131 3.2681e+02    -0.2873     -0.615     -0.892    30.5506   995.4879 0.0000e+00
     -0.627 4.0782e-13     6.8829     91.915      1.000   1.110931    -0.1080      8.070  -457.6102 3.1398e+02    -0.2789     -0.616     -0.893    30.5540   995.4885 0.0000e+00
     -0.627 4.4860e-12     6.8836     91.919      0.953   1.058723    -0.0969      7.923   315.7416 2.9991e+02    -0.2693     -0.615     -0.892    30.5519   995.4882 0.0000e+00
     -0.627 4.9346e-11     6.8818     91.890      0.990   1.099863    -0.0952      7.364   767.6972 2.9831e+02    -0.3028     -0.616     -0.893    30.5480   995.4899 0.0000e+00
     -0.627 5.4281e-10     6.8772     91.824      1.049   1.164840    -0.1048      7.029   834.2145 3.0011e+02    -0.3234     -0.615     -0.892    30.5441   995.4908 0.0000e+00
     -0.627 5.9709e-09     6.8694     91.715      1.033   1.147410    -0.1087      6.918   789.0900 2.8767e+02    -0.3219     -0.615     -0.892    30.5412   995.4919 0.0000e+00
     -0.627 6.5680e-08     6.8612     91.600      0.972   1.079200    -0.1081      6.878   729.0444 2.5884e+02    -0.3825     -0.615     -0.892    30.5378   995.4928 0.0000e+00
     -0.627 7.2248e-07     6.8549     91.510      0.934   1.037061    -0.1054      6.860   668.1509 2.2990e+02    -0.4985     -0.615     -0.892    30.5345   995.4938 0.0000e+00
     -0.627      0.000     6.8502     91.440      0.917   1.018065    -0.1027      6.851   605.7209 2.1534e+02    -0.5790     -0.615     -0.892    30.5313   995.4948 0.0000e+00
     -0.627      0.000     6.8461     91.378      0.994   1.102959    -0.1010      6.846   522.9667 2.0868e+02    -0.6013     -0.615     -0.892    30.5286   995.4957 0.0000e+00
     -0.627      0.001     6.8418     91.313      1.632   1.810073    -0.1030      6.849   217.6260 2.0289e+02    -0.5710     -0.615     -0.892    30.5233   995.4972 0.0000e+00
     -0.627      0.011     6.8392     91.255      7.942   8.807403    -0.1091      7.052   -87.6592 1.8717e+02    -0.5409     -0.614     -0.890    30.5210   995.4981 0.0000e+00
     -0.627      0.041     6.8460     91.199     21.529  23.826984    -0.1054      7.615    46.5596 1.7348e+02    -0.4995     -0.616     -0.894    30.5155   995.4995 0.0000e+00
     -0.626      0.095     6.8687     91.103     32.412  35.724193    -0.0587      8.277   249.7597 1.8623e+02     0.1264     -0.612     -0.888    30.5146   995.5001 0.0000e+00
     -0.623      0.159     6.9017     90.980     36.048  39.496996     0.4391      8.772   271.5788 2.1824e+02     6.8625     -0.617     -0.896    30.5044   995.5029 0.0000e+00
     -0.590      0.219     6.9416     90.985     36.777  40.058993     1.3525      9.078   275.6131 2.5915e+02    19.1712     -0.609     -0.882    30.5095   995.5019 0.0000e+00
     -0.500      0.266     6.9950     91.287     36.990  40.106593     1.8476      9.248   275.1360 2.9672e+02    25.8571     -0.502     -0.728    30.4730   995.5186 0.0000e+00
     -0.380      0.292     7.0638     91.903     37.078  40.072229     1.9172      9.339   272.9513 3.1959e+02    26.0236     -0.361     -0.523    30.1862   995.6099 0.0000e+00
     -0.278      0.291     7.1413     92.720     37.114  40.024188     2.2370      9.382   271.0513 3.3107e+02    21.0524     -0.262     -0.379    29.7641   995.7379 0.0000e+00
     -0.205      0.260     7.2154     93.564     37.174  40.033450     2.8187      9.398   271.6090 3.3560e+02    11.7962     -0.194     -0.283    29.4269   995.8389 0.0000e+00
     -0.151      0.208     7.2748     94.265     37.225  40.057174     3.1413      9.399   272.5532 3.3305e+02     6.7216     -0.145     -0.210    29.1812   995.9118 0.0000e+00
     -0.111      0.154     7.3178     94.783     37.241  40.057053     3.1732      9.393   270.4214 3.2380e+02     6.2658     -0.102     -0.147    29.0102   995.9623 0.0000e+00
     -0.087      0.116     7.3464     95.129     37.228  40.031954     3.1694      9.387   266.8279 3.1639e+02     6.1864     -0.083     -0.120    28.8989   995.9950 0.0000e+00
     -0.072      0.094     7.3614     95.304     37.213  40.007611     3.1649      9.382   264.9827 3.1282e+02     5.6643     -0.073     -0.106    28.8288   996.0155 0.0000e+00
     -0.056      0.079     7.3658     95.345     37.227  40.016640     3.1702      9.378   264.4582 2.8867e+02     4.7373     -0.055     -0.080    28.7913   996.0264 0.0000e+00
     -0.037      0.065     7.3623     95.286     37.230  40.014150     3.1732      9.373   263.0681 2.4252e+02     4.2530     -0.037     -0.055    28.7736   996.0317 0.0000e+00
     -0.015      0.051     7.3509     95.119     37.205  39.977491     3.1661      9.367   261.5104 2.1389e+02     4.2001     -0.016     -0.023    28.7585   996.0363 0.0000e+00
      0.007      0.042     7.3270     94.778     37.197  39.954286     3.1796      9.358   260.4238 2.0642e+02     4.1306      0.010      0.015    28.7459   996.0399 0.0000e+00
      0.018      0.044     7.3374     94.879     37.242  39.987486     3.2244      9.343   258.6200 2.0485e+02     4.0681      0.026      0.036    28.7388   996.0421 0.0000e+00
      0.011      0.057     7.4769     96.669     37.257  39.997989     3.2478      9.327   257.1660 2.1056e+02     4.0342      0.015      0.021    28.7332   996.0437 0.0000e+00
     -0.000      0.072     7.7240     99.865     37.216  39.954297     3.2377      9.313   257.1267 2.1560e+02     3.9836     -0.012     -0.017    28.7229   996.0466 0.0000e+00
      0.015      0.084     7.9452    102.725     37.227  39.967067     3.2313      9.301   257.2837 2.0756e+02     3.9801     -0.002     -0.003    28.7002   996.0532 0.0000e+00
      0.065      0.092     8.0650    104.270     37.284  40.025427     3.2397      9.289   256.7424 1.8546e+02     4.0901      0.063      0.091    28.6735   996.0612 0.0000e+00
      0.120      0.094     8.0866    104.515     37.296  40.025098     3.2447      9.275   255.6578 1.6605e+02     4.1996      0.130      0.190    28.6681   996.0631 0.0000e+00
      0.150      0.085     8.0388    103.799     37.276  39.963071     3.2395      9.265   254.6662 1.6294e+02     4.2224      0.155      0.226    28.6745   996.0613 0.0000e+00
      0.156      0.063     7.9507    102.508     37.286  39.910225     3.2110      9.257   253.9595 1.6913e+02     4.1366      0.152      0.222    28.6730   996.0618 0.0000e+00
      0.157      0.036     7.8331    100.848     37.328  39.893888     3.1521      9.247   253.3947 1.7297e+02     4.0138      0.153      0.222    28.6728   996.0619 0.0000e+00
      0.160      0.016     7.7048     99.095     37.367  39.892399     3.1171      9.237   253.0853 1.7115e+02     3.9835      0.158      0.229    28.6671   996.0635 0.0000e+00
      0.162      0.007     7.6148     97.869     37.394  39.892162     3.1174      9.229   252.6277 1.6715e+02     3.9993      0.160      0.232    28.6119   996.0795 0.0000e+00
      0.163      0.001     7.5928     97.540     37.412  39.890972     3.1203      9.223   250.7872 1.6783e+02     4.0083      0.159      0.231    28.5076   996.1097 0.0000e+00
      0.165     -0.008     7.6156     97.805     37.411  39.877982     3.1181      9.215   248.2982 1.7328e+02     3.9943      0.161      0.233    28.4201   996.1350 0.0000e+00
      0.168     -0.014     7.6464     98.195     37.398  39.862046     3.1076      9.203   247.0539 1.7890e+02     3.9602      0.165      0.240    28.3668   996.1503 0.0000e+00
      0.165     -0.010     7.6718     98.561     37.347  39.825252     3.1063      9.188   246.6696 1.8393e+02     3.9562      0.169      0.245    28.3304   996.1608 0.0000e+00
      0.149     -0.001     7.6941     98.951     37.236  39.750538     3.1199      9.174   246.2326 1.8382e+02     3.9468      0.150      0.217    28.3030   996.1686 0.0000e+00
      0.131      0.008     7.7177     99.385     37.156  39.720540     3.1412      9.164   244.6951 1.8132e+02     3.9438      0.114      0.166    28.2872   996.1729 0.0000e+00
      0.138      0.017     7.7412     99.796     37.169  39.780046     3.1648      9.156   242.3631 1.7945e+02     3.9862      0.125      0.181    28.2792   996.1752 0.0000e+00
      0.165      0.027     7.7567    100.068     37.251  39.898762     3.1718      9.148   241.0944 1.7413e+02     4.0001      0.170      0.245    28.2933   996.1714 0.0000e+00
      0.184      0.036     7.7655    100.228     37.339  40.013305     3.1734      9.140   240.5410 1.7084e+02     3.9814      0.188      0.272    28.3643   996.1511 0.0000e+00
      0.188      0.038     7.7782    100.410     37.399  40.085815     3.1843      9.132   240.1459 1.6984e+02     3.9565      0.183      0.266    28.4517   996.1259 0.0000e+00
      0.190      0.030     7.7927    100.593     37.452  40.140665     3.1820      9.124   240.0179 1.6588e+02     3.9281      0.183      0.266    28.5133   996.1082 0.0000e+00
      0.197      0.020     7.8006    100.680     37.484  40.168623     3.1718      9.117   239.1653 1.6198e+02     3.9331      0.194      0.281    28.5519   996.0971 0.0000e+00
      0.204      0.015     7.8096    100.779     37.493  40.169908     3.1737      9.110   237.5798 1.6189e+02     3.9525      0.202      0.292    28.5786   996.0894 0.0000e+00
      0.207      0.013     7.8342    101.075     37.489  40.156194     3.1876      9.104   236.4205 1.6292e+02     3.9335      0.202      0.294    28.5909   996.0859 0.0000e+00
      0.209      0.011     7.8731    101.553     37.474  40.129763     3.2101      9.096   235.9904 1.6312e+02     3.8662      0.205      0.298    28.5835   996.0880 0.0000e+00
      0.211      0.007     7.9137    102.047     37.461  40.104252     3.2285      9.088   235.9068 1.6307e+02     3.7942      0.207      0.301    28.5733   996.0910 0.0000e+00
      0.212      0.005     7.9466    102.436     37.472  40.101639     3.2366      9.082   235.9251 1.6422e+02     3.7504      0.208      0.301    28.5642   996.0936 0.0000e+00
      0.213      0.004     7.9719    102.723     37.484  40.098150     3.2387      9.076   236.0399 1.6722e+02     3.7954      0.209      0.303    28.5519   996.0972 0.0000e+00
      0.214      0.003     7.9942    102.973     37.464  40.062038     3.2450      9.070   236.0900 1.6766e+02     3.9132      0.209      0.304    28.5385   996.1010 0.0000e+00
      0.215      0.003     8.0165    103.223     37.464  40.045880     3.2520      9.063   235.8431 1.6458e+02     3.9618      0.211      0.306    28.5228   996.1055 0.0000e+00
      0.215      0.003     8.0391    103.476     37.463  40.029732     3.2448      9.058   235.4638 1.6050e+02     3.9578      0.211      0.306    28.5027   996.1114 0.0000e+00
      0.216      0.002     8.0611    103.726     37.443  39.993734     3.2360      9.052   235.2888 1.6025e+02     3.9627      0.212      0.307    28.4801   996.1179 0.0000e+00
      0.217      0.002     8.0805    103.949     37.451  39.991503     3.2329      9.045   235.2771 1.6107e+02     3.9561      0.213      0.308    28.4596   996.1238 0.0000e+00
      0.218      0.002     8.0940    104.107     37.467  40.002740     3.2337      9.040   235.0644 1.5967e+02     3.9435      0.213      0.309    28.4393   996.1297 0.0000e+00
      0.218      0.002     8.1025    104.213     37.469  40.002627     3.2452      9.035   234.5230 1.6224e+02     3.9406      0.213      0.309    28.4177   996.1360 0.0000e+00
      0.218      0.001     8.1069    104.278     37.454  39.990129     3.2502      9.030   233.8944 1.6214e+02     3.9538      0.213      0.309    28.3987   996.1413 0.0000e+00
      0.218      0.001     8.1031    104.249     37.436  39.978594     3.2424      9.026   233.4862 1.5718e+02     3.9725      0.214      0.311    28.3833   996.1458 0.0000e+00
      0.219      0.001     8.0911    104.132     37.432  39.990134     3.2375      9.021   233.2007 1.5651e+02     3.9701      0.215      0.312    28.3738   996.1486 0.0000e+00
      0.219      0.001     8.0761    103.990     37.424  40.002724     3.2352      9.016   232.7665 1.5685e+02     3.9576      0.214      0.311    28.3733   996.1486 0.0000e+00
      0.219      0.002     8.0608    103.845     37.405  40.003886     3.2407      9.011   232.2797 1.5414e+02     3.9515      0.215      0.312    28.3776   996.1475 0.0000e+00
      0.219      0.002     8.0456    103.694     37.388  40.004216     3.2513      9.006   231.7884 1.5122e+02     3.9291      0.215      0.312    28.3855   996.1452 0.0000e+00
      0.220      0.002     8.0289    103.518     37.375  40.006741     3.2508      9.001   231.3000 1.5083e+02     3.9498      0.215      0.312    28.4072   996.1389 0.0000e+00
      0.221      0.002     8.0072    103.277     37.386  40.034449     3.2434      8.997   230.9348 1.5142e+02     4.0053      0.217      0.314    28.4394   996.1296 0.0000e+00
      0.222      0.001     7.9825    102.997     37.419  40.085328     3.2398      8.993   230.4699 1.4930e+02     4.0099      0.219      0.317    28.4690   996.1211 0.0000e+00
      0.222      0.001     7.9595    102.735     37.432  40.114078     3.2427      8.989   229.8096 1.4651e+02     4.0057      0.219      0.317    28.4933   996.1141 0.0000e+00
      0.221      0.001     7.9362    102.465     37.434  40.128155     3.2430      8.985   229.3179 1.4558e+02     3.9868      0.217      0.315    28.5139   996.1081 0.0000e+00
      0.221      0.000     7.9063    102.103     37.424  40.128591     3.2345      8.980   229.1708 1.4510e+02     3.9131      0.217      0.315    28.5339   996.1024 0.0000e+00
      0.222      0.000     7.8628    101.558     37.409  40.119368     3.2260      8.976   229.3226 1.4603e+02     3.8672      0.217      0.315    28.5561   996.0960 0.0000e+00
      0.222      0.000     7.8066    100.844     37.427  40.143610     3.2282      8.972   229.4316 1.4697e+02     3.8911      0.218      0.316    28.5769   996.0901 0.0000e+00
      0.222      0.001     7.7464    100.074     37.446  40.167772     3.2347      8.968   229.1122 1.4464e+02     3.9396      0.218      0.316    28.5940   996.0850 0.0000e+00
      0.222      0.001     7.6879     99.326     37.434  40.157584     3.2357      8.965   228.4721 1.4305e+02     3.9630      0.216      0.314    28.6077   996.0811 0.0000e+00
      0.222      0.001     7.6314     98.606     37.421  40.147408     3.2311      8.962   227.8005 1.4345e+02     3.9443      0.217      0.315    28.6167   996.0785 0.0000e+00
      0.222      0.001     7.5738     97.870     37.440  40.171706     3.2392      8.958   227.8755 1.4401e+02     3.9424      0.218      0.316    28.6222   996.0769 0.0000e+00
      0.223      0.001     7.5130     97.094     37.460  40.197445     3.2736      8.955   228.6049 1.4353e+02     3.9729      0.219      0.317    28.6261   996.0758 0.0000e+00
      0.223      0.001     7.4508     96.299     37.463  40.204685     3.3002      8.951   228.7903 1.4324e+02     3.9862      0.219      0.318    28.6307   996.0744 0.0000e+00
      0.224      0.001     7.3878     95.490     37.452  40.195774     3.3014      8.949   228.2233 1.4371e+02     3.9720      0.219      0.318    28.6361   996.0728 0.0000e+00
      0.224      0.001     7.3230     94.656     37.411  40.153191     3.2962      8.946   227.4288 1.4203e+02     3.9648      0.220      0.320    28.6417   996.0712 0.0000e+00
      0.224      0.001     7.2543     93.768     37.394  40.134200     3.2973      8.943   227.5300 1.4118e+02     3.9971      0.219      0.319    28.6474   996.0696 0.0000e+00
      0.223      0.001     7.1805     92.814     37.415  40.156597     3.3065      8.941   228.5867 1.4084e+02     4.0353      0.219      0.318    28.6524   996.0681 0.0000e+00
      0.223      0.001     7.1055     91.845     37.428  40.170063     3.3120      8.938   229.1063 1.3926e+02     4.0331      0.219      0.317    28.6562   996.0670 0.0000e+00
      0.224      0.001     7.0324     90.900     37.428  40.170048     3.3033      8.935   228.8217 1.4091e+02     4.0034      0.220      0.319    28.6586   996.0663 0.0000e+00
      0.225      0.002     6.9609     89.975     37.415  40.156415     3.2794      8.931   228.3288 1.4305e+02     3.9715      0.221      0.321    28.6585   996.0664 0.0000e+00
      0.226      0.002     6.8899     89.058     37.392  40.132187     3.2569      8.928   227.8783 1.4033e+02     3.9746      0.221      0.321    28.6575   996.0666 0.0000e+00
      0.226      0.002     6.8189     88.141     37.390  40.131043     3.2484      8.926   227.5048 1.3989e+02     4.0089      0.222      0.322    28.6572   996.0667 0.0000e+00
      0.227      0.002     6.7481     87.228     37.400  40.142586     3.2464      8.923   227.3407 1.4308e+02     4.0250      0.222      0.323    28.6570   996.0668 0.0000e+00
      0.227      0.001     6.6798     86.349     37.401  40.144789     3.2409      8.920   227.5291 1.4174e+02     4.0056      0.223      0.324    28.6573   996.0667 0.0000e+00
      0.227      0.001     6.6145     85.509     37.411  40.157684     3.2334      8.918   227.8046 1.3897e+02     3.9710      0.224      0.324    28.6577   996.0666 0.0000e+00
      0.227      0.001     6.5505     84.684     37.422  40.171533     3.2336      8.916   227.9174 1.3867e+02     3.9670      0.223      0.324    28.6580   996.0665 0.0000e+00
      0.227      0.001     6.4874     83.871     37.433  40.185279     3.2355      8.914   227.1727 1.3858e+02     3.9903      0.223      0.323    28.6597   996.0660 0.0000e+00
      0.227      0.001     6.4264     83.088     37.442  40.196927     3.2390      8.913   226.0280 1.3841e+02     3.9902      0.223      0.324    28.6621   996.0653 0.0000e+00
      0.228      0.001     6.3699     82.363     37.429  40.185403     3.2412      8.911   225.9500 1.3635e+02     3.9653      0.224      0.325    28.6646   996.0646 0.0000e+00
      0.229      0.002     6.3183     81.699     37.415  40.172917     3.2355      8.908   226.1435 1.3442e+02     3.9518      0.225      0.326    28.6669   996.0639 0.0000e+00
      0.230      0.002     6.2698     81.076     37.413  40.172931     3.2390      8.905   226.2165 1.3526e+02     3.9584      0.225      0.326    28.6692   996.0633 0.0000e+00
      0.230      0.001     6.2233     80.479     37.423  40.185574     3.2496      8.903   225.7144 1.3472e+02     3.9789      0.225      0.327    28.6723   996.0624 0.0000e+00
      0.230      0.001     6.1796     79.919     37.433  40.198815     3.2508      8.901   224.0310 1.3291e+02     4.0025      0.226      0.328    28.6753   996.0615 0.0000e+00
      0.230      0.000     6.1404     79.415     37.438  40.206064     3.2449      8.898   222.9840 1.3385e+02     4.0149      0.226      0.327    28.6784   996.0606 0.0000e+00
      0.230 4.3182e-07     6.1045     78.955     37.439  40.209744     3.2391      8.896   223.3794 1.3615e+02     3.9987      0.226      0.328    28.6812   996.0598 0.0000e+00
      0.230      0.000     6.0709     78.523     37.410  40.179828     3.2416      8.893   224.1649 1.3577e+02     3.9700      0.225      0.327    28.6838   996.0591 0.0000e+00
      0.230      0.000     6.0382     78.103     37.391  40.161770     3.2488      8.891   223.7916 1.3486e+02     3.9628      0.225      0.326    28.6872   996.0581 0.0000e+00
      0.230      0.001     6.0058     77.688     37.409  40.181860     3.2478      8.889   222.3083 1.3659e+02     3.9775      0.225      0.326    28.6908   996.0570 0.0000e+00
      0.231      0.001     5.9745     77.285     37.395  40.168797     3.2386      8.887   221.3731 1.3852e+02     3.9832      0.226      0.328    28.6938   996.0561 0.0000e+00
      0.231      0.002     5.9455     76.912     37.358  40.130799     3.2330      8.885   221.3461 1.3961e+02     3.9340      0.227      0.329    28.6959   996.0556 0.0000e+00
      0.232      0.002     5.9208     76.594     37.331  40.103323     3.2498      8.883   221.5526 1.4030e+02     3.8408      0.227      0.329    28.6979   996.0549 0.0000e+00
      0.232      0.002     5.8974     76.294     37.318  40.090520     3.2758      8.879   221.5458 1.4176e+02     3.7746      0.227      0.329    28.7000   996.0543 0.0000e+00
      0.233      0.001     5.8735     75.989     37.328  40.102970     3.2879      8.878   221.6944 1.4451e+02     3.7565      0.228      0.330    28.7019   996.0538 0.0000e+00
      0.233      0.001     5.8512     75.705     37.349  40.126894     3.2925      8.877   221.9729 1.4461e+02     3.7529      0.229      0.332    28.7038   996.0532 0.0000e+00
      0.233      0.000     5.8314     75.452     37.346  40.125853     3.2966      8.875   221.5576 1.4399e+02     3.8611      0.228      0.331    28.7058   996.0527 0.0000e+00
      0.233 4.2403e-07     5.8145     75.236     37.312  40.090384     3.3025      8.875   220.8021 1.4464e+02     4.0820      0.228      0.331    28.7077   996.0521 0.0000e+00
      0.233      0.000     5.8010     75.064     37.300  40.078935     3.3036      8.874   220.4963 1.4577e+02     4.1950      0.228      0.331    28.7100   996.0514 0.0000e+00
      0.232      0.000     5.7897     74.920     37.331  40.114390     3.3011      8.873   221.3883 1.4881e+02     4.1785      0.228      0.330    28.7127   996.0506 0.0000e+00
      0.232      0.001     5.7802     74.800     37.352  40.138181     3.2981      8.872   222.8107 1.4967e+02     4.0472      0.228      0.330    28.7151   996.0499 0.0000e+00
      0.233      0.001     5.7729     74.710     37.326  40.112664     3.2935      8.870   222.9814 1.4781e+02     3.8526      0.228      0.331    28.7172   996.0494 0.0000e+00
      0.234      0.000     5.7679     74.648     37.275  40.059796     3.2970      8.869   222.3342 1.4695e+02     3.7922      0.229      0.333    28.7190   996.0488 0.0000e+00
      0.234     -0.002     5.7679     74.651     37.223  40.006826     3.3056      8.869   221.6097 1.4634e+02     3.7754      0.230      0.333    28.7210   996.0482 0.0000e+00
      0.234     -0.005     5.7764     74.766     37.196  39.980071     3.3113      8.869   221.7942 1.4660e+02     3.7481      0.230      0.333    28.7230   996.0476 0.0000e+00
      0.233     -0.007     5.7952     75.016     37.203  39.990241     3.3143      8.869   223.1013 1.4977e+02     3.8217      0.229      0.333    28.7254   996.0469 0.0000e+00
      0.230     -0.008     5.8204     75.347     37.212  40.002830     3.3156      8.870   223.7337 1.5133e+02     3.9117      0.226      0.330    28.7280   996.0462 0.0000e+00
      0.225     -0.006     5.8424     75.635     37.212  40.005315     3.3188      8.870   223.5903 1.5007e+02     3.9522      0.221      0.321    28.7308   996.0453 0.0000e+00
      0.220     -0.002     5.8541     75.788     37.225  40.020299     3.3175      8.868   223.1748 1.5022e+02     4.0159      0.215      0.312    28.7345   996.0442 0.0000e+00
      0.219      0.002     5.8557     75.812     37.258  40.057034     3.3088      8.865   222.7533 1.4894e+02     4.1250      0.212      0.308    28.7386   996.0431 0.0000e+00
      0.224      0.007     5.8481     75.717     37.267  40.068576     3.2997      8.862   222.9683 1.4695e+02     4.1902      0.218      0.318    28.7434   996.0417 0.0000e+00
      0.230      0.011     5.8307     75.494     37.232  40.032901     3.2946      8.860   223.2782 1.4760e+02     4.2142      0.226      0.329    28.7469   996.0406 0.0000e+00
      0.233      0.012     5.8091     75.216     37.207  40.006573     3.2990      8.856   223.1447 1.4765e+02     4.2185      0.229      0.333    28.7474   996.0405 0.0000e+00
      0.236      0.012     5.7876     74.939     37.204  40.004178     3.3185      8.852   222.9032 1.4664e+02     4.2425      0.231      0.335    28.7493   996.0400 0.0000e+00
      0.239      0.010     5.7673     74.677     37.203  40.003950     3.3390      8.850   222.6816 1.4486e+02     4.3400      0.234      0.340    28.7531   996.0389 0.0000e+00
      0.241      0.008     5.7494     74.447     37.202  40.003824     3.3398      8.847   221.9279 1.4267e+02     4.4135      0.238      0.344    28.7549   996.0383 0.0000e+00
      0.243      0.007     5.7345     74.255     37.201  40.002658     3.3443      8.844   220.8457 1.4216e+02     4.4431      0.239      0.346    28.7546   996.0384 0.0000e+00
      0.244      0.006     5.7222     74.095     37.189  39.989847     3.3588      8.840   220.4373 1.4172e+02     4.4034      0.238      0.346    28.7553   996.0383 0.0000e+00
      0.245      0.006     5.7105     73.941     37.177  39.975891     3.3602      8.836   220.6901 1.4131e+02     4.2615      0.239      0.348    28.7572   996.0377 0.0000e+00
      0.246      0.005     5.6965     73.758     37.165  39.960878     3.3524      8.832   221.0628 1.4059e+02     4.1693      0.241      0.350    28.7586   996.0373 0.0000e+00
      0.248      0.003     5.6816     73.565     37.141  39.935285     3.3423      8.828   220.3829 1.4077e+02     4.1735      0.243      0.352    28.7592   996.0372 0.0000e+00
      0.250      0.003     5.6691     73.406     37.126  39.920373     3.3246      8.826   218.7511 1.4212e+02     4.1810      0.246      0.357    28.7592   996.0372 0.0000e+00
      0.251      0.004     5.6584     73.269     37.113  39.907553     3.3036      8.823   217.9382 1.4128e+02     4.1943      0.247      0.359    28.7571   996.0377 0.0000e+00
      0.250      0.006     5.6478     73.132     37.113  39.907234     3.2953      8.816   218.1261 1.4112e+02     4.2035      0.245      0.357    28.7543   996.0386 0.0000e+00
      0.249      0.006     5.6366     72.985     37.122  39.916523     3.2943      8.809   218.5278 1.4241e+02     4.1614      0.242      0.351    28.7539   996.0386 0.0000e+00
      0.251      0.006     5.6255     72.837     37.102  39.892893     3.2923      8.804   218.3208 1.4231e+02     4.1765      0.244      0.354    28.7574   996.0376 0.0000e+00
      0.257      0.005     5.6153     72.697     37.031  39.811977     3.2959      8.802   217.4299 1.4197e+02     4.3198      0.254      0.368    28.7593   996.0372 0.0000e+00
      0.260      0.000     5.6091     72.607     36.932  39.699932     3.3034      8.803   216.6183 1.4242e+02     4.4197      0.257      0.372    28.7573   996.0378 0.0000e+00
      0.260     -0.007     5.6188     72.737     36.852  39.617345     3.3051      8.803   216.2518 1.4185e+02     4.4020      0.254      0.368    28.7587   996.0373 0.0000e+00
      0.259     -0.013     5.6549     73.238     36.796  39.575199     3.2824      8.800   216.4403 1.4197e+02     4.1708      0.256      0.371    28.7540   996.0387 0.0000e+00
      0.254     -0.014     5.7136     74.033     36.774  39.571266     3.2459      8.794   216.8321 1.4452e+02     3.7550      0.254      0.368    28.7492   996.0401 0.0000e+00
      0.241     -0.011     5.7753     74.842     36.768  39.569828     3.2355      8.789   216.8594 1.4669e+02     3.5359      0.237      0.342    28.7379   996.0432 0.0000e+00
      0.230     -0.005     5.8226     75.441     36.764  39.557827     3.2437      8.786   216.5970 1.4705e+02     3.5214      0.218      0.315    28.7311   996.0451 0.0000e+00
      0.233      0.003     5.8535     75.820     36.771  39.553106     3.2410      8.785   216.4134 1.4530e+02     3.5136      0.225      0.328    28.7694   996.0340 0.0000e+00
      0.244      0.013     5.8694     76.002     36.744  39.512730     3.2468      8.783   216.2748 1.4256e+02     3.6059      0.243      0.352    28.8072   996.0231 0.0000e+00
      0.249      0.022     5.8665     75.942     36.699  39.450503     3.2788      8.780   216.0389 1.4121e+02     3.8178      0.244      0.354    28.8092   996.0225 0.0000e+00
      0.253      0.026     5.8461     75.656     36.697  39.435510     3.2982      8.777   216.3153 1.4134e+02     3.9454      0.247      0.358    28.7944   996.0268 0.0000e+00
      0.261      0.025     5.8176     75.269     36.727  39.458386     3.2994      8.775   217.1204 1.4029e+02     3.9693      0.256      0.371    28.7762   996.0321 0.0000e+00
      0.271      0.024     5.7936     74.944     36.748  39.473164     3.3019      8.774   217.4280 1.3901e+02     4.0413      0.267      0.388    28.7612   996.0365 0.0000e+00
      0.278      0.025     5.7841     74.806     36.769  39.487211     3.2937      8.772   217.1953 1.3918e+02     4.1270      0.275      0.399    28.7417   996.0422 0.0000e+00
      0.281      0.027     5.7963     74.944     36.792  39.501260     3.2872      8.769   216.8883 1.3814e+02     4.1536      0.275      0.398    28.7240   996.0474 0.0000e+00
      0.284      0.029     5.8344     75.410     36.819  39.516048     3.2926      8.765   217.2432 1.3657e+02     4.1663      0.278      0.403    28.7125   996.0507 0.0000e+00
      0.292      0.030     5.8908     76.115     36.854  39.539020     3.2897      8.761   218.3031 1.3412e+02     4.2813      0.285      0.412    28.7003   996.0543 0.0000e+00
      0.303      0.030     5.9528     76.890     36.854  39.525066     3.2870      8.757   218.8625 1.3061e+02     4.4944      0.297      0.430    28.6918   996.0568 0.0000e+00
      0.315      0.030     6.0098     77.600     36.819  39.474277     3.3027      8.753   218.6727 1.2915e+02     4.6138      0.312      0.453    28.6764   996.0613 0.0000e+00
      0.324      0.026     6.0535     78.139     36.794  39.432749     3.3233      8.748   218.2448 1.2846e+02     4.6427      0.318      0.463    28.6530   996.0682 0.0000e+00
      0.330      0.020     6.0788     78.444     36.778  39.403810     3.3720      8.745   217.9915 1.2725e+02     4.6146      0.324      0.470    28.6365   996.0730 0.0000e+00
      0.333      0.012     6.0832     78.486     36.761  39.378288     3.4489      8.745   218.1051 1.2587e+02     4.5028      0.328      0.475    28.6188   996.0782 0.0000e+00
      0.334      0.006     6.0681     78.284     36.765  39.378069     3.4817      8.746   218.3278 1.2502e+02     4.4382      0.328      0.476    28.5979   996.0843 0.0000e+00
      0.333      0.003     6.0394     77.912     36.787  39.401159     3.4735      8.747   218.4466 1.2627e+02     4.4237      0.328      0.475    28.5780   996.0900 0.0000e+00
      0.332      0.001     6.0036     77.453     36.788  39.403551     3.4633      8.748   218.5953 1.2816e+02     4.2939      0.326      0.473    28.5611   996.0949 0.0000e+00
      0.332      0.001     5.9666     76.979     36.789  39.406993     3.4448      8.748   218.7486 1.2743e+02     4.0822      0.326      0.473    28.5508   996.0978 0.0000e+00
      0.333      0.001     5.9320     76.538     36.820  39.442778     3.4313      8.748   218.4076 1.2584e+02     3.9947      0.326      0.473    28.5457   996.0992 0.0000e+00
      0.334      0.002     5.9019     76.154     36.829  39.455345     3.4305      8.748   217.8273 1.2641e+02     3.9889      0.328      0.475    28.5453   996.0994 0.0000e+00
      0.335      0.002     5.8774     75.843     36.805  39.431984     3.4266      8.748   217.7553 1.2644e+02     3.9464      0.328      0.476    28.5480   996.0987 0.0000e+00
      0.335      0.002     5.8583     75.601     36.786  39.414242     3.4099      8.749   217.9679 1.2523e+02     3.9078      0.329      0.477    28.5513   996.0977 0.0000e+00
      0.336      0.002     5.8469     75.453     36.743  39.367799     3.3842      8.749   218.1611 1.2514e+02     3.9145      0.329      0.478    28.5546   996.0968 0.0000e+00
      0.336      0.001     5.8766     75.783     36.720  39.314808     3.3682      8.749   217.9392 1.2567e+02     3.9619      0.329      0.478    28.5595   996.0953 0.0000e+00
      0.336      0.000     6.0645     77.981     36.856  39.344827     3.3634      8.750   217.2643 1.2674e+02     3.9901      0.329      0.478    28.5624   996.0944 0.0000e+00
      0.336 2.3708e-08     6.5607     83.936     37.111  39.413177     3.3613      8.751   216.8848 1.2717e+02     3.9605      0.330      0.479    28.5668   996.0932 0.0000e+00
      0.336 2.6079e-07     7.3728     93.882     37.327  39.442600     3.3600      8.753   216.7919 1.2611e+02     3.9644      0.330      0.478    28.5683   996.0927 0.0000e+00
      0.336 6.3334e-07     8.3346    105.812     37.455  39.446326     3.3652      8.754   216.8288 1.2617e+02     4.0036      0.329      0.477    28.5736   996.0912 0.0000e+00
      0.336      0.000     9.2745    117.547     37.538  39.458027     3.3721      8.753   216.9005 1.2709e+02     3.9770      0.329      0.478    28.4351   996.1312 0.0000e+00
      0.336      0.000    10.0863    127.713     37.578  39.457007     3.3738      8.752   216.7131 1.2862e+02     4.0031      0.329      0.477    28.0837   996.2319 0.0000e+00
      0.336      0.001    10.6976    135.377     37.580  39.433932     3.3855      8.752   216.5418 1.2855e+02     4.1218      0.329      0.478    27.7852   996.3167 0.0000e+00
      0.337      0.001    11.0867    140.257     37.592  39.432903     3.4007      8.751   216.5498 1.2606e+02     4.2003      0.330      0.479    27.6261   996.3614 0.0000e+00
      0.337      0.001    11.2623    142.455     37.610  39.444550     3.4187      8.751   216.5519 1.2615e+02     4.2306      0.330      0.479    27.5362   996.3867 0.0000e+00
      0.337      0.001    11.2484    142.271     37.615  39.447775     3.4647      8.751   216.5672 1.2647e+02     4.2264      0.330      0.479    27.4868   996.4005 0.0000e+00
      0.337      0.001    11.1111    140.532     37.640  39.471898     3.5147      8.751   216.6482 1.2519e+02     4.2152      0.330      0.479    27.4545   996.4096 0.0000e+00
      0.337      0.001    10.9294    138.228     37.651  39.482296     3.5297      8.750   216.6721 1.2459e+02     4.1932      0.331      0.480    27.4393   996.4138 0.0000e+00
      0.338      0.001    10.7536    135.994     37.619  39.446526     3.5325      8.750   216.5971 1.2504e+02     4.1571      0.332      0.481    27.4303   996.4162 0.0000e+00
      0.338      0.001    10.6074    134.132     37.598  39.420294     3.5488      8.750   216.5166 1.2695e+02     4.1069      0.331      0.481    27.4284   996.4168 0.0000e+00
      0.338      0.001    10.4939    132.681     37.602  39.419045     3.5617      8.750   216.3862 1.2728e+02     4.0120      0.331      0.481    27.4279   996.4169 0.0000e+00
      0.338      0.001    10.4074    131.566     37.621  39.431410     3.5583      8.750   216.4837 1.2521e+02     3.9280      0.331      0.480    27.4264   996.4174 0.0000e+00
      0.338      0.001    10.3479    130.794     37.638  39.442830     3.5426      8.750   216.8345 1.2495e+02     3.9093      0.331      0.480    27.4220   996.4185 0.0000e+00
      0.339      0.001    10.3132    130.342     37.629  39.430141     3.5283      8.749   216.9278 1.2625e+02     4.0157      0.332      0.482    27.4169   996.4200 0.0000e+00
      0.339      0.002    10.2945    130.096     37.608  39.404950     3.5325      8.749   216.7515 1.2581e+02     4.1660      0.332      0.482    27.4101   996.4219 0.0000e+00
      0.339      0.002    10.2847    129.957     37.601  39.392160     3.5425      8.748   216.5098 1.2518e+02     4.1858      0.332      0.482    27.3996   996.4248 0.0000e+00
      0.340      0.002    10.2780    129.852     37.617  39.402454     3.5447      8.747   216.5003 1.2525e+02     4.1565      0.333      0.483    27.3901   996.4276 0.0000e+00
      0.340      0.001    10.2701    129.741     37.621  39.402445     3.5417      8.746   216.7232 1.2499e+02     4.1726      0.334      0.484    27.3853   996.4288 0.0000e+00
      0.340      0.001    10.2623    129.638     37.612  39.392049     3.5414      8.745   216.7961 1.2493e+02     4.1834      0.334      0.484    27.3838   996.4293 0.0000e+00
      0.341      0.001    10.2564    129.564     37.623  39.403704     3.5577      8.745   216.7791 1.2476e+02     4.1885      0.334      0.485    27.3758   996.4315 0.0000e+00
      0.341      0.001    10.2520    129.516     37.633  39.416407     3.5647      8.744   216.6900 1.2465e+02     4.2019      0.334      0.485    27.3643   996.4346 0.0000e+00
      0.340      0.001    10.2503    129.513     37.630  39.418686     3.5402      8.743   216.4926 1.2505e+02     4.1820      0.334      0.484    27.3601   996.4358 0.0000e+00
      0.340      0.001    10.2516    129.553     37.634  39.431266     3.4867      8.742   216.3712 1.2480e+02     4.0785      0.334      0.484    27.3602   996.4358 0.0000e+00
      0.341      0.002    10.2540    129.598     37.639  39.441568     3.4207      8.741   216.3402 1.2370e+02     3.9672      0.334      0.486    27.3587   996.4362 0.0000e+00
      0.341      0.005    10.2607    129.669     37.619  39.416291     3.3833      8.737   216.2905 1.2389e+02     3.9506      0.336      0.488    27.3610   996.4355 0.0000e+00
      0.340      0.009    10.2735    129.786     37.598  39.379571     3.3730      8.730   216.2011 1.2595e+02     3.9755      0.333      0.483    27.3697   996.4332 0.0000e+00
      0.342      0.011    10.2865    129.894     37.615  39.378438     3.3651      8.723   216.2059 1.2576e+02     4.0385      0.333      0.483    27.3822   996.4296 0.0000e+00
      0.348      0.012    10.2941    129.942     37.653  39.402563     3.3577      8.717   216.1757 1.2252e+02     4.1561      0.341      0.495    27.3932   996.4266 0.0000e+00
      0.354      0.012    10.2971    129.951     37.676  39.417322     3.3529      8.712   216.0080 1.2045e+02     4.2173      0.348      0.505    27.3873   996.4284 0.0000e+00
      0.358      0.011    10.3001    129.976     37.691  39.429903     3.3590      8.708   215.8990 1.2100e+02     4.2208      0.352      0.510    27.3653   996.4345 0.0000e+00
      0.359      0.008    10.3029    130.007     37.691  39.427717     3.3966      8.706   215.8043 1.2190e+02     4.1989      0.352      0.511    27.3365   996.4425 0.0000e+00
      0.359      0.005    10.3043    130.022     37.656  39.390897     3.4526      8.705   215.8092 1.2084e+02     4.1490      0.352      0.510    27.3139   996.4487 0.0000e+00
      0.360      0.003    10.3020    129.997     37.630  39.365589     3.4808      8.704   215.8719 1.1986e+02     4.1420      0.353      0.512    27.3021   996.4521 0.0000e+00
      0.360      0.000    10.2938    129.910     37.635  39.375645     3.4863      8.704   215.7024 1.1961e+02     4.1796      0.353      0.513    27.2981   996.4532 0.0000e+00
      0.361     -0.001    10.2855    129.822     37.640  39.385537     3.4763      8.705   215.5665 1.2003e+02     4.1450      0.353      0.513    27.2991   996.4528 0.0000e+00
      0.361      0.002    10.2861    129.835     37.612  39.358241     3.4453      8.704   215.6911 1.2098e+02     4.0186      0.355      0.515    27.2955   996.4539 0.0000e+00
      0.360      0.008    10.2964    129.940     37.563  39.299534     3.4234      8.696   215.8328 1.2156e+02     3.9631      0.355      0.515    27.2961   996.4537 0.0000e+00
      0.357      0.018    10.3075    130.010     37.535  39.247029     3.4199      8.685   215.9028 1.2261e+02     3.9972      0.349      0.506    27.3052   996.4512 0.0000e+00
      0.358      0.029    10.3154    130.002     37.553  39.231208     3.4206      8.671   215.9358 1.2146e+02     4.0052      0.346      0.502    27.3138   996.4488 0.0000e+00
      0.370      0.040    10.3253    130.007     37.594  39.235146     3.4664      8.656   215.8873 1.1846e+02     4.0920      0.362      0.524    27.3196   996.4472 0.0000e+00
      0.386      0.048    10.3380    130.066     37.622  39.231097     3.5583      8.646   215.8335 1.1576e+02     4.2925      0.380      0.551    27.3123   996.4494 0.0000e+00
      0.405      0.049    10.3503    130.153     37.657  39.245681     3.6032      8.638   215.7150 1.1265e+02     4.3980      0.396      0.573    27.2799   996.4584 0.0000e+00
      0.423      0.039    10.3618    130.271     37.702  39.284488     3.6016      8.636   215.4005 1.1063e+02     4.3850      0.418      0.605    27.2298   996.4723 0.0000e+00
      0.437      0.015    10.3719    130.421     37.728  39.319412     3.6167      8.642   214.9569 1.0962e+02     4.2668      0.431      0.624    27.1730   996.4882 0.0000e+00
      0.443     -0.020    10.3822    130.622     37.736  39.350555     3.6474      8.649   214.3951 1.0951e+02     4.0507      0.436      0.631    27.1261   996.5012 0.0000e+00
      0.439     -0.060    10.3942    130.886     37.755  39.407151     3.6614      8.654   213.8566 1.1148e+02     3.9347      0.438      0.635    27.0981   996.5089 0.0000e+00
      0.419     -0.095    10.4069    131.216     37.788  39.495924     3.6554      8.654   213.6931 1.1631e+02     3.9455      0.417      0.605    27.0841   996.5127 0.0000e+00
      0.382     -0.115    10.4188    131.592     37.756  39.535258     3.5844      8.647   213.7954 1.2506e+02     3.9514      0.377      0.548    27.0938   996.5099 0.0000e+00
      0.332     -0.113    10.4259    131.880     37.663  39.501977     3.4527      8.639   213.7171 1.3552e+02     3.9404      0.329      0.477    27.1288   996.4999 0.0000e+00
      0.279     -0.094    10.4214    131.905     37.612  39.474512     3.3812      8.636   213.6067 1.4287e+02     3.9440      0.266      0.386    27.1732   996.4873 0.0000e+00
      0.245     -0.063    10.4001    131.615     37.601  39.457147     3.3702      8.636   213.7512 1.4421e+02     3.9623      0.223      0.324    27.2402   996.4687 0.0000e+00
      0.246     -0.024    10.3641    131.113     37.580  39.418961     3.3804      8.636   213.9152 1.4098e+02     4.0298      0.236      0.342    27.3528   996.4376 0.0000e+00
      0.265      0.012    10.3272    130.586     37.574  39.393667     3.4095      8.638   213.8694 1.3764e+02     4.1380      0.264      0.383    27.4588   996.4081 0.0000e+00
      0.280      0.037    10.2988    130.151     37.609  39.405212     3.4265      8.642   213.7125 1.3531e+02     4.1892      0.274      0.398    27.4875   996.4000 0.0000e+00
      0.294      0.045    10.2738    129.778     37.652  39.431541     3.4387      8.646   213.6538 1.3149e+02     4.1897      0.287      0.416    27.4605   996.4076 0.0000e+00
      0.310      0.040    10.2484    129.435     37.684  39.458057     3.4712      8.650   213.6756 1.2850e+02     4.1770      0.308      0.445    27.4414   996.4131 0.0000e+00
      0.320      0.030    10.2309    129.216     37.697  39.471895     3.5155      8.653   213.7181 1.2847e+02     4.1675      0.318      0.460    27.4204   996.4189 0.0000e+00
      0.324      0.022    10.2304    129.220     37.693  39.471894     3.5403      8.656   213.8233 1.2855e+02     4.1724      0.318      0.461    27.3772   996.4311 0.0000e+00
      0.325      0.014    10.2426    129.382     37.677  39.458044     3.5456      8.658   213.8295 1.2808e+02     4.1709      0.319      0.462    27.3512   996.4383 0.0000e+00
      0.326      0.008    10.2603    129.601     37.654  39.431404     3.5452      8.661   213.6202 1.2863e+02     4.1827      0.320      0.464    27.3451   996.4399 0.0000e+00
      0.328      0.005    10.2791    129.815     37.634  39.403717     3.5523      8.662   213.4443 1.2890e+02     4.1834      0.321      0.466    27.3463   996.4396 0.0000e+00
      0.329      0.005    10.2949    129.971     37.623  39.377183     3.5795      8.662   213.4234 1.2876e+02     4.1797      0.323      0.469    27.3539   996.4375 0.0000e+00
      0.329      0.005    10.3063    130.055     37.629  39.364480     3.6055      8.663   213.5396 1.3009e+02     4.2031      0.323      0.469    27.3592   996.4361 0.0000e+00
      0.330      0.005    10.3115    130.065     37.658  39.377053     3.6148      8.664   213.7309 1.2975e+02     4.2033      0.322      0.467    27.3577   996.4365 0.0000e+00
      0.332      0.005    10.3107    130.038     37.688  39.402216     3.6484      8.665   213.4988 1.2805e+02     4.1827      0.326      0.472    27.3469   996.4395 0.0000e+00
      0.334      0.004    10.3097    130.045     37.693  39.414805     3.7262      8.666   212.9708 1.2831e+02     4.1837      0.329      0.477    27.3296   996.4443 0.0000e+00
      0.336      0.004    10.3123    130.107     37.672  39.402305     3.7846      8.667   212.7683 1.2872e+02     4.2161      0.329      0.477    27.2997   996.4526 0.0000e+00
      0.336      0.004    10.3155    130.167     37.643  39.378057     3.7993      8.669   212.7704 1.2811e+02     4.2465      0.330      0.479    27.2681   996.4613 0.0000e+00
      0.336      0.003    10.3173    130.190     37.640  39.375559     3.8086      8.669   212.8239 1.2784e+02     4.2233      0.330      0.478    27.2620   996.4631 0.0000e+00
      0.336      0.003    10.3208    130.210     37.645  39.372109     3.8279      8.671   212.8134 1.2780e+02     4.1653      0.329      0.477    27.2768   996.4590 0.0000e+00
      0.337      0.003    10.3256    130.225     37.625  39.336333     3.8409      8.673   212.5565 1.2800e+02     4.1344      0.330      0.479    27.2921   996.4548 0.0000e+00
      0.339      0.003    10.3274    130.202     37.626  39.323848     3.8451      8.673   212.2996 1.2815e+02     4.1770      0.333      0.482    27.3007   996.4524 0.0000e+00
      0.340      0.003    10.3294    130.212     37.654  39.348086     3.8784      8.674   212.2016 1.2735e+02     4.2877      0.334      0.484    27.3011   996.4522 0.0000e+00
      0.341      0.003    10.3367    130.323     37.675  39.375463     3.9317      8.674   212.1469 1.2687e+02     4.3913      0.334      0.484    27.2926   996.4546 0.0000e+00
      0.342      0.003    10.3467    130.488     37.687  39.400946     3.9516      8.674   212.1545 1.2637e+02     4.4137      0.335      0.486    27.2688   996.4612 0.0000e+00
      0.342      0.002    10.3568    130.658     37.676  39.402306     3.9546      8.675   212.4650 1.2604e+02     4.3949      0.335      0.487    27.2427   996.4684 0.0000e+00
      0.342      0.001    10.3670    130.815     37.657  39.391929     3.9680      8.677   212.9760 1.2709e+02     4.3599      0.336      0.487    27.2369   996.4701 0.0000e+00
      0.342      0.001    10.3740    130.916     37.663  39.402451     3.9833      8.678   213.1710 1.2727e+02     4.2858      0.335      0.487    27.2480   996.4671 0.0000e+00
      0.342      0.001    10.3750    130.932     37.662  39.402576     3.9922      8.679   212.9297 1.2547e+02     4.2199      0.336      0.488    27.2664   996.4619 0.0000e+00
      0.342      0.002    10.3706    130.881     37.652  39.393428     3.9797      8.679   212.6393 1.2434e+02     4.1864      0.336      0.487    27.2877   996.4560 0.0000e+00
      0.343      0.002    10.3601    130.757     37.674  39.418809     3.9630      8.680   213.1017 1.2499e+02     4.1753      0.336      0.487    27.3011   996.4522 0.0000e+00
      0.344      0.002    10.3428    130.548     37.706  39.455542     3.9803      8.681   214.2184 1.2571e+02     4.1842      0.337      0.489    27.3040   996.4514 0.0000e+00
      0.345      0.002    10.3226    130.303     37.703  39.456686     4.0159      8.682   214.8704 1.2630e+02     4.1954      0.337      0.489    27.3047   996.4513 0.0000e+00
      0.346      0.002    10.3070    130.112     37.678  39.432646     4.0293      8.682   214.7042 1.2635e+02     4.1794      0.339      0.491    27.3055   996.4511 0.0000e+00
      0.346      0.002    10.3001    130.018     37.668  39.418806     4.0301      8.682   214.1877 1.2608e+02     4.1544      0.340      0.493    27.3095   996.4499 0.0000e+00
      0.346      0.002    10.3009    130.013     37.670  39.416300     4.0601      8.682   214.1309 1.2577e+02     4.1550      0.339      0.492    27.3131   996.4489 0.0000e+00
      0.346      0.001    10.3071    130.078     37.661  39.402337     4.1150      8.681   214.6204 1.2529e+02     4.1876      0.339      0.492    27.3178   996.4476 0.0000e+00
      0.347      0.001    10.3172    130.187     37.642  39.376938     4.1471      8.681   215.0301 1.2598e+02     4.2206      0.340      0.493    27.3243   996.4458 0.0000e+00
      0.348      0.001    10.3287    130.305     37.637  39.363108     4.1532      8.681   215.2130 1.2615e+02     4.2267      0.341      0.494    27.3185   996.4474 0.0000e+00
      0.348      0.001    10.3384    130.400     37.644  39.362069     4.1288      8.681   215.2830 1.2550e+02     4.2610      0.341      0.495    27.3102   996.4497 0.0000e+00
      0.348      0.000    10.3451    130.462     37.654  39.364369     4.0773      8.681   215.1883 1.2528e+02     4.3410      0.341      0.494    27.3065   996.4508 0.0000e+00
      0.348     -0.004    10.3488    130.503     37.681  39.390904     4.0505      8.681   214.4116 1.2572e+02     4.4068      0.341      0.495    27.2980   996.4530 0.0000e+00
      0.348     -0.012    10.3511    130.549     37.712  39.428982     4.0475      8.679   213.2918 1.2562e+02     4.4346      0.342      0.497    27.2866   996.4562 0.0000e+00
      0.348     -0.021    10.3525    130.607     37.714  39.443889     4.0062      8.675   213.0922 1.2452e+02     4.2830      0.342      0.497    27.2735   996.4600 0.0000e+00
      0.344     -0.026    10.3541    130.681     37.698  39.444200     3.9324      8.669   213.7188 1.2531e+02     3.9828      0.339      0.492    27.2623   996.4630 0.0000e+00
      0.332     -0.026    10.3548    130.732     37.674  39.432770     3.9009      8.659   214.3283 1.2846e+02     3.8205      0.329      0.478    27.2581   996.4641 0.0000e+00
      0.314     -0.022    10.3485    130.677     37.666  39.432676     3.9035      8.650   213.7508 1.3202e+02     3.7955      0.307      0.445    27.2655   996.4620 0.0000e+00
      0.302     -0.017    10.3352    130.525     37.671  39.443074     3.8941      8.645   212.2423 1.3248e+02     3.9425      0.288      0.418    27.2848   996.4566 0.0000e+00
      0.305     -0.008    10.3216    130.370     37.655  39.431530     3.8739      8.643   211.5763 1.3006e+02     4.2207      0.297      0.430    27.3113   996.4493 0.0000e+00
      0.312      0.002    10.3115    130.264     37.637  39.420073     3.8581      8.640   211.5492 1.2832e+02     4.3408      0.309      0.450    27.3323   996.4435 0.0000e+00
      0.316      0.009    10.3031    130.180     37.642  39.431528     3.8516      8.639   211.8297 1.2721e+02     4.3464      0.310      0.450    27.3398   996.4414 0.0000e+00
      0.317      0.012    10.2954    130.099     37.648  39.443070     3.7949      8.640   212.0427 1.2681e+02     4.3874      0.310      0.449    27.3441   996.4402 0.0000e+00
      0.320      0.010    10.2891    130.029     37.635  39.432672     3.6842      8.641   211.2846 1.2651e+02     4.4424      0.314      0.455    27.3515   996.4381 0.0000e+00
      0.324      0.008    10.2830    129.959     37.633  39.432774     3.6217      8.642   210.4924 1.2478e+02     4.4548      0.318      0.461    27.3616   996.4353 0.0000e+00
      0.325      0.006    10.2762    129.879     37.642  39.444317     3.6123      8.645   210.2942 1.2289e+02     4.4378      0.318      0.462    27.3720   996.4325 0.0000e+00
      0.326      0.005    10.2699    129.804     37.641  39.445272     3.6141      8.648   210.3514 1.2269e+02     4.4338      0.319      0.463    27.3798   996.4303 0.0000e+00
      0.327      0.003    10.2648    129.739     37.640  39.444326     3.6339      8.650   210.5814 1.2346e+02     4.3748      0.320      0.464    27.3825   996.4295 0.0000e+00
      0.327      0.002    10.2624    129.699     37.632  39.432878     3.6617      8.652   211.1814 1.2325e+02     4.2809      0.321      0.465    27.3849   996.4289 0.0000e+00
      0.327      0.002    10.2657    129.717     37.640  39.433816     3.6722      8.654   211.9284 1.2206e+02     4.2485      0.321      0.466    27.3888   996.4278 0.0000e+00
      0.328      0.002    10.2749    129.798     37.672  39.455651     3.6655      8.654   211.9555 1.2084e+02     4.2127      0.321      0.466    27.3902   996.4274 0.0000e+00
      0.328      0.001    10.2874    129.920     37.671  39.442947     3.6507      8.654   211.3371 1.2104e+02     4.1112      0.322      0.467    27.3906   996.4272 0.0000e+00
      0.329      0.001    10.3009    130.068     37.644  39.407150     3.6236      8.655   210.8179 1.2267e+02     4.0039      0.322      0.468    27.3885   996.4279 0.0000e+00
      0.329      0.001    10.3155    130.236     37.646  39.403707     3.6057      8.655   211.7014 1.2284e+02     3.9646      0.323      0.468    27.3781   996.4308 0.0000e+00
      0.329      0.001    10.3294    130.391     37.651  39.401314     3.6085      8.655   213.5876 1.2160e+02     3.9966      0.323      0.468    27.3598   996.4359 0.0000e+00
      0.329      0.002    10.3372    130.462     37.637  39.378205     3.6650      8.656   214.2644 1.2141e+02     4.1282      0.322      0.468    27.3421   996.4408 0.0000e+00
      0.329      0.002    10.3373    130.442     37.644  39.378196     3.7777      8.657   213.6894 1.2232e+02     4.3106      0.323      0.469    27.3331   996.4433 0.0000e+00
      0.330      0.002    10.3363    130.415     37.670  39.401193     3.8444      8.659   213.0019 1.2272e+02     4.3991      0.324      0.470    27.3296   996.4442 0.0000e+00
      0.331      0.002    10.3389    130.443     37.672  39.402329     3.8557      8.661   213.1799 1.2262e+02     4.4118      0.324      0.471    27.3196   996.4470 0.0000e+00
      0.332      0.002    10.3437    130.508     37.661  39.391930     3.8877      8.663   214.1204 1.2274e+02     4.3006      0.325      0.472    27.3062   996.4508 0.0000e+00
      0.332      0.002    10.3474    130.558     37.670  39.402431     3.9377      8.665   214.6519 1.2222e+02     4.0709      0.325      0.472    27.2965   996.4535 0.0000e+00
      0.332      0.002    10.3491    130.579     37.670  39.402338     3.9648      8.668   214.7004 1.2222e+02     3.9606      0.325      0.472    27.2896   996.4554 0.0000e+00
      0.332      0.003    10.3490    130.574     37.660  39.390807     3.9730      8.671   214.5359 1.2279e+02     3.9829      0.326      0.473    27.2883   996.4557 0.0000e+00
      0.332      0.004    10.3460    130.539     37.659  39.389968     3.9767      8.674   214.2119 1.2262e+02     3.9802      0.326      0.473    27.2920   996.4547 0.0000e+00
      0.333      0.004    10.3402    130.470     37.659  39.392195     3.9492      8.676   213.7083 1.2164e+02     3.9934      0.325      0.472    27.2946   996.4541 0.0000e+00
      0.335      0.000    10.3349    130.406     37.683  39.417737     3.8917      8.676   213.0068 1.1965e+02     4.0771      0.328      0.476    27.2939   996.4542 0.0000e+00
      0.338     -0.011    10.3324    130.382     37.706  39.444868     3.8617      8.676   212.6130 1.1770e+02     4.1396      0.332      0.482    27.2909   996.4551 0.0000e+00
      0.339     -0.035    10.3292    130.377     37.716  39.466318     3.8561      8.673   212.6461 1.1645e+02     4.1592      0.333      0.484    27.2911   996.4550 0.0000e+00
      0.337     -0.075    10.3230    130.385     37.769  39.550144     3.7622      8.665   212.6330 1.1734e+02     4.0520      0.333      0.483    27.2949   996.4540 0.0000e+00
      0.325     -0.135    10.3136    130.433     37.857  39.696673     3.5848      8.655   211.3366 1.2144e+02     3.8266      0.327      0.474    27.2968   996.4534 0.0000e+00
      0.294     -0.209    10.3026    130.563     37.912  39.841496     3.4884      8.647   209.0168 1.2914e+02     3.7285      0.297      0.432    27.2942   996.4540 0.0000e+00
      0.235     -0.284    10.2917    130.762     37.927  39.968215     3.4809      8.641   207.8139 1.4592e+02     3.7502      0.240      0.348    27.3066   996.4503 0.0000e+00
      0.145     -0.342    10.2757    130.934     37.922  40.086330     3.4515      8.635   208.1499 1.7313e+02     3.7946      0.153      0.223    27.3417   996.4401 0.0000e+00
      0.026     -0.366    10.2497    130.989     37.902  40.190602     3.3928      8.627   208.9494 1.9620e+02     3.8720      0.031      0.047    27.4024   996.4228 0.0000e+00
     -0.108     -0.352    10.2071    130.776     37.881  40.276921     3.3609      8.622   208.1035 2.0290e+02     4.0305     -0.109     -0.158    27.5303   996.3865 0.0000e+00
     -0.228     -0.316    10.1423    130.190     37.831  40.304903     3.3442      8.621   205.4939 1.9992e+02     5.0221     -0.241     -0.349    27.6821   996.3433 0.0000e+00
     -0.304     -0.270    10.0598    129.300     37.751  40.275124     3.2164      8.621   203.8969 1.9827e+02    15.5013     -0.319     -0.462    27.8383   996.2989 0.0000e+00
     -0.331     -0.218     9.9633    128.153     37.683  40.234372     2.9942      8.619   203.9363 1.9858e+02    34.7116     -0.332     -0.481    28.0245   996.2460 0.0000e+00
     -0.342     -0.165     9.8464    126.693     37.631  40.193125     2.8690      8.618   204.3356 1.9505e+02    45.1150     -0.319     -0.462    28.1706   996.2045 0.0000e+00
     -0.381     -0.122     9.6987    124.806     37.593  40.157329     2.8117      8.619   205.1118 1.8801e+02    45.3643     -0.362     -0.525    28.2728   996.1751 0.0000e+00
     -0.439     -0.088     9.5237    122.547     37.559  40.118974     2.3286      8.621   207.2982 1.8403e+02    38.0211     -0.447     -0.648    28.3503   996.1524 0.0000e+00
     -0.470     -0.048     9.3460    120.244     37.557  40.110278     1.4401      8.617   209.7779 1.8462e+02    24.3956     -0.473     -0.685    28.3853   996.1422 0.0000e+00
     -0.475      0.012     9.1892    118.225     37.622  40.179133     0.9647      8.612   210.0558 1.8627e+02    16.9199     -0.464     -0.672    28.4013   996.1376 0.0000e+00
     -0.472      0.086     9.0785    116.839     37.678  40.253178     0.9847      8.613   208.6802 1.8865e+02    15.9624     -0.468     -0.679    28.4077   996.1358 0.0000e+00
     -0.447      0.150     9.0448    116.453     37.653  40.243776     1.5690      8.619   207.8573 1.9453e+02    12.9173     -0.458     -0.663    28.4026   996.1373 0.0000e+00
     -0.380      0.190     9.1016    117.181     37.606  40.192452     2.6453      8.624   208.7961 2.0349e+02     7.4669     -0.386     -0.558    28.3905   996.1411 0.0000e+00
     -0.289      0.213     9.2233    118.671     37.583  40.140485     3.2481      8.627   210.3950 2.1110e+02     4.4964     -0.273     -0.396    28.3825   996.1439 0.0000e+00
     -0.217      0.221     9.3608    120.304     37.553  40.059784     3.3171      8.630   210.4982 2.1506e+02     4.2360     -0.199     -0.288    28.4066   996.1374 0.0000e+00
     -0.174      0.209     9.4797    121.656     37.534  39.978418     3.3142      8.636   209.6133 2.1756e+02     4.2205     -0.169     -0.245    28.4456   996.1262 0.0000e+00
     -0.137      0.183     9.5682    122.597     37.541  39.918374     3.3001      8.643   209.1599 2.2024e+02     4.1441     -0.141     -0.204    28.4462   996.1261 0.0000e+00
     -0.089      0.160     9.6260    123.133     37.535  39.841547     3.3019      8.646   209.9211 2.2049e+02     4.0334     -0.088     -0.126    28.4043   996.1384 0.0000e+00
     -0.045      0.149     9.6558    123.286     37.520  39.747696     3.3104      8.651   211.3314 2.1970e+02     3.9962     -0.035     -0.051    28.3385   996.1576 0.0000e+00
     -0.019      0.141     9.6613    123.111     37.530  39.672246     3.3167      8.660   211.8424 2.1263e+02     3.9892     -0.020     -0.028    28.2533   996.1821 0.0000e+00
      0.010      0.129     9.6613    122.884     37.561  39.627444     3.3427      8.669   211.4539 1.9089e+02     3.9489     -0.001     -0.002    28.1591   996.2091 0.0000e+00
      0.054      0.114     9.6789    122.936     37.578  39.586759     3.3902      8.677   210.8501 1.6884e+02     3.9347      0.055      0.081    28.0688   996.2351 0.0000e+00
      0.092      0.098     9.7109    123.220     37.593  39.561126     3.4152      8.683   210.3931 1.6006e+02     3.9489      0.100      0.146    27.9674   996.2641 0.0000e+00
      0.111      0.082     9.7394    123.484     37.635  39.571384     3.4191      8.689   210.3162 1.5773e+02     3.9565      0.110      0.158    27.8447   996.2989 0.0000e+00
      0.123      0.062     9.7629    123.708     37.671  39.583770     3.4459      8.695   210.5222 1.5334e+02     3.9614      0.118      0.171    27.7332   996.3304 0.0000e+00
      0.136      0.042     9.7911    124.028     37.684  39.583876     3.4796      8.700   210.7325 1.5004e+02     3.9419      0.136      0.197    27.6580   996.3517 0.0000e+00
      0.143      0.027     9.8234    124.433     37.675  39.572647     3.4881      8.704   210.9669 1.5245e+02     3.9499      0.142      0.207    27.6084   996.3656 0.0000e+00
      0.145      0.019     9.8530    124.822     37.672  39.574963     3.4886      8.708   211.1190 1.5457e+02     3.9934      0.141      0.206    27.5628   996.3784 0.0000e+00
      0.147      0.014     9.8808    125.200     37.698  39.611886     3.4934      8.712   210.2490 1.5154e+02     4.0088      0.144      0.210    27.5242   996.3893 0.0000e+00
      0.149      0.012     9.9092    125.594     37.713  39.638210     3.4949      8.715   208.7068 1.4911e+02     4.0048      0.146      0.211    27.5090   996.3935 0.0000e+00
      0.150      0.014     9.9375    125.982     37.705  39.639342     3.4887      8.715   208.5616 1.4758e+02     3.9785      0.146      0.212    27.5109   996.3929 0.0000e+00
      0.154      0.022     9.9654    126.352     37.686  39.625583     3.4795      8.714   209.6120 1.4738e+02     3.9530      0.151      0.219    27.5165   996.3914 0.0000e+00
      0.158      0.037     9.9926    126.682     37.665  39.598827     3.4878      8.711   210.3083 1.4977e+02     4.0894      0.155      0.224    27.5294   996.3878 0.0000e+00
      0.163      0.056    10.0140    126.897     37.655  39.569756     3.5198      8.706   210.0111 1.4839e+02     4.3491      0.159      0.230    27.5481   996.3826 0.0000e+00
      0.175      0.077    10.0216    126.926     37.637  39.527979     3.5457      8.705   209.2885 1.4355e+02     4.4387      0.167      0.242    27.5596   996.3795 0.0000e+00
      0.200      0.098    10.0181    126.809     37.609  39.474545     3.5488      8.705   209.4014 1.3790e+02     4.3857      0.191      0.277    27.5716   996.3761 0.0000e+00
      0.235      0.116    10.0071    126.589     37.594  39.431505     3.5401      8.705   209.9987 1.3175e+02     4.3643      0.231      0.336    27.5684   996.3772 0.0000e+00
      0.273      0.131     9.9872    126.251     37.580  39.388427     3.5366      8.707   210.6594 1.2515e+02     4.3438      0.269      0.390    27.5354   996.3866 0.0000e+00
      0.309      0.140     9.9686    125.925     37.558  39.334531     3.5488      8.709   211.2808 1.1773e+02     4.3019      0.301      0.437    27.5052   996.3952 0.0000e+00
      0.346      0.144     9.9648    125.768     37.549  39.287641     3.5578      8.712   211.3174 1.1133e+02     4.2517      0.339      0.492    27.4770   996.4032 0.0000e+00
      0.382      0.144     9.9713    125.720     37.569  39.265793     3.5512      8.716   211.1885 1.0676e+02     4.1954      0.376      0.544    27.4368   996.4146 0.0000e+00
      0.417      0.144     9.9821    125.725     37.606  39.260738     3.5640      8.720   211.4435 1.0151e+02     4.2434      0.408      0.591    27.3985   996.4255 0.0000e+00
      0.455      0.147    10.0001    125.830     37.612  39.226457     3.5990      8.720   211.8185 9.5061e+01     4.4061      0.446      0.647    27.3632   996.4355 0.0000e+00
      0.493      0.152    10.0168    125.925     37.594  39.168629     3.6110      8.719   212.0230 8.9797e+01     4.4584      0.486      0.705    27.3127   996.4496 0.0000e+00
      0.528      0.153    10.0241    125.900     37.596  39.132801     3.6140      8.720   212.5396 8.5814e+01     4.3840      0.517      0.751    27.2510   996.4669 0.0000e+00
      0.566      0.148    10.0323    125.893     37.610  39.110606     3.7642      8.726   213.4183 8.1327e+01     4.2929      0.550      0.798    27.1917   996.4836 0.0000e+00
      0.611      0.136    10.0542    126.078     37.620  39.090656     4.0488      8.732   213.8720 7.6180e+01     4.2095      0.599      0.868    27.1392   996.4983 0.0000e+00
      0.658      0.125    10.0941    126.522     37.630  39.081982     4.2030      8.736   213.7229 7.2392e+01     4.1952      0.652      0.947    27.0887   996.5124 0.0000e+00
      0.689      0.117    10.1490    127.174     37.629  39.069172     4.2156      8.738   213.3364 7.0951e+01     4.2179      0.686      0.994    27.0355   996.5272 0.0000e+00
      0.702      0.109    10.2059    127.843     37.636  39.062722     4.2533      8.741   213.6725 7.0107e+01     4.1896      0.688      0.998    26.9857   996.5410 0.0000e+00
      0.714      0.104    10.2491    128.323     37.660  39.067441     4.3295      8.743   214.9480 6.7824e+01     4.1473      0.692      1.004    26.9416   996.5530 0.0000e+00
      0.743      0.106    10.2772    128.615     37.675  39.062718     4.3830      8.744   215.8523 6.4576e+01     4.1649      0.724      1.051    26.9182   996.5597 0.0000e+00
      0.779      0.117    10.2972    128.821     37.695  39.069068     4.4135      8.745   215.7441 6.1871e+01     4.2057      0.769      1.115    26.9102   996.5620 0.0000e+00
      0.809      0.131    10.2961    128.771     37.717  39.080715     4.4908      8.748   215.1888 5.9758e+01     4.2481      0.796      1.153    26.8927   996.5670 0.0000e+00
      0.839      0.140    10.2648    128.347     37.723  39.076562     4.6064      8.752   214.9030 5.7081e+01     4.3164      0.816      1.184    26.8613   996.5757 0.0000e+00
      0.880      0.141    10.2348    127.944     37.737  39.082318     4.6668      8.756   215.1278 5.3541e+01     4.3761      0.860      1.248    26.8318   996.5840 0.0000e+00
      0.925      0.141    10.2326    127.894     37.748  39.086808     4.6740      8.759   215.5833 5.0568e+01     4.4128      0.911      1.322    26.8155   996.5887 0.0000e+00
      0.963      0.141    10.2444    128.015     37.738  39.067371     4.6765      8.761   215.9358 4.8638e+01     4.4326      0.947      1.374    26.8018   996.5926 0.0000e+00
      0.993      0.141    10.2528    128.086     37.720  39.037726     4.7487      8.762   216.1203 4.6730e+01     4.4843      0.972      1.409    26.7858   996.5970 0.0000e+00
      1.024      0.140    10.2611    128.151     37.679  38.982280     4.8888      8.762   216.0936 4.4648e+01     4.5793      1.003      1.455    26.7745   996.6003 0.0000e+00
      1.058      0.140    10.2780    128.304     37.622  38.904787     4.9661      8.764   215.6127 4.2663e+01     4.6304      1.038      1.505    26.7667   996.6026 0.0000e+00
      1.094      0.140    10.3104    128.599     37.616  38.862483     4.9899      8.768   215.0390 4.0509e+01     4.6440      1.070      1.553    26.7551   996.6058 0.0000e+00
      1.135      0.139    10.3594    129.021     37.665  38.851602     5.1332      8.773   215.0931 3.8220e+01     4.6127      1.112      1.613    26.7402   996.6101 0.0000e+00
      1.176      0.136    10.4114    129.424     37.665  38.773140     5.3805      8.777   215.4931 3.6297e+01     4.5132      1.156      1.678    26.7234   996.6148 0.0000e+00
      1.211      0.133    10.4511    129.641     37.594  38.611950     5.5010      8.782   215.8306 3.4952e+01     4.4247      1.190      1.727    26.7047   996.6200 0.0000e+00
      1.238      0.129    10.4706    129.578     37.509  38.426010     5.5058      8.787   215.9054 3.3757e+01     4.3950      1.213      1.759    26.6641   996.6312 0.0000e+00
      1.265      0.127    10.4773    129.335     37.365  38.175229     5.5861      8.791   215.8814 3.2283e+01     4.4487      1.238      1.796    26.5780   996.6547 0.0000e+00
      1.298      0.129    10.4983    129.269     37.036  37.737841     5.7435      8.792   216.3147 3.0781e+01     4.5825      1.274      1.848    26.4668   996.6850 0.0000e+00
      1.332      0.135    10.5605    129.691     36.550  37.136397     5.8300      8.787   216.9285 2.9507e+01     4.6692      1.309      1.898    26.3515   996.7161 0.0000e+00
      1.364      0.141    10.6779    130.719     36.223  36.679235     5.8264      8.777   217.5370 2.8154e+01     4.6442      1.336      1.938    26.2205   996.7514 0.0000e+00
      1.401      0.144    10.8567    132.385     36.226  36.526346     5.8387      8.764   218.3381 2.6576e+01     4.5437      1.371      1.989    26.0753   996.7903 0.0000e+00
      1.444      0.144    11.0732    134.420     36.370  36.493576     5.8926      8.749   219.5587 2.5042e+01     4.4363      1.417      2.055    25.9397   996.8265 0.0000e+00
      1.486      0.143    11.2625    136.135     36.520  36.473158     5.9311      8.733   221.8852 2.3750e+01     4.4277      1.460      2.118    25.8048   996.8622 0.0000e+00
      1.523      0.141    11.3441    136.661     36.651  36.469629     5.9846      8.716   225.0433 2.2723e+01     4.4712      1.496      2.169    25.6385   996.9059 0.0000e+00
      1.554      0.135    11.2346    134.984     36.739  36.450711     6.5044      8.700   227.2856 2.1811e+01     4.6027      1.524      2.210    25.4224   996.9626 0.0000e+00
      1.584      0.127    10.8659    130.217     36.829  36.434691     7.4467      8.685   228.0036 2.0836e+01     4.8701      1.552      2.250    25.1603   997.0306 0.0000e+00
      1.619      0.119    10.1951    121.853     36.970  36.466181     7.9631      8.671   228.3028 1.9857e+01     5.0505      1.588      2.303    24.9070   997.0958 0.0000e+00
      1.654      0.114     9.2487    110.278     37.117  36.513946     8.0138      8.657   228.9245 1.9087e+01     5.0800      1.626      2.358    24.7296   997.1412 0.0000e+00
      1.680      0.109     8.1385     96.843     37.190  36.504294     8.0517      8.643   229.8423 1.8527e+01     5.0625      1.650      2.393    24.6051   997.1728 0.0000e+00
      1.703      0.104     6.9723     82.815     37.236  36.476302     8.4383      8.630   230.8819 1.7962e+01     4.9370      1.667      2.418    24.4623   997.2089 0.0000e+00
      1.728      0.099     5.8336     69.170     37.324  36.492755     9.1424      8.616   231.8583 1.7383e+01     4.7424      1.694      2.457    24.3051   997.2483 0.0000e+00
      1.753      0.099     4.7953     56.759     37.418  36.512708     9.5254      8.602   232.5275 1.6892e+01     4.6437      1.721      2.497    24.1740   997.2812 0.0000e+00
      1.775      0.101     3.8953     46.023     37.507  36.527029     9.5570      8.588   232.7778 1.6384e+01     4.6278      1.740      2.524    24.0691   997.3073 0.0000e+00
      1.799      0.106     3.1638     37.311     37.595  36.538861     9.5331      8.575   232.9921 1.5779e+01     4.5505      1.762      2.556    23.9731   997.3311 0.0000e+00
      1.829      0.112     2.6258     30.908     37.661  36.528724     9.4806      8.561   233.5696 1.5152e+01     4.3639      1.793      2.600    23.8805   997.3540 0.0000e+00
      1.859      0.121     2.2459     26.386     37.741  36.531298     9.4411      8.548   234.2541 1.4582e+01     4.2403      1.824      2.646    23.7858   997.3773 0.0000e+00
      1.889      0.132     1.9676     23.069     37.865  36.569872     9.4027      8.534   234.8151 1.3990e+01     4.2036      1.851      2.685    23.6882   997.4014 0.0000e+00
      1.921      0.142     1.7586     20.573     38.002  36.614172     9.0946      8.522   235.4484 1.3288e+01     3.9526      1.881      2.729    23.5893   997.4256 0.0000e+00
      1.959      0.149     1.5934     18.597     38.107  36.622486     8.5328      8.511   235.9751 1.2508e+01     3.4981      1.919      2.783    23.4920   997.4492 0.0000e+00
      2.002      0.149     1.4549     16.941     38.189  36.606794     8.2203      8.501   236.1069 1.1698e+01     3.2638      1.962      2.846    23.3951   997.4728 0.0000e+00
      2.047      0.143     1.3300     15.455     38.284  36.614723     8.1419      8.491   236.1812 1.0943e+01     3.2500      2.009      2.914    23.2879   997.4989 0.0000e+00
      2.089      0.133     1.2080     14.013     38.395  36.654755     7.6375      8.481   236.4434 1.0328e+01     2.9380      2.052      2.976    23.1717   997.5269 0.0000e+00
      2.123      0.123     1.0855     12.575     38.508  36.709887     6.7250      8.472   236.7828 9.9163e+00     2.3109      2.086      3.026    23.0474   997.5567 0.0000e+00
      2.146      0.116     0.9671     11.189     38.628  36.773467     6.2215      8.462   237.4455 9.6585e+00     1.9601      2.106      3.055    22.9180   997.5874 0.0000e+00
      2.164      0.115     0.8619      9.959     38.771  36.852172     6.1617      8.451   238.3470 9.3796e+00     1.9408      2.120      3.075    22.8064   997.6138 0.0000e+00
      2.188      0.118     0.7789      8.988     38.947  36.963202     6.0891      8.441   238.8206 8.9743e+00     1.9140      2.141      3.106    22.7209   997.6339 0.0000e+00
      2.220      0.121     0.7204      8.300     39.153  37.100262     5.9591      8.431   238.7838 8.4717e+00     1.8321      2.174      3.153    22.6592   997.6486 0.0000e+00
      2.260      0.122     0.6825      7.850     39.305  37.176322     5.8813      8.422   238.6763 7.9802e+00     1.7697      2.216      3.213    22.6012   997.6623 0.0000e+00
      2.301      0.121     0.6579      7.554     39.383  37.184524     5.8682      8.413   239.3270 7.6012e+00     1.7502      2.259      3.277    22.5178   997.6820 0.0000e+00
      2.336      0.119     0.6395      7.334     39.458  37.199343     5.8610      8.405   240.7145 7.3934e+00     1.7270      2.297      3.330    22.4458   997.6989 0.0000e+00
      2.357      0.116     0.6268      7.179     39.546  37.228471     5.8635      8.396   241.5142 7.2796e+00     1.7190      2.313      3.356    22.3816   997.7139 0.0000e+00
      2.373      0.113     0.6204      7.095     39.665  37.282734     5.8722      8.388   241.5974 7.0921e+00     1.7509      2.322      3.368    22.2844   997.7363 0.0000e+00
      2.398      0.112     0.6180      7.058     39.799  37.347544     5.8707      8.381   241.5474 6.8025e+00     1.7520      2.348      3.405    22.1959   997.7567 0.0000e+00
      2.435      0.113     0.6184      7.051     39.899  37.377250     5.8630      8.373   241.5126 6.5115e+00     1.7333      2.389      3.465    22.1342   997.7710 0.0000e+00
      2.472      0.113     0.6205      7.063     39.981  37.387922     5.8060      8.366   241.6927 6.2789e+00     1.7543      2.427      3.519    22.0666   997.7866 0.0000e+00
      2.504      0.110     0.6240      7.093     40.074  37.413009     5.6921      8.359   242.0902 6.1049e+00     1.7764      2.458      3.563    21.9916   997.8038 0.0000e+00
      2.531      0.105     0.6297      7.148     40.149  37.426594     5.6306      8.352   242.5329 5.9869e+00     1.7712      2.485      3.604    21.9173   997.8208 0.0000e+00
      2.552      0.100     0.6371      7.223     40.200  37.425134     5.6252      8.344   243.0020 5.8938e+00     1.7571      2.505      3.632    21.8356   997.8394 0.0000e+00
      2.571      0.099     0.6461      7.317     40.285  37.458773     5.6352      8.337   243.5459 5.7776e+00     1.7366      2.519      3.653    21.7509   997.8585 0.0000e+00
      2.594      0.101     0.6526      7.383     40.396  37.515880     5.6652      8.330   243.2587 5.6369e+00     1.7201      2.542      3.686    21.6714   997.8765 0.0000e+00
      2.621      0.105     0.6532      7.381     40.480  37.544269     5.6851      8.322   242.1964 5.4954e+00     1.7206      2.570      3.728    21.6014   997.8922 0.0000e+00
      2.651      0.108     0.6495      7.331     40.538  37.548046     5.7020      8.315   241.8874 5.3388e+00     1.7100      2.598      3.768    21.5417   997.9057 0.0000e+00
      2.684      0.108     0.6445      7.265     40.603  37.561473     5.7654      8.308   242.5340 5.1743e+00     1.6909      2.633      3.818    21.4868   997.9180 0.0000e+00
      2.714      0.107     0.6420      7.229     40.671  37.579593     5.8714      8.302   243.5615 5.0507e+00     1.7190      2.665      3.864    21.4313   997.9305 0.0000e+00
      2.739      0.107     0.6416      7.217     40.786  37.640124     5.9353      8.296   244.3305 4.9575e+00     1.7880      2.686      3.896    21.3691   997.9444 0.0000e+00
      2.761      0.109     0.6396      7.187     40.999  37.785475     5.9397      8.289   244.0875 4.8595e+00     1.8357      2.707      3.926    21.3059   997.9583 0.0000e+00
      2.784      0.114     0.6366      7.143     41.234  37.940470     5.9407      8.281   243.1189 4.7384e+00     1.7714      2.729      3.959    21.2476   997.9712 0.0000e+00
      2.812      0.118     0.6361      7.124     41.435  38.054105     5.9561      8.274   242.6862 4.5648e+00     1.6004      2.753      3.994    21.1932   997.9833 0.0000e+00
      2.847      0.121     0.6389      7.143     41.615  38.143684     5.9700      8.269   242.9000 4.3650e+00     1.5056      2.789      4.046    21.1398   997.9951 0.0000e+00
      2.886      0.122     0.6436      7.181     41.762  38.198258     5.9621      8.263   243.3800 4.2050e+00     1.5424      2.833      4.109    21.0806   998.0083 0.0000e+00
      2.921      0.122     0.6457      7.190     41.867  38.206028     5.8083      8.257   244.1874 4.0955e+00     1.5215      2.869      4.161    21.0057   998.0248 0.0000e+00
      2.947      0.117     0.6408      7.119     41.947  38.174023     5.5152      8.250   244.7467 4.0029e+00     1.3849      2.891      4.193    20.9171   998.0441 0.0000e+00
      2.972      0.112     0.6278      6.957     42.015  38.128542     5.3489      8.244   244.9812 3.8970e+00     1.2985      2.912      4.224    20.8257   998.0640 0.0000e+00
      3.000      0.110     0.6052      6.694     42.068  38.100311     5.3321      8.238   245.3016 3.7863e+00     1.2962      2.943      4.269    20.7311   998.0844 0.0000e+00
      3.028      0.115     0.5719      6.319     42.033  38.023016     5.3202      8.233   245.6089 3.6991e+00     1.3244      2.972      4.312    20.6334   998.1054 0.0000e+00
      3.053      0.124     0.5294      5.841     41.961  37.892166     5.1616      8.229   245.8571 3.6245e+00     1.3449      2.993      4.342    20.5035   998.1332 0.0000e+00
      3.081      0.131     0.4813      5.295     41.914  37.724202     4.8623      8.224   247.0118 3.5163e+00     1.3152      3.016      4.374    20.3513   998.1653 0.0000e+00
      3.120      0.134     0.4336      4.751     41.803  37.451971     4.6920      8.220   248.9878 3.3716e+00     1.2931      3.057      4.434    20.2590   998.1848 0.0000e+00
      3.165      0.133     0.3929      4.286     41.728  37.202937     4.6631      8.216   250.0463 3.2346e+00     1.3065      3.107      4.506    20.2348   998.1902 0.0000e+00
      3.205      0.131     0.3645      3.961     41.825  37.124990     4.5482      8.211   249.9147 3.1452e+00     1.3135      3.146      4.563    20.1795   998.2018 0.0000e+00
      3.236      0.130     0.3500      3.790     42.000  37.144055     4.3346      8.207   249.4618 3.0918e+00     1.3119      3.176      4.607    20.0181   998.2355 0.0000e+00
      3.260      0.128     0.3465      3.743     42.018  37.052424     4.2218      8.203   250.1631 3.0304e+00     1.3202      3.199      4.640    19.7934   998.2816 0.0000e+00
      3.283      0.126     0.3505      3.776     41.819  36.778635     4.2249      8.198   252.0272 2.9412e+00     1.3167      3.215      4.664    19.5637   998.3282 0.0000e+00
      3.315      0.126     0.3617      3.886     41.629  36.499486     4.2680      8.194   253.2437 2.8312e+00     1.3018      3.245      4.707    19.3638   998.3685 0.0000e+00
      3.357      0.128     0.3807      4.078     41.588  36.343006     4.3439      8.191   253.6017 2.7386e+00     1.3036      3.294      4.777    19.2010   998.4011 0.0000e+00
      3.398      0.128     0.4005      4.278     41.656  36.282893     4.3889      8.188   253.6012 2.6830e+00     1.3054      3.337      4.840    19.0803   998.4251 0.0000e+00
      3.429      0.122     0.4151      4.420     41.795  36.280299     4.3957      8.186   253.5822 2.6348e+00     1.2908      3.363      4.879    18.9795   998.4450 0.0000e+00
      3.455      0.109     0.4242      4.505     41.973  36.311485     4.3821      8.183   253.6294 2.5678e+00     1.3237      3.386      4.913    18.8375   998.4726 0.0000e+00
      3.484      0.096     0.4289      4.543     42.126  36.342434     4.3549      8.179   253.9136 2.5000e+00     1.4407      3.417      4.957    18.6858   998.5020 0.0000e+00
      3.510      0.091     0.4322      4.569     42.353  36.463949     4.3434      8.175   254.6962 2.4645e+00     1.5262      3.447      5.000    18.5482   998.5285 0.0000e+00
      3.525      0.092     0.4356      4.598     42.788  36.765045     4.3388      8.171   255.2619 2.4484e+00     1.5387      3.459      5.017    18.4017   998.5565 0.0000e+00
      3.536      0.093     0.4378      4.611     43.246  37.063074     4.3260      8.167   255.4192 2.4178e+00     1.5265      3.462      5.020    18.2408   998.5868 0.0000e+00
      3.559      0.094     0.4354      4.574     43.545  37.210931     4.2663      8.164   254.7047 2.3594e+00     1.5093      3.484      5.052    18.1135   998.6107 0.0000e+00
      3.595      0.098     0.4256      4.460     43.826  37.346607     4.1638      8.159   253.5071 2.2789e+00     1.5274      3.528      5.117    18.0454   998.6236 0.0000e+00
      3.629      0.108     0.4075      4.261     44.425  37.751250     4.1098      8.155   253.5863 2.2092e+00     1.5481      3.565      5.169    17.9725   998.6375 0.0000e+00
      3.652      0.119     0.3824      3.986     45.670  38.675529     4.0813      8.150   254.1993 2.1724e+00     1.5309      3.581      5.194    17.8529   998.6597 0.0000e+00
      3.672      0.128     0.3527      3.661     47.188  39.761614     3.8280      8.144   254.8970 2.1334e+00     1.5150      3.597      5.217    17.7198   998.6840 0.0000e+00
      3.702      0.135     0.3187      3.290     48.433  40.535277     3.3793      8.138   255.9990 2.0615e+00     1.5201      3.625      5.258    17.6013   998.7057 0.0000e+00
      3.743      0.141     0.2817      2.887     49.823  41.363659     3.1468      8.131   255.7370 1.9744e+00     1.5271      3.668      5.321    17.4927   998.7256 0.0000e+00
      3.789      0.146     0.2477      2.521     51.436  42.348950     3.1579      8.124   254.1376 1.8876e+00     1.5342      3.718      5.393    17.3706   998.7481 0.0000e+00
      3.833      0.146     0.2212      2.236     52.691  43.051353     3.4267      8.117   253.1809 1.8091e+00     1.5727      3.762      5.457    17.1607   998.7860 0.0000e+00
      3.869      0.140     0.2022      2.031     53.527  43.443223     3.9169      8.109   252.9447 1.7479e+00     1.6654      3.795      5.506    16.8655   998.8377 0.0000e+00
      3.901      0.130     0.1903      1.902     54.113  43.657946     4.1870      8.099   252.6580 1.6993e+00     1.7699      3.826      5.549    16.5208   998.8969 0.0000e+00
      3.930      0.120     0.1840      1.830     54.434  43.678871     4.2310      8.089   251.9523 1.6550e+00     1.8195      3.855      5.591    16.1552   998.9586 0.0000e+00
      3.958      0.114     0.1820      1.802     54.565  43.568952     4.3792      8.079   249.6607 1.6134e+00     1.9058      3.881      5.629    15.8363   999.0109 0.0000e+00
      3.986      0.114     0.1840      1.814     54.850  43.598592     4.6436      8.070   244.7392 1.5660e+00     2.0922      3.910      5.670    15.5707   999.0535 0.0000e+00
      4.013      0.115     0.1880      1.848     55.476  43.910026     4.7920      8.061   237.1016 1.5144e+00     2.2377      3.936      5.709    15.3299   999.0913 0.0000e+00
      4.041      0.116     0.1920      1.880     56.163  44.286393     4.7945      8.051   226.0601 1.4641e+00     2.2889      3.960      5.745    15.1102   999.1252 0.0000e+00
      4.072      0.116     0.1948      1.903     57.123  44.910638     4.6826      8.040   214.4836 1.4088e+00     2.3826      3.992      5.790    14.9140   999.1551 0.0000e+00
      4.107      0.115     0.1963      1.914     58.953  46.250486     4.4720      8.029   207.1766 1.3569e+00     2.5517      4.030      5.843    14.7368   999.1816 0.0000e+00
      4.139      0.112     0.1979      1.927     61.117  47.849034     4.3453      8.019   203.0151 1.3093e+00     2.6297      4.061      5.890    14.5702   999.2065 0.0000e+00
      4.165      0.108     0.2001      1.944     62.652  48.933317     4.3210      8.009   199.7013 1.2642e+00     2.6047      4.085      5.924    14.4107   999.2298 0.0000e+00
      4.190      0.104     0.1999      1.938     63.634  49.579718     4.2825      7.998   197.3961 1.2345e+00     2.5768      4.107      5.956    14.2918   999.2471 0.0000e+00
      4.215      0.102     0.1976      1.912     65.321  50.773928     4.2261      7.984   195.3620 1.2184e+00     2.5876      4.132      5.993    14.2276   999.2571 0.0000e+00
      4.240      0.104     0.1959      1.892     67.731  52.510368     4.2032      7.969   192.9177 1.2006e+00     2.6375      4.159      6.032    14.1536   999.2685 0.0000e+00
      4.264      0.109     0.1933      1.862     69.041  53.360324     4.2048      7.951   190.6426 1.1651e+00     2.6560      4.181      6.064    14.0483   999.2840 0.0000e+00
      4.290      0.114     0.1892      1.817     68.374  52.665509     4.1763      7.934   188.3305 1.1089e+00     2.6470      4.204      6.098    13.9508   999.2977 0.0000e+00
      4.322      0.117     0.1882      1.802     65.824  50.525090     3.8760      7.918   185.3536 1.0527e+00     2.6919      4.237      6.145    13.8684   999.3097 0.0000e+00
      4.357      0.117     0.1886      1.799     61.914  47.362253     3.3301      7.902   182.5258 1.0187e+00     2.7732      4.274      6.199    13.7724   999.3243 0.0000e+00
      4.391      0.116     0.1857      1.766     57.654  43.957090     3.0297      7.889   180.4678 9.8900e-01     2.8431      4.309      6.250    13.6452   999.3421 0.0000e+00
      4.420      0.115     0.1827      1.733     54.089  41.105007     2.9842      7.879   178.7108 9.5626e-01     2.8816      4.336      6.289    13.5070   999.3604 0.0000e+00
      4.444      0.113     0.1813      1.716     51.778  39.228067     2.7702      7.874   177.0281 9.3388e-01     2.9117      4.358      6.320    13.3697   999.3777 0.0000e+00
      4.469      0.111     0.1792      1.691     50.496  38.150620     2.3758      7.873   174.4044 9.1051e-01     2.9776      4.381      6.355    13.2357   999.3938 0.0000e+00
      4.498      0.111     0.1762      1.660     49.812  37.536383     2.1617      7.873   170.9065 8.7923e-01     3.0223      4.410      6.395    13.1105   999.4085 0.0000e+00
      4.530      0.111     0.1742      1.637     49.478  37.196973     2.1485      7.875   168.5490 8.4817e-01     3.0589      4.442      6.443    12.9869   999.4230 0.0000e+00
      4.561      0.111     0.1732      1.626     49.359  37.030179     2.1558      7.877   167.5824 8.2677e-01     3.1584      4.473      6.490    12.8704   999.4371 0.0000e+00
      4.588      0.107     0.1731      1.622     49.302  36.916097     2.1718      7.880   167.0493 8.0213e-01     3.2746      4.499      6.526    12.7699   999.4494 0.0000e+00
      4.615      0.102     0.1762      1.649     49.276  36.833142     2.1948      7.882   165.5452 7.6629e-01     3.2839      4.524      6.562    12.6712   999.4614 0.0000e+00
      4.642      0.099     0.1869      1.746     49.291  36.788813     2.2086      7.885   162.9903 7.3649e-01     3.2383      4.554      6.605    12.5824   999.4722 0.0000e+00
      4.665      0.099     0.2132      1.990     49.234  36.697438     2.1642      7.888   161.2810 7.2124e-01     3.3137      4.577      6.638    12.5072   999.4815 0.0000e+00
      4.684      0.104     0.2666      2.485     49.099  36.553454     2.0745      7.891   161.0537 7.0504e-01     3.4408      4.592      6.661    12.4326   999.4904 0.0000e+00
      4.707      0.111     0.3563      3.319     49.003  36.444315     2.0259      7.893   161.5321 6.7160e-01     3.5300      4.612      6.691    12.3682   999.4982 0.0000e+00
      4.738      0.120     0.4863      4.528     48.983  36.393400     2.0100      7.893   162.0756 6.3359e-01     3.7374      4.644      6.736    12.3134   999.5049 0.0000e+00
      4.773      0.130     0.6608      6.148     49.012  36.382125     1.8825      7.893   162.9786 6.0544e-01     5.6530      4.680      6.787    12.2624   999.5110 0.0000e+00
      4.809      0.138     0.8764      8.148     49.034  36.371423     1.6552      7.894   164.1912 5.8666e-01     9.1589      4.716      6.840    12.2194   999.5162 0.0000e+00
      4.847      0.143     1.1149     10.360     49.008  36.327442     1.5413      7.894   165.3794 5.6527e-01    11.0606      4.753      6.895    12.1821   999.5206 0.0000e+00
      4.885      0.146     1.3576     12.608     48.998  36.294644     1.5364      7.893   166.7618 5.4142e-01    11.2111      4.790      6.948    12.1458   999.5250 0.0000e+00
      4.921      0.147     1.5909     14.765     49.031  36.292213     1.5278      7.891   168.1725 5.2476e-01    11.2408      4.826      6.999    12.1107   999.5293 0.0000e+00
      4.958      0.147     1.8050     16.743     49.071  36.298022     1.4551      7.888   170.3901 5.0607e-01    11.6826      4.861      7.051    12.0829   999.5326 0.0000e+00
      4.996      0.145     1.9891     18.444     49.102  36.301368     1.3163      7.885   173.5274 4.7857e-01    12.5217      4.900      7.106    12.0608   999.5353 0.0000e+00
      5.036      0.140     2.1339     19.780     49.076  36.269177     1.2276      7.883   175.3894 4.5343e-01    12.9963      4.939      7.162    12.0345   999.5386 0.0000e+00
      5.074      0.133     2.2405     20.765     49.027  36.226157     1.1976      7.880   175.9537 4.3244e-01    13.0628      4.976      7.218    12.0054   999.5421 0.0000e+00
      5.109      0.125     2.3177     21.477     49.035  36.225524     1.1186      7.877   176.5642 4.0724e-01    13.2266      5.011      7.267    11.9804   999.5451 0.0000e+00
      5.139      0.119     2.3734     21.989     49.095  36.261526     0.9915      7.874   177.1787 3.8789e-01    13.5342      5.040      7.310    11.9604   999.5476 0.0000e+00
      5.164      0.114     2.4152     22.373     49.130  36.280597     0.9261      7.872   178.7372 3.6779e-01    13.7026      5.065      7.347    11.9474   999.5491 0.0000e+00
      5.187      0.111     2.4482     22.676     49.115  36.265678     0.9261      7.869   181.3837 3.5095e-01    13.7225      5.086      7.377    11.9415   999.5499 0.0000e+00
      5.214      0.111     2.4709     22.885     49.127  36.271563     0.9575      7.866   183.4518 3.4911e-01    13.8067      5.111      7.412    11.9370   999.5505 0.0000e+00
      5.247      0.115     2.4851     23.015     49.156  36.288270     1.0196      7.863   184.7275 3.3486e-01    13.9340      5.146      7.464    11.9272   999.5518 0.0000e+00
      5.278      0.119     2.4925     23.079     49.150  36.277260     1.0524      7.860   185.5370 3.0545e-01    13.9507      5.179      7.511    11.9187   999.5529 0.0000e+00
      5.306      0.123     2.4894     23.048     49.140  36.265380     1.0510      7.858   186.0981 2.7275e-01    13.9107      5.200      7.543    11.9166   999.5532 0.0000e+00
      5.337      0.126     2.4784     22.945     49.149  36.271565     1.0637      7.855   186.9524 2.4140e-01    13.8759      5.231      7.587    11.9139   999.5537 0.0000e+00
      5.372      0.129     2.4664     22.836     49.170  36.288573     1.0840      7.852   188.1221 2.1480e-01    13.7919      5.270      7.644    11.9093   999.5544 0.0000e+00
      5.405      0.133     2.4550     22.732     49.157  36.280594     1.0965      7.849   189.3999 1.8125e-01    13.7481      5.301      7.689    11.9005   999.5556 0.0000e+00
      5.437      0.134     2.4451     22.642     49.098  36.238565     1.1208      7.845   190.5291 1.5439e-01    13.7720      5.330      7.731    11.8944   999.5564 0.0000e+00
      5.473      0.129     2.4420     22.613     49.076  36.224725     1.2738      7.842   191.5360 1.4706e-01    13.9825      5.366      7.783    11.8962   999.5563 0.0000e+00
      5.512      0.120     2.4487     22.675     49.097  36.240209     1.5411      7.838   191.8523 1.3871e-01    14.3927      5.407      7.842    11.8987   999.5563 0.0000e+00
      5.546      0.111     2.4621     22.797     49.096  36.235360     1.6913      7.835   191.6007 1.2766e-01    14.6347      5.443      7.894    11.8996   999.5563 0.0000e+00
      5.571      0.101     2.4756     22.919     49.096  36.229560     1.7109      7.832   192.1069 1.2396e-01    14.6477      5.467      7.928    11.9012   999.5563 0.0000e+00
      5.589      0.091     2.4851     23.003     49.111  36.233551     1.6917      7.829   193.3262 1.2362e-01    14.6150      5.481      7.950    11.9053   999.5558 0.0000e+00
      5.607      0.083     2.4900     23.045     49.102  36.220128     1.4765      7.826   194.7284 1.2347e-01    14.5020      5.497      7.972    11.9063   999.5558 0.0000e+00
      5.628      0.079     2.4922     23.063     49.074  36.194211     1.0935      7.823   195.8960 1.2342e-01    14.3292      5.519      8.004    11.9008   999.5565 0.0000e+00
      5.649      0.081     2.4925     23.063     49.053  36.174072     0.8852      7.819   196.1731 1.2345e-01    14.2629      5.540      8.035    11.8943   999.5573 0.0000e+00
      5.669      0.087     2.4878     23.017     49.048  36.167043     0.8742      7.816   195.9277 1.2343e-01    14.2579      5.560      8.063    11.8870   999.5583 0.0000e+00
      5.689      0.094     2.4778     22.922     49.060  36.172698     0.9689      7.813   196.2850 1.2339e-01    14.2032      5.578      8.090    11.8792   999.5593 0.0000e+00
      5.711      0.100     2.4670     22.820     49.073  36.178970     1.1376      7.811   197.3094 1.2340e-01    14.1587      5.598      8.119    11.8739   999.5599 0.0000e+00
      5.739      0.107     2.4594     22.748     49.078  36.179394     1.2232      7.808   198.4190 1.2345e-01    14.1782      5.625      8.160    11.8697   999.5605 0.0000e+00
      5.771      0.112     2.4541     22.698     49.080  36.177824     1.2234      7.806   199.2902 1.2348e-01    14.2100      5.660      8.209    11.8662   999.5611 0.0000e+00
      5.803      0.117     2.4498     22.658     49.060  36.159975     1.1488      7.804   200.0137 1.2350e-01    14.1823      5.692      8.255    11.8624   999.5616 0.0000e+00
      5.832      0.121     2.4462     22.623     49.054  36.154007     1.0058      7.802   200.7136 1.2351e-01    14.1383      5.720      8.296    11.8592   999.5622 0.0000e+00
      5.862      0.122     2.4429     22.592     49.075  36.169138     0.9328      7.797   201.2136 1.2348e-01    14.1371      5.748      8.336    11.8561   999.5626 0.0000e+00
      5.893      0.121     2.4416     22.580     49.054  36.152498     0.9340      7.793   201.6719 1.2347e-01    14.1681      5.778      8.380    11.8523   999.5632 0.0000e+00
      5.924      0.118     2.4418     22.582     49.042  36.143237     0.9860      7.789   202.2107 1.2349e-01    14.1854      5.810      8.427    11.8498   999.5636 0.0000e+00
      5.957      0.113     2.4403     22.567     49.099  36.184100     1.0931      7.786   203.0817 1.2349e-01    14.1823      5.842      8.474    11.8486   999.5639 0.0000e+00
      5.989      0.108     2.4376     22.542     49.124  36.202257     1.1543      7.784   204.1156 1.2346e-01    14.1958      5.876      8.522    11.8479   999.5642 0.0000e+00
      6.016      0.103     2.4360     22.527     49.082  36.172348     1.1535      7.782   204.7303 1.2345e-01    14.1853      5.903      8.562    11.8468   999.5644 0.0000e+00
      6.037      0.099     2.4340     22.509     49.036  36.139836     1.1267      7.780   205.2664 1.2347e-01    14.1530      5.921      8.588    11.8460   999.5646 0.0000e+00
      6.056      0.096     2.4327     22.498     49.017  36.126536     1.0817      7.775   205.8652 1.2350e-01    14.1664      5.937      8.611    11.8459   999.5647 0.0000e+00
      6.080      0.091     2.4343     22.513     49.035  36.138485     1.0521      7.771   206.3777 1.2350e-01    14.1830      5.961      8.645    11.8449   999.5649 0.0000e+00
      6.109      0.088     2.4373     22.539     49.063  36.157355     1.0374      7.768   207.1609 1.2346e-01    14.1570      5.991      8.688    11.8448   999.5651 0.0000e+00
      6.137      0.088     2.4375     22.540     49.074  36.164269     1.0252      7.765   208.1936 1.2345e-01    14.1800      6.020      8.731    11.8480   999.5649 0.0000e+00
      6.157      0.093     2.4360     22.525     49.070  36.158608     0.9920      7.762   209.0555 1.2350e-01    14.2971      6.042      8.764    11.8489   999.5648 0.0000e+00
      6.171      0.100     2.4367     22.531     49.064  36.152375     0.9395      7.758   209.5804 1.2355e-01    14.3933      6.051      8.776    11.8460   999.5651 0.0000e+00
      6.187      0.107     2.4388     22.550     49.064  36.152375     0.9181      7.755   209.8943 1.2353e-01    14.3933      6.061      8.790    11.8455   999.5653 0.0000e+00
      6.218      0.113     2.4406     22.565     49.074  36.158618     0.9160      7.752   210.2688 1.2351e-01    14.3617      6.094      8.837    11.8445   999.5656 0.0000e+00
      6.260      0.120     2.4407     22.565     49.087  36.164374     0.9235      7.751   210.8392 1.2351e-01    14.3713      6.142      8.907    11.8403   999.5663 0.0000e+00
      6.300      0.126     2.4385     22.544     49.083  36.158489     0.9556      7.749   211.4565 1.2352e-01    14.4113      6.182      8.967    11.8393   999.5666 0.0000e+00
      6.330      0.126     2.4365     22.525     49.074  36.150941     0.9835      7.746   212.0535 1.2352e-01    14.4196      6.208      9.005    11.8402   999.5666 0.0000e+00
      6.356      0.120     2.4367     22.525     49.056  36.136583     0.9837      7.744   212.6373 1.2355e-01    14.4064      6.231      9.037    11.8390   999.5669 0.0000e+00
      6.386      0.111     2.4372     22.528     49.027  36.111828     0.9750      7.741   213.0958 1.2359e-01    14.4155      6.262      9.081    11.8346   999.5675 0.0000e+00
      6.416      0.104     2.4370     22.524     49.023  36.105519     0.9744      7.737   213.4667 1.2359e-01    14.3988      6.294      9.129    11.8298   999.5681 0.0000e+00
      6.444      0.100     2.4383     22.534     49.053  36.123764     0.9764      7.733   213.8520 1.2358e-01    14.3676      6.321      9.168    11.8301   999.5683 0.0000e+00
      6.467      0.096     2.4408     22.557     49.082  36.142010     0.9811      7.730   214.3133 1.2360e-01    14.3663      6.343      9.200    11.8304   999.5683 0.0000e+00
      6.489      0.092     2.4433     22.578     49.077  36.135710     0.9969      7.727   214.8286 1.2360e-01    14.3839      6.364      9.229    11.8258   999.5689 0.0000e+00
      6.510      0.090     2.4445     22.589     49.046  36.111059     1.0286      7.725   215.3501 1.2356e-01    14.4164      6.383      9.259    11.8212   999.5695 0.0000e+00
      6.532      0.091     2.4426     22.571     49.029  36.097846     1.0524      7.724   215.8864 1.2357e-01    14.4304      6.405      9.290    11.8183   999.5700 0.0000e+00
      6.555      0.096     2.4367     22.516     49.035  36.102899     1.0509      7.722   216.4093 1.2357e-01    14.4230      6.429      9.324    11.8147   999.5705 0.0000e+00
      6.578      0.104     2.4280     22.436     49.041  36.108679     1.0274      7.720   217.0257 1.2349e-01    14.3600      6.452      9.357    11.8117   999.5710 0.0000e+00
      6.603      0.111     2.4195     22.359     49.030  36.104256     0.9943      7.717   217.6602 1.2344e-01    14.2254      6.473      9.388    11.8104   999.5712 0.0000e+00
      6.633      0.115     2.4137     22.308     49.038  36.112900     0.9793      7.713   218.1448 1.2343e-01    14.1393      6.501      9.431    11.8103   999.5713 0.0000e+00
      6.669      0.118     2.4101     22.274     49.088  36.149724     0.9856      7.710   218.4973 1.2344e-01    14.1706      6.541      9.487    11.8102   999.5715 0.0000e+00
      6.704      0.119     2.4065     22.239     49.118  36.168653     0.9911      7.708   218.7379 1.2344e-01    14.2760      6.578      9.540    11.8112   999.5716 0.0000e+00
      6.733      0.119     2.4033     22.208     49.098  36.151339     0.9855      7.706   219.0756 1.2343e-01    14.3645      6.603      9.578    11.8158   999.5712 0.0000e+00
      6.759      0.116     2.4014     22.190     49.072  36.130795     0.9783      7.703   219.6545 1.2346e-01    14.3895      6.626      9.611    11.8201   999.5708 0.0000e+00
      6.787      0.114     2.4021     22.195     49.047  36.110675     0.9742      7.700   220.2306 1.2350e-01    14.4143      6.655      9.652    11.8191   999.5711 0.0000e+00
      6.818      0.114     2.4044     22.216     49.030  36.098492     0.9706      7.698   220.7067 1.2346e-01    14.4677      6.688      9.699    11.8155   999.5717 0.0000e+00
      6.847      0.115     2.4058     22.231     49.044  36.110438     0.9697      7.695   221.2813 1.2345e-01    14.4780      6.717      9.741    11.8125   999.5721 0.0000e+00
      6.875      0.116     2.4073     22.245     49.066  36.128163     0.9716      7.693   221.5853 1.2346e-01    14.4409      6.740      9.775    11.8109   999.5724 0.0000e+00
      6.905      0.116     2.4090     22.261     49.058  36.122393     0.9759      7.691   221.4570 1.2348e-01    14.4124      6.769      9.818    11.8092   999.5727 0.0000e+00
      6.938      0.117     2.4106     22.276     49.036  36.104137     0.9788      7.687   221.6237 1.2347e-01    14.3951      6.804      9.869    11.8083   999.5730 0.0000e+00
      6.968      0.120     2.4124     22.291     49.030  36.097857     0.9973      7.685   222.2245 1.2344e-01    14.3960      6.834      9.912    11.8111   999.5728 0.0000e+00
      6.995      0.122     2.4126     22.293     49.047  36.109928     1.0267      7.684   222.8704 1.2348e-01    14.4231      6.859      9.948    11.8146   999.5725 0.0000e+00
      7.024      0.122     2.4128     22.294     49.067  36.123135     1.0396      7.682   223.3238 1.2352e-01    14.4271      6.887      9.988    11.8141   999.5726 0.0000e+00
      7.058      0.125     2.4127     22.292     49.078  36.130587     1.0403      7.679   223.2323 1.2351e-01    14.4123      6.922     10.039    11.8108   999.5732 0.0000e+00
      7.093      0.132     2.4091     22.258     49.087  36.136557     1.0701      7.676   222.7972 1.2351e-01    14.4737      6.959     10.092    11.8090   999.5736 0.0000e+00
      7.124      0.142     2.4038     22.210     49.081  36.131851     1.1397      7.675   222.7083 1.2355e-01    14.5795      6.987     10.134    11.8086   999.5738 0.0000e+00
      7.154      0.152     2.3999     22.175     49.086  36.137149     1.1710      7.673   223.1051 1.2357e-01    14.6097      7.011     10.169    11.8073   999.5741 0.0000e+00
      7.192      0.158     2.3965     22.144     49.085  36.137139     1.1545      7.671   223.7221 1.2352e-01    14.5772      7.048     10.221    11.8061   999.5744 0.0000e+00
      7.241      0.160     2.3914     22.096     49.080  36.131738     1.1210      7.669   224.2313 1.2342e-01    14.5137      7.101     10.298    11.8052   999.5747 0.0000e+00
      7.292      0.157     2.3874     22.057     49.089  36.135310     1.0701      7.666   224.4440 1.2341e-01    14.4325      7.155     10.377    11.8058   999.5749 0.0000e+00
      7.337      0.150     2.3866     22.047     49.068  36.116854     1.0419      7.662   224.4873 1.2346e-01    14.3819      7.199     10.441    11.8075   999.5750 0.0000e+00
      7.372      0.137     2.3877     22.057     49.046  36.099005     1.0399      7.660   224.6687 1.2348e-01    14.3603      7.234     10.491    11.8089   999.5749 0.0000e+00
      7.400      0.122     2.3908     22.086     49.061  36.109920     1.0459      7.658   225.0023 1.2345e-01    14.3678      7.258     10.527    11.8070   999.5753 0.0000e+00
      7.426      0.110     2.3958     22.131     49.077  36.121876     1.1141      7.655   225.3383 1.2346e-01    14.4066      7.281     10.561    11.8031   999.5759 0.0000e+00
      7.452      0.105     2.3988     22.160     49.069  36.116616     1.2320      7.652   226.1498 1.2351e-01    14.4362      7.308     10.601    11.7998   999.5763 0.0000e+00
      7.477      0.106     2.3998     22.169     49.059  36.109795     1.2921      7.650   227.3279 1.2346e-01    14.4322      7.334     10.637    11.7978   999.5766 0.0000e+00
      7.501      0.111     2.4017     22.187     49.049  36.102881     1.2866      7.649   227.9679 1.2342e-01    14.3906      7.355     10.667    11.7980   999.5767 0.0000e+00
      7.527      0.116     2.4015     22.185     49.041  36.096488     1.1997      7.646   228.2096 1.2347e-01    14.3582      7.377     10.701    11.7985   999.5768 0.0000e+00
      7.561      0.121     2.3998     22.169     49.041  36.095968     1.0557      7.644   228.1854 1.2353e-01    14.3691      7.413     10.752    11.7986   999.5770 0.0000e+00
      7.597      0.125     2.4003     22.174     49.042  36.096592     0.9852      7.642   227.9326 1.2356e-01    14.3907      7.452     10.809    11.7997   999.5770 0.0000e+00
      7.631      0.129     2.4001     22.172     49.052  36.104036     0.9811      7.639   228.7666 1.2353e-01    14.4237      7.483     10.854    11.8005   999.5771 0.0000e+00
      7.662      0.131     2.3984     22.156     49.077  36.122500     0.9799      7.637   230.6122 1.2348e-01    14.5050      7.514     10.898    11.8000   999.5773 0.0000e+00
      7.694      0.131     2.3963     22.136     49.087  36.129410     0.9708      7.634   231.7491 1.2346e-01    14.6207      7.546     10.945    11.7992   999.5775 0.0000e+00
      7.726      0.131     2.3936     22.111     49.079  36.124112     0.9654      7.632   231.9297 1.2346e-01    14.6755      7.575     10.988    11.7988   999.5777 0.0000e+00
      7.759      0.130     2.3914     22.091     49.075  36.121918     0.9758      7.629   231.8501 1.2349e-01    14.6427      7.606     11.033    11.7986   999.5779 0.0000e+00
      7.796      0.128     2.3885     22.065     49.050  36.102887     1.0005      7.627   232.1622 1.2352e-01    14.5187      7.645     11.090    11.7987   999.5780 0.0000e+00
      7.832      0.128     2.3850     22.032     49.026  36.084418     1.0308      7.625   232.9512 1.2354e-01    14.3242      7.683     11.143    11.7982   999.5782 0.0000e+00
      7.863      0.128     2.3832     22.016     49.032  36.089034     1.0388      7.624   233.5596 1.2353e-01    14.1911      7.712     11.185    11.7987   999.5784 0.0000e+00
      7.891      0.127     2.3833     22.017     49.038  36.095229     1.0357      7.623   234.0118 1.2350e-01    14.1546      7.737     11.221    11.8002   999.5783 0.0000e+00
      7.922      0.122     2.3843     22.027     49.038  36.095844     1.0112      7.619   234.5470 1.2351e-01    14.2108      7.766     11.263    11.7995   999.5786 0.0000e+00
      7.957      0.116     2.3861     22.044     49.038  36.096466     0.9594      7.615   234.8681 1.2348e-01    14.3137      7.803     11.317    11.7979   999.5789 0.0000e+00
      7.992      0.108     2.3880     22.061     49.047  36.102756     0.9290      7.613   234.2807 1.2345e-01    14.3500      7.839     11.370    11.7984   999.5790 0.0000e+00
      8.021      0.100     2.3912     22.091     49.054  36.108423     0.9209      7.612   233.1236 1.2346e-01    14.3544      7.869     11.412    11.8008   999.5789 0.0000e+00
      8.042      0.096     2.3963     22.139     49.044  36.101503     0.9399      7.611   232.9235 1.2347e-01    14.3994      7.889     11.442    11.8019   999.5788 0.0000e+00
      8.057      0.096     2.4012     22.184     49.019  36.082567     0.9944      7.609   233.8400 1.2349e-01    14.4356      7.902     11.461    11.8020   999.5789 0.0000e+00
      8.072      0.102     2.4062     22.229     49.004  36.069882     1.0341      7.606   234.9124 1.2349e-01    14.3992      7.914     11.477    11.8020   999.5789 0.0000e+00
      8.097      0.112     2.4117     22.278     49.014  36.075076     1.0385      7.603   234.5332 1.2344e-01    14.3517      7.936     11.509    11.8015   999.5791 0.0000e+00
      8.132      0.119     2.4173     22.329     49.026  36.081891     1.0384      7.602   232.7827 1.2339e-01    14.3532      7.973     11.564    11.8025   999.5791 0.0000e+00
      8.174      0.122     2.4231     22.382     49.037  36.088806     1.0149      7.600   232.0731 1.2337e-01    14.3201      8.016     11.626    11.8026   999.5794 0.0000e+00
      8.214      0.117     2.4251     22.400     49.045  36.095209     0.9632      7.597   232.5792 1.2336e-01    14.2127      8.057     11.686    11.8004   999.5798 0.0000e+00
      8.246      0.107     2.4206     22.360     49.042  36.095843     0.9337      7.595   233.0517 1.2339e-01    14.1360      8.090     11.735    11.7977   999.5803 0.0000e+00
      8.268      0.094     2.4133     22.295     49.037  36.096468     0.9180      7.593   233.7414 1.2348e-01    14.1465      8.110     11.763    11.7955   999.5806 0.0000e+00
      8.283      0.083     2.4049     22.221     49.037  36.102768     0.8940      7.591   234.3793 1.2352e-01    14.2417      8.122     11.782    11.7947   999.5808 0.0000e+00
      8.298      0.080     2.3953     22.135     49.040  36.108548     0.8697      7.589   234.0532 1.2349e-01    14.3694      8.136     11.800    11.7948   999.5808 0.0000e+00
      8.314      0.084     2.3878     22.065     49.033  36.102882     0.8582      7.587   233.6708 1.2344e-01    14.4124      8.152     11.823    11.7965   999.5807 0.0000e+00
      8.335      0.090     2.3826     22.015     49.030  36.097737     0.8593      7.585   233.9714 1.2341e-01    14.3688      8.171     11.851    11.8017   999.5802 0.0000e+00
      8.361      0.093     2.3785     21.975     49.053  36.109807     0.8745      7.582   234.3315 1.2346e-01    14.3336      8.197     11.887    11.8104   999.5793 0.0000e+00
      8.394      0.093     2.3769     21.958     49.076  36.121868     0.9119      7.579   234.5838 1.2352e-01    14.3468      8.232     11.939    11.8148   999.5791 0.0000e+00
      8.426      0.092     2.3759     21.947     49.072  36.116618     0.9375      7.577   235.6457 1.2350e-01    14.3643      8.268     11.990    11.8123   999.5794 0.0000e+00
      8.446      0.093     2.3742     21.930     49.066  36.109789     0.9411      7.575   237.2749 1.2345e-01    14.3489      8.286     12.018    11.8096   999.5799 0.0000e+00
      8.458      0.097     2.3727     21.916     49.058  36.102775     0.9740      7.573   237.9356 1.2347e-01    14.3903      8.293     12.028    11.8043   999.5805 0.0000e+00
      8.472      0.103     2.3713     21.903     49.048  36.095284     1.0400      7.572   237.6119 1.2353e-01    14.5368      8.303     12.041    11.7985   999.5812 0.0000e+00
      8.499      0.110     2.3716     21.905     49.031  36.082685     1.0801      7.571   237.1465 1.2353e-01    14.6459      8.327     12.079    11.7968   999.5815 0.0000e+00
      8.539      0.117     2.3728     21.915     49.027  36.077386     1.0947      7.569   238.2449 1.2349e-01    14.6610      8.374     12.145    11.7943   999.5820 0.0000e+00
      8.580      0.121     2.3728     21.915     49.052  36.094682     1.1297      7.566   240.7401 1.2346e-01    14.5882      8.418     12.209    11.7917   999.5825 0.0000e+00
      8.613      0.120     2.3727     21.914     49.060  36.101397     1.1828      7.564   242.1066 1.2347e-01    14.4534      8.448     12.253    11.7933   999.5824 0.0000e+00
      8.640      0.115     2.3733     21.921     49.048  36.095097     1.2165      7.562   242.4640 1.2353e-01    14.4080      8.474     12.291    11.7939   999.5825 0.0000e+00
      8.663      0.111     2.3739     21.929     49.025  36.081987     1.2259      7.561   242.3945 1.2356e-01    14.4315      8.496     12.323    11.7905   999.5830 0.0000e+00
      8.684      0.110     2.3732     21.924     49.006  36.069830     1.2179      7.560   241.8676 1.2350e-01    14.4100      8.515     12.350    11.7882   999.5833 0.0000e+00
      8.710      0.110     2.3703     21.897     49.013  36.075063     1.1457      7.559   242.1159 1.2345e-01    14.3786      8.538     12.384    11.7893   999.5833 0.0000e+00
      8.745      0.111     2.3652     21.849     49.023  36.081778     1.0293      7.556   243.1595 1.2344e-01    14.3795      8.573     12.435    11.7930   999.5831 0.0000e+00
      8.780      0.113     2.3607     21.807     49.031  36.087538     0.9810      7.554   243.9028 1.2348e-01    14.4196      8.614     12.494    11.7975   999.5827 0.0000e+00
      8.810      0.116     2.3585     21.786     49.026  36.081238     0.9948      7.553   244.2208 1.2351e-01    14.4386      8.644     12.536    11.7996   999.5826 0.0000e+00
      8.833      0.117     2.3577     21.776     49.014  36.069083     1.0224      7.552   244.5085 1.2347e-01    14.4122      8.662     12.563    11.7978   999.5829 0.0000e+00
      8.857      0.115     2.3570     21.768     49.015  36.067515     1.0643      7.551   244.7142 1.2343e-01    14.4282      8.682     12.593    11.7973   999.5831 0.0000e+00
      8.888      0.113     2.3545     21.745     49.010  36.062275     1.0853      7.548   243.8691 1.2345e-01    14.4348      8.713     12.638    11.7988   999.5831 0.0000e+00
      8.923      0.111     2.3528     21.729     49.021  36.069190     1.0852      7.546   242.7218 1.2351e-01    14.3943      8.751     12.693    11.7959   999.5836 0.0000e+00
      8.957      0.110     2.3528     21.728     49.048  36.087649     1.0546      7.544   243.0598 1.2354e-01    14.3971      8.787     12.743    11.7911   999.5843 0.0000e+00
      8.983      0.107     2.3498     21.700     49.058  36.095045     0.9747      7.541   243.8262 1.2347e-01    14.4024      8.812     12.781    11.7885   999.5847 0.0000e+00
      9.004      0.102     2.3440     21.648     49.057  36.095141     0.9174      7.538   244.3313 1.2343e-01    14.3600      8.829     12.805    11.7877   999.5848 0.0000e+00
      9.027      0.098     2.3379     21.592     49.046  36.088802     0.9166      7.537   243.7468 1.2350e-01    14.3440      8.850     12.836    11.7869   999.5850 0.0000e+00
      9.052      0.099     2.3341     21.557     49.035  36.081882     0.9211      7.536   241.7483 1.2355e-01    14.3731      8.879     12.878    11.7850   999.5854 0.0000e+00
      9.076      0.106     2.3333     21.549     49.027  36.074950     0.9110      7.535   240.9034 1.2354e-01    14.4166      8.902     12.912    11.7846   999.5856 0.0000e+00
      9.099      0.116     2.3325     21.541     49.020  36.068451     0.9078      7.534   241.1884 1.2349e-01    14.4446      8.922     12.940    11.7863   999.5855 0.0000e+00
      9.128      0.126     2.3314     21.530     49.019  36.066778     0.9164      7.532   241.8393 1.2346e-01    14.4170      8.949     12.978    11.7885   999.5853 0.0000e+00
      9.164      0.132     2.3309     21.526     49.002  36.054716     0.9551      7.530   243.0074 1.2346e-01    14.4423      8.985     13.031    11.7897   999.5854 0.0000e+00
      9.206      0.134     2.3309     21.526     48.995  36.049561     1.0117      7.529   243.0088 1.2345e-01    14.5536      9.028     13.094    11.7881   999.5858 0.0000e+00
      9.247      0.133     2.3316     21.532     49.020  36.067921     1.0369      7.527   241.5984 1.2341e-01    14.6161      9.070     13.155    11.7857   999.5863 0.0000e+00
      9.283      0.129     2.3327     21.543     49.045  36.086281     1.0433      7.525   240.4946 1.2340e-01    14.6085      9.108     13.210    11.7854   999.5865 0.0000e+00
      9.310      0.124     2.3327     21.542     49.038  36.081136     1.0449      7.524   240.3321 1.2338e-01    14.5930      9.134     13.248    11.7860   999.5865 0.0000e+00
      9.332      0.118     2.3314     21.531     49.022  36.069179     1.0650      7.522   240.6656 1.2339e-01    14.6577      9.150     13.271    11.7867   999.5865 0.0000e+00
      9.360      0.110     2.3329     21.546     49.020  36.068661     1.1216      7.520   240.9997 1.2343e-01    14.7673      9.176     13.307    11.7868   999.5866 0.0000e+00
      9.395      0.103     2.3368     21.582     49.026  36.074876     1.1658      7.517   241.8764 1.2340e-01    14.8370      9.215     13.364    11.7863   999.5868 0.0000e+00
      9.427      0.096     2.3386     21.599     49.032  36.080846     1.1668      7.514   243.1782 1.2336e-01    14.8780      9.249     13.415    11.7856   999.5871 0.0000e+00
      9.451      0.086     2.3394     21.607     49.027  36.077378     1.0808      7.511   243.4899 1.2339e-01    14.7713      9.271     13.446    11.7856   999.5872 0.0000e+00
      9.468      0.072     2.3423     21.633     49.055  36.096420     0.9412      7.507   242.8911 1.2343e-01    14.5301      9.285     13.467    11.7867   999.5871 0.0000e+00
      9.483      0.057     2.3470     21.676     49.088  36.120656     0.8749      7.503   242.2195 1.2338e-01    14.4200      9.300     13.488    11.7888   999.5870 0.0000e+00
      9.496      0.043     2.3521     21.724     49.080  36.116513     0.8687      7.501   243.1992 1.2339e-01    14.4233      9.315     13.509    11.7915   999.5868 0.0000e+00
      9.505      0.033     2.3567     21.768     49.069  36.109805     0.8573      7.499   245.7031 1.2345e-01    14.4060      9.323     13.523    11.7911   999.5868 0.0000e+00
      9.510      0.026     2.3580     21.780     49.059  36.103023     0.8411      7.496   246.9394 1.2347e-01    14.4073      9.327     13.527    11.7879   999.5872 0.0000e+00
      9.514      0.021     2.3565     21.767     49.048  36.097983     0.8384      7.493   246.5328 1.2348e-01    14.4393      9.330     13.532    11.7880   999.5873 0.0000e+00
      9.518      0.018     2.3531     21.741     49.057  36.112341     0.8499      7.491   245.6906 1.2351e-01    14.4318      9.334     13.538    11.7912   999.5869 0.0000e+00
      9.522      0.017     2.3476     21.698     49.087  36.149693     0.8413      7.488   245.4466 1.2350e-01    14.3832      9.338     13.544    11.7917   999.5868 0.0000e+00
      9.527      0.017     2.3426     21.659     49.089  36.168781     0.8045      7.485   246.3351 1.2345e-01    14.3748      9.343     13.551    11.7912   999.5869 0.0000e+00
      9.532      0.017     2.3381     21.624     49.051  36.152729     0.7775      7.482   247.7438 1.2342e-01    14.3961      9.348     13.558    11.7939   999.5866 0.0000e+00
      9.536      0.017     2.3347     21.595     49.036  36.146039     0.7831      7.478   248.6260 1.2341e-01    14.4443      9.353     13.564    11.8008   999.5859 0.0000e+00
      9.540      0.017     2.3343     21.591     49.044  36.151376     0.8123      7.475   248.8280 1.2344e-01    14.4666      9.356     13.570    11.8179   999.5840 0.0000e+00
      9.544      0.017     2.3371     21.616     49.047  36.153780     0.8443      7.473   248.6385 1.2351e-01    14.4027      9.359     13.575    11.8392   999.5817 0.0000e+00
      9.548      0.017     2.3410     21.655     49.069  36.175100     0.8580      7.470   247.9691 1.2356e-01    14.3603      9.364     13.581    11.8519   999.5802 0.0000e+00
      9.553      0.017     2.3433     21.681     49.116  36.218748     0.8559      7.468   247.4455 1.2358e-01    14.3803      9.368     13.588    11.8553   999.5798 0.0000e+00
      9.558      0.017     2.3443     21.697     49.122  36.237220     0.8539      7.465   247.6420 1.2356e-01    14.4144      9.373     13.594    11.8525   999.5802 0.0000e+00
      9.562      0.016     2.3442     21.705     49.058  36.208035     0.8424      7.462   248.0226 1.2346e-01    14.4125      9.377     13.601    11.8510   999.5804 0.0000e+00
      9.566      0.015     2.3428     21.700     49.004  36.183270     0.8114      7.460   248.4335 1.2341e-01    14.3568      9.382     13.607    11.8571   999.5797 0.0000e+00
      9.570      0.013     2.3420     21.693     49.015  36.191700     0.7924      7.458   248.9100 1.2347e-01    14.3317      9.385     13.611    11.8668   999.5787 0.0000e+00
      9.574      0.010     2.3424     21.689     49.023  36.183010     0.7946      7.456   247.9325 1.2352e-01    14.3709      9.389     13.617    11.8800   999.5772 0.0000e+00
      9.576      0.008     2.3427     21.683     48.991  36.141657     0.7951      7.453   245.8215 1.2347e-01    14.4042      9.391     13.620    11.9014   999.5748 0.0000e+00
      9.577      0.008     2.3424     21.674     49.001  36.135992     0.7973      7.451   245.1540 1.2347e-01    14.4064      9.392     13.621    11.9225   999.5724 0.0000e+00
      9.578      0.008     2.3421     21.669     49.065  36.177973     0.8040      7.449   246.0567 1.2350e-01    14.3974      9.393     13.623    11.9224   999.5723 0.0000e+00
      9.579      0.008     2.3421     21.669     49.099  36.204923     0.8068      7.446   247.1856 1.2345e-01    14.3944      9.393     13.624    11.9014   999.5748 0.0000e+00
      9.581      0.008     2.3419     21.670     49.095  36.207949     0.8233      7.444   247.7045 1.2340e-01    14.4031      9.396     13.627    11.8804   999.5771 0.0000e+00
      9.585      0.009     2.3425     21.680     49.092  36.214569     0.8563      7.442   246.8242 1.2342e-01    14.4045      9.399     13.632    11.8666   999.5787 0.0000e+00
      9.587      0.009     2.3437     21.698     49.082  36.221514     0.8670      7.439   245.0596 1.2347e-01    14.3775      9.402     13.636    11.8616   999.5793 0.0000e+00
      9.589      0.009     2.3444     21.713     49.071  36.228454     0.8565      7.437   244.2651 1.2349e-01    14.3724      9.404     13.639    11.8655   999.5789 0.0000e+00
      9.591      0.008     2.3448     21.721     49.068  36.235019     0.8513      7.436   244.6176 1.2345e-01    14.4737      9.406     13.642    11.8721   999.5782 0.0000e+00
      9.593      0.007     2.3458     21.732     49.066  36.237431     0.8474      7.434   245.1057 1.2344e-01    14.6196      9.408     13.645    11.8792   999.5774 0.0000e+00
      9.594      0.007     2.3470     21.746     49.086  36.257627     0.8449      7.432   245.6064 1.2344e-01    14.6613      9.409     13.647    11.8950   999.5756 0.0000e+00
      9.596      0.007     2.3469     21.748     49.120  36.288790     0.8553      7.431   246.2842 1.2343e-01    14.6177      9.411     13.649    11.9152   999.5733 0.0000e+00
      9.598      0.008     2.3466     21.748     49.124  36.296849     0.8952      7.428   246.5896 1.2345e-01    14.6157      9.413     13.652    11.9220   999.5725 0.0000e+00
      9.600      0.008     2.3451     21.736     49.111  36.291609     0.9540      7.426   246.1160 1.2346e-01    14.6378      9.415     13.655    11.9233   999.5724 0.0000e+00
      9.603      0.008     2.3427     21.715     49.104  36.288904     0.9851      7.424   245.5473 1.2349e-01    14.6231      9.417     13.659    11.9300   999.5717 0.0000e+00
      9.605      0.007     2.3420     21.708     49.071  36.264154     0.9858      7.422   245.4780 1.2354e-01    14.5695      9.419     13.661    11.9367   999.5709 0.0000e+00
      9.607      0.006     2.3412     21.700     49.049  36.246253     0.9879      7.421   246.7412 1.2354e-01    14.5136      9.421     13.663    11.9415   999.5704 0.0000e+00
      9.608      0.005     2.3397     21.685     49.074  36.262878     1.0195      7.419   248.6024 1.2350e-01    14.4708      9.423     13.666    11.9461   999.5699 0.0000e+00
      9.609      0.004     2.3389     21.677     49.091  36.274753     1.0472      7.417   249.3114 1.2345e-01    14.4456      9.423     13.667    11.9497   999.5695 0.0000e+00
      9.610 -9.990e-29 -9.990e-29 -9.990e-29 -9.990e-29 -9.990e-29 -9.990e-29 -9.990e-29 -9.990e-29 1.2340e-01 -9.990e-29      9.424     13.668    11.9488   999.5696 0.0000e+00
      9.610 -9.990e-29 -9.990e-29 -9.990e-29 -9.990e-29 -9.990e-29 -9.990e-29 -9.990e-29 -9.990e-29 1.2340e-01 -9.990e-29      9.424     13.669    11.9462   999.5699 0.0000e+00
      9.610 -9.990e-29 -9.990e-29 -9.990e-29 -9.990e-29 -9.990e-29 -9.990e-29 -9.990e-29 -9.990e-29 1.2342e-01 -9.990e-29      9.424     13.668    11.9440   999.5701 0.0000e+00
      9.610 -9.990e-29 -9.990e-29 -9.990e-29 -9.990e-29 -9.990e-29 -9.990e-29 -9.990e-29 -9.990e-29 1.2344e-01 -9.990e-29      9.425     13.669    11.9425   999.5703 0.0000e+00
