* Sea-Bird SBE19plus  Data File:
* FileName = C:\DATA\081519_fcr50_0000_0003.hex
* Software version 2.8.0.119 SB_Terminal.dll
* Temperature SN = 7809
* Conductivity SN = 7809
* System UpLoad Time = Aug 15 2019 01:07:05
* <ApplicationData>
* <Seaterm232>
* <SoftwareVersion>2.8.0.119</SoftwareVersion>
* <BuildDate>07-Nov-2018</BuildDate>
* </Seaterm232>
* </ApplicationData>
* cast   3 14 Aug 2019 21:04:27 samples 2513 to 3687, avg = 1, stop = mag switch
# nquan = 16
# nvalues = 1006                        
# units = specified
# name 0 = depFM: Depth [fresh water, m]
# name 1 = dz/dtM: Descent Rate [m/s]
# name 2 = sbeox0Mg/L: Oxygen, SBE 43 [mg/l]
# name 3 = sbeox0PS: Oxygen, SBE 43 [% saturation]
# name 4 = specc: Specific Conductance [uS/cm]
# name 5 = c0uS/cm: Conductivity [uS/cm]
# name 6 = flECO-AFL: Fluorescence, WET Labs ECO-AFL/FL [mg/m^3]
# name 7 = ph: pH
# name 8 = orp: Oxidation Reduction Potential [mV]
# name 9 = par/sat/log: PAR/Logarithmic, Satlantic
# name 10 = turbWETntu0: Turbidity, WET Labs ECO [NTU]
# name 11 = prdM: Pressure, Strain Gauge [db]
# name 12 = prdE: Pressure, Strain Gauge [psi]
# name 13 = tv290C: Temperature [ITS-90, deg C]
# name 14 = density00: Density [density, kg/m^3]
# name 15 = flag:  0.000e+00
# span 0 =     -0.625,      9.604       
# span 1 =     -0.001,      0.208       
# span 2 =     0.0923,    11.1343       
# span 3 =      0.879,    137.150       
# span 4 =      0.167,     78.225       
# span 5 =   0.158292,  57.679672       
# span 6 =    -0.1374,     9.6154       
# span 7 =      6.726,      9.339       
# span 8 = -1240.7455,   260.0256       
# span 9 = 1.2349e-01, 1.7561e+00       
# span 10 =    -0.5475,    17.2692      
# span 11 =     -0.613,      9.419      
# span 12 =     -0.890,     13.661      
# span 13 =    11.7806,    28.1095      
# span 14 =   996.2231,   999.5917      
# span 15 = 0.0000e+00, 0.0000e+00      
# interval = seconds: 0.25
# start_time = Aug 14 2019 21:04:27 [Instrument's time stamp, header]
# bad_flag = -9.990e-29
# <Sensors count="9" >
#   <sensor Channel="1" >
#     <!-- Count, Temperature -->
#     <TemperatureSensor SensorID="58" >
#       <SerialNumber>7809</SerialNumber>
#       <CalibrationDate>24-Mar-19</CalibrationDate>
#       <A0>1.21792325e-003</A0>
#       <A1>2.81669265e-004</A1>
#       <A2>-1.60333336e-006</A2>
#       <A3>1.98414625e-007</A3>
#       <Slope>1.00000000</Slope>
#       <Offset>0.0000</Offset>
#     </TemperatureSensor>
#   </sensor>
#   <sensor Channel="2" >
#     <!-- Frequency 0, Conductivity -->
#     <ConductivitySensor SensorID="3" >
#       <SerialNumber>7809</SerialNumber>
#       <CalibrationDate>24-Mar-19</CalibrationDate>
#       <UseG_J>1</UseG_J>
#       <!-- Cell const and series R are applicable only for wide range sensors. -->
#       <SeriesR>0.0000</SeriesR>
#       <CellConst>2000.0000</CellConst>
#       <ConductivityType>0</ConductivityType>
#       <Coefficients equation="0" >
#         <A>0.00000000e+000</A>
#         <B>0.00000000e+000</B>
#         <C>0.00000000e+000</C>
#         <D>0.00000000e+000</D>
#         <M>0.0</M>
#         <CPcor>-9.57000000e-008</CPcor>
#       </Coefficients>
#       <Coefficients equation="1" >
#         <G>-1.00589325e+000</G>
#         <H>1.26816302e-001</H>
#         <I>-1.51560448e-004</I>
#         <J>2.67137274e-005</J>
#         <CPcor>-9.57000000e-008</CPcor>
#         <CTcor>3.2500e-006</CTcor>
#         <!-- WBOTC not applicable unless ConductivityType = 1. -->
#         <WBOTC>0.00000000e+000</WBOTC>
#       </Coefficients>
#       <Slope>1.00000000</Slope>
#       <Offset>0.00000</Offset>
#     </ConductivitySensor>
#   </sensor>
#   <sensor Channel="3" >
#     <!-- Count, Pressure, Strain Gauge -->
#     <PressureSensor SensorID="46" >
#       <SerialNumber>7809</SerialNumber>
#       <CalibrationDate>11-Mar-19</CalibrationDate>
#       <PA0>4.56561833e-002</PA0>
#       <PA1>4.85095118e-004</PA1>
#       <PA2>-2.88327090e-012</PA2>
#       <PTEMPA0>-5.48784562e+001</PTEMPA0>
#       <PTEMPA1>5.53756816e+001</PTEMPA1>
#       <PTEMPA2>-5.86727098e-001</PTEMPA2>
#       <PTCA0>5.25246745e+005</PTCA0>
#       <PTCA1>1.22304214e+001</PTCA1>
#       <PTCA2>-3.56745036e-001</PTCA2>
#       <PTCB0>2.51668750e+001</PTCB0>
#       <PTCB1>3.75000000e-004</PTCB1>
#       <PTCB2>0.00000000e+000</PTCB2>
#       <Offset>0.000000</Offset>
#     </PressureSensor>
#   </sensor>
#   <sensor Channel="4" >
#     <!-- A/D voltage 0, Oxygen, SBE 43 -->
#     <OxygenSensor SensorID="38" >
#       <SerialNumber>0434</SerialNumber>
#       <CalibrationDate>13-Apr-19</CalibrationDate>
#       <Use2007Equation>1</Use2007Equation>
#       <CalibrationCoefficients equation="0" >
#         <!-- Coefficients for Owens-Millard equation. -->
#         <Boc>0.0000</Boc>
#         <Soc>0.0000e+000</Soc>
#         <offset>0.0000</offset>
#         <Pcor>0.00e+000</Pcor>
#         <Tcor>0.0000</Tcor>
#         <Tau>0.0</Tau>
#       </CalibrationCoefficients>
#       <CalibrationCoefficients equation="1" >
#         <!-- Coefficients for Sea-Bird equation - SBE calibration in 2007 and later. -->
#         <Soc>4.2007e-001</Soc>
#         <offset>-0.6109</offset>
#         <A>-4.3656e-003</A>
#         <B> 1.7017e-004</B>
#         <C>-2.5341e-006</C>
#         <D0> 2.5826e+000</D0>
#         <D1> 1.92634e-004</D1>
#         <D2>-4.64803e-002</D2>
#         <E> 3.6000e-002</E>
#         <Tau20> 1.1800</Tau20>
#         <H1>-3.3000e-002</H1>
#         <H2> 5.0000e+003</H2>
#         <H3> 1.4500e+003</H3>
#       </CalibrationCoefficients>
#     </OxygenSensor>
#   </sensor>
#   <sensor Channel="5" >
#     <!-- A/D voltage 1, PAR/Logarithmic, Satlantic -->
#     <PARLog_SatlanticSensor SensorID="76" >
#       <SerialNumber>1122</SerialNumber>
#       <CalibrationDate>08-May-2019</CalibrationDate>
#       <a0>9.7456e-001</a0>
#       <a1>8.1640e-001</a1>
#       <Im>1.3589e+000</Im>
#       <Multiplier>1.0000e+000</Multiplier>
#     </PARLog_SatlanticSensor>
#   </sensor>
#   <sensor Channel="6" >
#     <!-- A/D voltage 2, pH -->
#     <pH_Sensor SensorID="43" >
#       <SerialNumber>0363</SerialNumber>
#       <CalibrationDate>15-Apr-19</CalibrationDate>
#       <Slope>4.5952</Slope>
#       <Offset>2.5370</Offset>
#     </pH_Sensor>
#   </sensor>
#   <sensor Channel="7" >
#     <!-- A/D voltage 3, Oxidation Reduction Potential -->
#     <OxidationReductionPotentialSensor SensorID="41" >
#       <SerialNumber>0363</SerialNumber>
#       <CalibrationDate>15-Apr-19</CalibrationDate>
#       <B>2.499480</B>
#       <M>-0.496195</M>
#       <Offset>0.0</Offset>
#     </OxidationReductionPotentialSensor>
#   </sensor>
#   <sensor Channel="8" >
#     <!-- A/D voltage 4, Fluorometer, WET Labs ECO-AFL/FL -->
#     <FluoroWetlabECO_AFL_FL_Sensor SensorID="20" >
#       <SerialNumber>FLNTURT-2496</SerialNumber>
#       <CalibrationDate>08-May-2019</CalibrationDate>
#       <ScaleFactor>5.00000000e+001</ScaleFactor>
#       <!-- Dark output -->
#       <Vblank>0.0550</Vblank>
#     </FluoroWetlabECO_AFL_FL_Sensor>
#   </sensor>
#   <sensor Channel="9" >
#     <!-- A/D voltage 5, Turbidity Meter, WET Labs, ECO-NTU -->
#     <TurbidityMeter SensorID="67" >
#       <SerialNumber>FLNTURT-2496</SerialNumber>
#       <CalibrationDate>08-May-2019</CalibrationDate>
#       <ScaleFactor>189.000000</ScaleFactor>
#       <!-- Dark output -->
#       <DarkVoltage>0.071000</DarkVoltage>
#     </TurbidityMeter>
#   </sensor>
# </Sensors>
# datcnv_date = Aug 15 2019 01:14:34, 7.26.7.129 [datcnv_vars = 15]
# datcnv_in = C:\DATA\081419_fcr50_2100.hex C:\DATA\SBE19plusV2_7809.xmlcon
# datcnv_skipover = 0
# datcnv_ox_hysteresis_correction = yes
# datcnv_ox_tau_correction = yes
# filter_date = Aug 15 2019 01:15:00, 7.26.7.129
# filter_in = C:\DATA\081419_fcr50_2100.cnv
# filter_low_pass_tc_A = 0.030
# filter_low_pass_tc_B = 0.150
# filter_low_pass_A_vars = prdM prdE tv290C density00
# filter_low_pass_B_vars = depFM dz/dtM sbeox0Mg/L sbeox0PS specc c0uS/cm flECO-AFL ph orp par/sat/log turbWETntu0
# alignctd_date = Aug 15 2019 01:15:51, 7.26.7.129
# alignctd_in = C:\DATA\081419_fcr50_2100.cnv
# alignctd_adv = dz/dtM 1.000, sbeox0Mg/L 1.000, sbeox0PS 1.000, specc 1.000, c0uS/cm 1.000, flECO-AFL 1.000, ph 1.000, orp 1.000, turbWETntu0 1.000                                                                                 
# file_type = ascii
*END*
     -0.625 4.3139e-20     8.2139     94.996      0.239   0.227458    -0.1349      6.821 -1240.7455 1.2363e-01    -0.2678     -0.613     -0.889    22.5798   997.6445 0.0000e+00
     -0.625 3.9217e-21     8.2156     95.018      0.318   0.302495    -0.1314      6.824 -1240.7455 1.2366e-01    -0.2490     -0.613     -0.889    22.5799   997.6437 0.0000e+00
     -0.625 3.5652e-22     8.2154     95.017      0.328   0.311915    -0.1127      6.826 -1240.7455 1.2366e-01    -0.2196     -0.612     -0.888    22.5798   997.6450 0.0000e+00
     -0.625 3.2410e-23     8.2145     95.006      0.359   0.341366    -0.0738      6.827 -1240.7455 1.2371e-01    -0.1098     -0.612     -0.888    22.5798   997.6429 0.0000e+00
     -0.625 2.9464e-24     8.2140     95.001      0.359   0.341798    -0.0510      6.828 -1240.7455 1.2376e-01    -0.0349     -0.612     -0.888    22.5800   997.6373 0.0000e+00
     -0.625 2.6786e-25     8.2134     94.994      0.200   0.190413    -0.0535      6.830 -1240.7455 1.2378e-01    -0.0348     -0.613     -0.889    22.5799   997.6428 0.0000e+00
     -0.625 2.4351e-26     8.2131     94.991      0.167   0.158292    -0.0691      6.831 -1240.7455 1.2382e-01    -0.0429     -0.613     -0.889    22.5801   997.6450 0.0000e+00
     -0.625 2.2142e-27     8.2134     94.994      0.218   0.206855    -0.0923      6.830 -1240.7455 1.2403e-01    -0.0678     -0.613     -0.889    22.5802   997.6436 0.0000e+00
     -0.625 2.0628e-28     8.2131     94.991      0.218   0.207374    -0.1177      6.829 -1240.7455 1.2686e-01    -0.0745     -0.613     -0.889    22.5803   997.6443 0.0000e+00
     -0.625 7.3669e-29     8.2130     94.989      0.306   0.291274    -0.1249      6.827 -1240.7455 1.5878e-01    -0.0253     -0.613     -0.889    22.5805   997.6440 0.0000e+00
     -0.625 6.1078e-28     8.2141     95.001      0.417   0.397633    -0.1272      6.826 -1240.7455 5.1008e-01     0.0022     -0.613     -0.889    22.5803   997.6443 0.0000e+00
     -0.625 6.7004e-27     8.2151     95.013      0.437   0.416263    -0.1374      6.826 -1240.7455 1.1560e+00    -0.0688     -0.613     -0.890    22.5804   997.6440 0.0000e+00
     -0.625 7.3703e-26     8.2154     95.018      0.410   0.389809    -0.1344      6.828 -1240.7455 1.4985e+00    -0.1949     -0.613     -0.889    22.5805   997.6442 0.0000e+00
     -0.625 8.1073e-25     8.2159     95.024      0.348   0.331217    -0.1263      6.829 -1240.7455 1.5190e+00    -0.2776     -0.613     -0.889    22.5804   997.6440 0.0000e+00
     -0.625 8.9180e-24     8.2168     95.033      0.293   0.278052    -0.1263      6.829 -1240.7455 1.5343e+00    -0.3149     -0.613     -0.889    22.5805   997.6440 0.0000e+00
     -0.625 9.8098e-23     8.2172     95.038      0.334   0.317218    -0.1167      6.829 -1240.7455 1.5548e+00    -0.1546     -0.613     -0.889    22.5804   997.6440 0.0000e+00
     -0.625 1.0791e-21     8.2170     95.036      0.513   0.487984    -0.0886      6.830 -1240.7455 1.5862e+00     0.2194     -0.613     -0.889    22.5805   997.6440 0.0000e+00
     -0.625 1.1870e-20     8.2162     95.028      0.597   0.568716    -0.0644      6.831 -1240.7455 1.6473e+00     0.4375     -0.613     -0.889    22.5807   997.6440 0.0000e+00
     -0.625 1.3057e-19     8.2152     95.017      0.427   0.406306    -0.0578      6.832 -1240.7455 1.7157e+00     0.4506     -0.612     -0.888    22.5806   997.6441 0.0000e+00
     -0.625 1.4363e-18     8.2146     95.010      0.314   0.298349    -0.0779      6.833 -1240.7455 1.7561e+00     0.2470     -0.613     -0.889    22.5805   997.6440 0.0000e+00
     -0.625 1.5799e-17     8.2137     95.000      0.424   0.403893    -0.1081      6.833 -1240.7455 1.7237e+00    -0.1238     -0.613     -0.890    22.5807   997.6439 0.0000e+00
     -0.625 1.7379e-16     8.2118     94.979      0.769   0.732038    -0.1196      6.830 -1240.7455 1.6307e+00    -0.2968     -0.613     -0.889    22.5810   997.6438 0.0000e+00
     -0.625 1.9117e-15     8.2113     94.974      1.153   1.097958    -0.1131      6.827 -1240.7455 1.5417e+00    -0.2717     -0.613     -0.889    22.5812   997.6439 0.0000e+00
     -0.625 2.1028e-14     8.2128     94.990      1.278   1.216678    -0.1070      6.826 -1240.7455 1.4403e+00    -0.2791     -0.613     -0.889    22.5815   997.6438 0.0000e+00
     -0.625 2.3131e-13     8.2134     94.998      1.345   1.280443    -0.1146      6.827 -1240.7455 1.1739e+00    -0.3857     -0.613     -0.889    22.5818   997.6437 0.0000e+00
     -0.625 2.5444e-12     8.2144     95.009      1.564   1.488760    -0.1187      6.828 -1240.7455 8.3271e-01    -0.4794     -0.613     -0.889    22.5821   997.6436 0.0000e+00
     -0.625 2.7989e-11     8.2157     95.025      1.728   1.644484    -0.1134      6.830 -1240.7455 6.9688e-01    -0.4942     -0.613     -0.889    22.5823   997.6436 0.0000e+00
     -0.624 3.0787e-10     8.2155     95.023      1.726   1.642601    -0.1110      6.831 -1240.7455 7.8550e-01    -0.4997     -0.612     -0.888    22.5823   997.6436 0.0000e+00
     -0.624 3.3866e-09     8.2144     95.009      1.740   1.656076    -0.1151      6.831 -1240.7455 9.3929e-01    -0.5128     -0.612     -0.888    22.5823   997.6436 0.0000e+00
     -0.625 3.7253e-08     8.2136     95.001      1.765   1.680695    -0.1204      6.831 -1240.7455 9.7292e-01    -0.5216     -0.613     -0.889    22.5821   997.6436 0.0000e+00
     -0.625 4.0978e-07     8.2141     95.006      1.705   1.623448    -0.1234      6.832 -1240.7455 9.7980e-01    -0.5074     -0.613     -0.890    22.5821   997.6437 0.0000e+00
     -0.625      0.000     8.2137     95.001      1.612   1.534170    -0.1249      6.833 -1240.7455 1.0569e+00    -0.5044     -0.613     -0.889    22.5822   997.6436 0.0000e+00
     -0.625      0.000     8.2127     94.990      1.497   1.424955    -0.1216      6.833 -1240.7455 1.0803e+00    -0.5185     -0.613     -0.889    22.5822   997.6436 0.0000e+00
     -0.625      0.001     8.2130     94.994      1.383   1.316721    -0.1186      6.833 -1240.7455 1.0574e+00    -0.5142     -0.613     -0.889    22.5824   997.6436 0.0000e+00
     -0.625      0.001     8.2132     94.996      1.302   1.239317    -0.1222      6.833 -1240.7455 1.0347e+00    -0.5175     -0.613     -0.889    22.5825   997.6435 0.0000e+00
     -0.624      0.001     8.2131     94.995      1.246   1.186046    -0.1305      6.831 -1240.7455 1.0107e+00    -0.5264     -0.612     -0.888    22.5824   997.6436 0.0000e+00
     -0.624      0.001     8.2135     95.000      1.239   1.179512    -0.1325      6.830 -1240.7455 9.8374e-01    -0.5239     -0.612     -0.888    22.5825   997.6435 0.0000e+00
     -0.624      0.000     8.2143     95.010      1.286   1.223673    -0.1297      6.831 -1240.7455 9.3742e-01    -0.5200     -0.612     -0.887    22.5826   997.6435 0.0000e+00
     -0.624 1.7087e-08     8.2146     95.014      1.342   1.276464    -0.1308      6.832 -1240.7455 8.7848e-01    -0.5119     -0.613     -0.889    22.5826   997.6435 0.0000e+00
     -0.624 1.8796e-07     8.2146     95.014      1.377   1.310923    -0.1290      6.833 -1240.7455 8.2931e-01    -0.4905     -0.612     -0.888    22.5828   997.6434 0.0000e+00
     -0.624 1.8796e-07     8.2146     95.014      1.390   1.323499    -0.1251      6.833 -1240.7455 7.9044e-01    -0.4910     -0.611     -0.887    22.5831   997.6434 0.0000e+00
     -0.624 1.7087e-08     8.2149     95.018      1.368   1.301809    -0.1274      6.833 -1240.7455 7.5548e-01    -0.5185     -0.612     -0.888    22.5833   997.6433 0.0000e+00
     -0.624 1.5535e-09     8.2162     95.032      1.368   1.302113    -0.1302      6.833 -1240.7455 7.2628e-01    -0.5278     -0.612     -0.887    22.5833   997.6433 0.0000e+00
     -0.624 1.4277e-10     8.2163     95.034      1.395   1.327165    -0.1246      6.833 -1240.7455 7.1816e-01    -0.5047     -0.612     -0.887    22.5835   997.6433 0.0000e+00
     -0.624 2.9927e-11     8.2143     95.011      1.420   1.351266    -0.1199      6.833 -1240.7455 7.2456e-01    -0.5021     -0.612     -0.888    22.5836   997.6433 0.0000e+00
     -0.624 1.8915e-10     8.2135     95.001      1.541   1.466791    -0.1256      6.833 -1240.7455 7.1661e-01    -0.5283     -0.612     -0.888    22.5838   997.6432 0.0000e+00
     -0.624 2.0679e-09     8.2141     95.009      1.597   1.520087    -0.1332      6.833 -1240.7453 6.8430e-01    -0.5272     -0.611     -0.887    22.5837   997.6432 0.0000e+00
     -0.624 2.2746e-08     8.2136     95.003      1.431   1.362048    -0.1248      6.833 -1240.7437 6.5118e-01    -0.5212     -0.612     -0.887    22.5841   997.6432 0.0000e+00
     -0.624 2.5020e-07     8.2126     94.992      1.331   1.266723    -0.1108      6.833 -1240.7259 6.3454e-01    -0.5216     -0.611     -0.886    22.5838   997.6433 0.0000e+00
     -0.624      0.000     8.2124     94.990      1.384   1.317948    -0.1198      6.834 -1240.5294 6.2876e-01    -0.5319     -0.612     -0.887    22.5845   997.6431 0.0000e+00
     -0.624      0.000     8.2129     94.997      1.416   1.347795    -0.1294      6.838 -1238.3683 6.2478e-01    -0.5475     -0.612     -0.888    22.5834   997.6433 0.0000e+00
     -0.623      0.000     8.2130     95.004      1.642   1.564238    -0.1234      6.860 -1214.5961 6.1946e-01    -0.5456     -0.611     -0.887    22.5853   997.6428 0.0000e+00
     -0.623      0.004     8.2085     95.007      4.719   4.505193    -0.1249      7.102  -953.1020 6.0985e-01    -0.5425     -0.611     -0.887    22.5825   997.6435 0.0000e+00
     -0.624      0.015     8.1670     94.999     11.871  11.428124    -0.1299      7.625  -374.1717 5.9510e-01    -0.5110     -0.612     -0.888    22.5875   997.6424 0.0000e+00
     -0.624      0.038     8.0477     94.960     21.292  20.870480    -0.1237      8.110    94.1334 5.7932e-01    -0.4587     -0.611     -0.887    22.5801   997.6442 0.0000e+00
     -0.622      0.071     7.8855     94.912     30.945  30.910358    -0.1103      8.452   230.5335 5.4577e-01    -0.4342     -0.612     -0.888    22.5927   997.6411 0.0000e+00
     -0.610      0.108     7.7511     94.877     36.660  37.155188    -0.0636      8.743   236.8812 5.0597e-01    -0.0508     -0.610     -0.884    22.5721   997.6461 0.0000e+00
     -0.575      0.146     7.6557     94.842     37.912  38.890178     0.4419      8.968   238.8534 4.8884e-01     4.3732     -0.571     -0.828    22.6409   997.6327 0.0000e+00
     -0.520      0.178     7.5836     94.836     37.891  39.257543     1.3797      9.113   241.9890 4.7627e-01    12.4517     -0.510     -0.739    23.5051   997.4291 0.0000e+00
     -0.459      0.200     7.5343     94.897     37.655  39.312289     1.8952      9.205   239.9483 4.5262e-01    16.8738     -0.451     -0.653    24.8381   997.1030 0.0000e+00
     -0.397      0.208     7.5088     95.042     37.383  39.235172     1.9489      9.272   234.5709 4.2479e-01    17.2692     -0.387     -0.562    25.7146   996.8783 0.0000e+00
     -0.340      0.204     7.5039     95.277     37.118  39.087202     2.0124      9.317   227.9064 4.0704e-01    17.0022     -0.330     -0.479    26.3058   996.7210 0.0000e+00
     -0.290      0.194     7.5159     95.617     36.822  38.856464     2.6623      9.338   221.8327 4.0452e-01    13.8428     -0.282     -0.408    26.8437   996.5757 0.0000e+00
     -0.247      0.179     7.5390     96.027     36.596  38.667219     3.8681      9.339   217.1466 3.9486e-01     8.1048     -0.241     -0.350    27.2408   996.4663 0.0000e+00
     -0.206      0.159     7.5715     96.469     36.498  38.576535     4.5404      9.331   213.8361 3.8122e-01     5.0095     -0.205     -0.296    27.5051   996.3930 0.0000e+00
     -0.163      0.136     7.6124     96.908     36.418  38.458285     4.6092      9.324   211.8337 3.7504e-01     4.7325     -0.161     -0.232    27.6703   996.3467 0.0000e+00
     -0.121      0.111     7.6531     97.295     36.336  38.316526     4.6397      9.319   210.4875 3.6992e-01     4.5916     -0.113     -0.163    27.7665   996.3197 0.0000e+00
     -0.093      0.085     7.6856     97.603     36.324  38.258954     4.6928      9.312   209.6908 3.6471e-01     4.3883     -0.083     -0.121    27.8393   996.2992 0.0000e+00
     -0.080      0.060     7.7044     97.794     36.414  38.333413     4.7226      9.302   209.3419 3.5686e-01     4.2736     -0.076     -0.111    27.8720   996.2900 0.0000e+00
     -0.076      0.038     7.7090     97.865     36.584  38.518516     4.7310      9.291   209.2807 3.4907e-01     4.2204     -0.074     -0.108    27.8032   996.3094 0.0000e+00
     -0.074      0.021     7.7082     97.917     36.751  38.719659     4.7936      9.281   209.9837 3.4972e-01     4.2367     -0.073     -0.106    27.7085   996.3361 0.0000e+00
     -0.072      0.011     7.7352     98.346     36.851  38.861123     4.8991      9.273   212.5068 3.5527e-01     4.3393     -0.071     -0.103    27.6470   996.3535 0.0000e+00
     -0.070      0.008     7.8164     99.468     36.908  38.959441     4.9484      9.265   215.5247 3.6066e-01     4.3800     -0.068     -0.099    27.6153   996.3624 0.0000e+00
     -0.068      0.010     7.9084    100.723     36.932  39.019767     4.9389      9.259   216.5305 3.7393e-01     4.4007     -0.067     -0.097    27.6259   996.3594 0.0000e+00
     -0.067      0.013     7.9635    101.493     36.906  39.019258     4.8882      9.253   215.9782 3.7697e-01     4.4577     -0.066     -0.095    27.6695   996.3472 0.0000e+00
     -0.065      0.015     7.9990    101.997     36.883  39.016815     4.8124      9.246   214.4396 3.6455e-01     4.4802     -0.064     -0.093    27.7207   996.3329 0.0000e+00
     -0.060      0.015     8.0293    102.417     36.905  39.053745     4.7773      9.238   211.9513 3.6507e-01     4.4755     -0.060     -0.088    27.7735   996.3181 0.0000e+00
     -0.053      0.014     8.0453    102.638     36.928  39.084916     4.7755      9.229   210.2414 3.7567e-01     4.4673     -0.052     -0.074    27.8244   996.3038 0.0000e+00
     -0.046      0.013     8.0576    102.814     36.913  39.076322     4.7986      9.220   209.5105 3.7197e-01     4.4789     -0.044     -0.064    27.8591   996.2940 0.0000e+00
     -0.044      0.010     8.0781    103.103     36.842  39.013317     4.8488      9.213   208.7073 3.5661e-01     4.5176     -0.043     -0.063    27.8897   996.2852 0.0000e+00
     -0.044      0.006     8.1044    103.467     36.719  38.894462     4.8793      9.205   207.9289 3.4856e-01     4.5094     -0.044     -0.063    27.9094   996.2796 0.0000e+00
     -0.044      0.002     8.1336    103.865     36.604  38.781894     4.8898      9.199   207.0683 3.5209e-01     4.4444     -0.043     -0.063    27.9110   996.2793 0.0000e+00
     -0.044      0.000     8.1606    104.235     36.607  38.794898     4.8983      9.194   206.0458 3.6104e-01     4.3877     -0.044     -0.064    27.9207   996.2766 0.0000e+00
     -0.044 4.4689e-08     8.1755    104.450     36.720  38.924747     4.9393      9.189   205.5461 3.6437e-01     4.3810     -0.043     -0.062    27.9407   996.2709 0.0000e+00
     -0.044 4.9158e-07     8.1684    104.369     36.805  39.018851     5.0212      9.183   205.6729 3.6290e-01     4.4285     -0.043     -0.062    27.9563   996.2664 0.0000e+00
     -0.044 4.9158e-07     8.1348    103.925     36.834  39.044001     5.0648      9.178   205.7713 3.6143e-01     4.4712     -0.043     -0.062    27.9681   996.2630 0.0000e+00
     -0.044 4.4689e-08     8.0764    103.156     36.837  39.038386     5.0592      9.173   205.4463 3.5992e-01     4.4708     -0.044     -0.064    27.9816   996.2591 0.0000e+00
     -0.044 4.0627e-09     8.0046    102.227     36.819  39.014436     5.0399      9.168   205.0126 3.6392e-01     4.4888     -0.043     -0.063    27.9981   996.2545 0.0000e+00
     -0.044 3.6933e-10     7.9432    101.443     36.814  39.008334     5.0137      9.163   204.9147 3.7190e-01     4.5257     -0.043     -0.062    28.0062   996.2523 0.0000e+00
     -0.044 3.3576e-11     7.9179    101.124     36.831  39.028087     5.0021      9.158   205.3815 3.7386e-01     4.5233     -0.043     -0.062    27.9951   996.2554 0.0000e+00
     -0.044 3.0523e-12     7.9435    101.456     36.861  39.062822     5.0128      9.153   206.6992 3.6707e-01     4.4928     -0.043     -0.063    27.9773   996.2605 0.0000e+00
     -0.044 2.7749e-13     8.0168    102.399     36.904  39.110919     5.0123      9.148   208.1131 3.6773e-01     4.3864     -0.043     -0.063    27.9713   996.2621 0.0000e+00
     -0.044 2.5226e-14     8.1193    103.716     36.953  39.165283     4.9873      9.144   208.3652 3.7820e-01     4.2526     -0.043     -0.062    27.9737   996.2614 0.0000e+00
     -0.044 2.2933e-15     8.2320    105.161     36.995  39.212298     4.9626      9.141   207.4248 3.7874e-01     4.2182     -0.043     -0.063    27.9764   996.2607 0.0000e+00
     -0.043 2.0848e-16     8.3394    106.534     37.016  39.235014     4.9386      9.139   206.3795 3.7030e-01     4.2327     -0.043     -0.061    27.9791   996.2599 0.0000e+00
     -0.043 1.8952e-17     8.4283    107.670     37.030  39.249514     4.8881      9.136   206.0516 3.6479e-01     4.2969     -0.042     -0.060    27.9827   996.2589 0.0000e+00
     -0.044 1.7229e-18     8.4922    108.491     37.039  39.260651     4.8120      9.133   206.0412 3.6413e-01     4.4049     -0.043     -0.062    27.9878   996.2575 0.0000e+00
     -0.044 1.5652e-19     8.5274    108.948     37.019  39.242716     4.7721      9.130   205.9958 3.6150e-01     4.4579     -0.043     -0.063    27.9914   996.2565 0.0000e+00
     -0.043 1.3014e-20     8.5336    109.034     36.998  39.223101     4.7876      9.127   205.8466 3.5485e-01     4.4781     -0.043     -0.062    27.9908   996.2567 0.0000e+00
     -0.043 -1.219e-20     8.5214    108.884     36.988  39.213928     4.8959      9.125   204.9260 3.3978e-01     4.5184     -0.042     -0.061    27.9894   996.2571 0.0000e+00
     -0.043 -1.482e-19     8.5032    108.657     36.968  39.195294     5.0844      9.124   203.4687 3.2954e-01     4.5193     -0.042     -0.061    27.9919   996.2564 0.0000e+00
     -0.043 -1.632e-18     8.4827    108.402     36.959  39.188243     5.1847      9.123   202.6805 3.3623e-01     4.4557     -0.043     -0.062    27.9966   996.2550 0.0000e+00
     -0.043 -1.795e-17     8.4612    108.133     36.960  39.192156     5.1899      9.122   202.7093 3.3859e-01     4.4379     -0.043     -0.062    28.0002   996.2540 0.0000e+00
     -0.044 -1.974e-16     8.4399    107.866     36.946  39.179125     5.1899      9.120   202.8704 3.4564e-01     4.4684     -0.043     -0.062    28.0029   996.2532 0.0000e+00
     -0.044 -2.172e-15     8.4197    107.614     36.924  39.157656     5.1249      9.117   202.2197 3.5427e-01     4.4301     -0.043     -0.062    28.0056   996.2524 0.0000e+00
     -0.044 -2.389e-14     8.4002    107.369     36.889  39.123025     4.9933      9.114   201.0362 3.5302e-01     4.3352     -0.043     -0.062    28.0094   996.2513 0.0000e+00
     -0.043 -2.628e-13     8.3807    107.124     36.845  39.077797     4.9162      9.111   200.6072 3.5794e-01     4.2387     -0.043     -0.062    28.0136   996.2502 0.0000e+00
     -0.043 -4.818e-13     8.3636    106.907     36.823  39.055164     4.9042      9.107   200.9893 3.6201e-01     4.1808     -0.042     -0.061    28.0156   996.2496 0.0000e+00
     -0.043 -2.628e-13     8.3473    106.697     36.809  39.039815     4.8992      9.103   201.5269 3.6096e-01     4.2585     -0.043     -0.062    28.0185   996.2489 0.0000e+00
     -0.043 -2.389e-14     8.3247    106.400     36.793  39.019168     4.9002      9.100   201.3426 3.6131e-01     4.3907     -0.043     -0.062    28.0215   996.2479 0.0000e+00
     -0.043 -2.172e-15     8.2920    105.963     36.778  38.995953     4.9071      9.097   200.5677 3.5852e-01     4.4363     -0.043     -0.063    28.0233   996.2474 0.0000e+00
     -0.043 -1.975e-16     8.2509    105.410     36.744  38.949551     4.9127      9.095   200.4171 3.5573e-01     4.4502     -0.043     -0.062    28.0249   996.2469 0.0000e+00
     -0.043 -1.795e-17     8.2028    104.769     36.710  38.902464     4.9418      9.092   201.0709 3.5552e-01     4.4272     -0.042     -0.061    28.0247   996.2470 0.0000e+00
     -0.043 -1.632e-18     8.1470    104.037     36.688  38.870961     4.9910      9.090   201.8476 3.4824e-01     4.3222     -0.043     -0.062    28.0216   996.2479 0.0000e+00
     -0.043 -1.479e-19     8.0822    103.194     36.648  38.822558     5.0126      9.087   202.3216 3.3824e-01     4.2288     -0.043     -0.062    28.0113   996.2508 0.0000e+00
     -0.043 -8.089e-21     8.0065    102.214     36.596  38.761565     5.0133      9.084   202.3291 3.3899e-01     4.2161     -0.043     -0.062    27.9941   996.2557 0.0000e+00
     -0.043 5.8128e-20     7.9216    101.119     36.546  38.704790     5.0258      9.081   201.8524 3.4960e-01     4.2667     -0.043     -0.062    27.9789   996.2600 0.0000e+00
     -0.043 6.5278e-19     7.8346     99.997     36.493  38.643918     5.0497      9.079   201.2893 3.5168e-01     4.3484     -0.042     -0.061    27.9683   996.2629 0.0000e+00
     -0.043 7.1818e-18     7.7476     98.875     36.453  38.596868     5.0682      9.077   201.0280 3.4267e-01     4.4169     -0.042     -0.061    27.9600   996.2653 0.0000e+00
     -0.043 7.9000e-17     7.6585     97.726     36.442  38.580243     5.0593      9.075   201.0163 3.4130e-01     4.4397     -0.043     -0.062    27.9531   996.2672 0.0000e+00
     -0.043 8.6900e-16     7.5678     96.556     36.437  38.569852     4.9332      9.073   200.9751 3.5224e-01     4.4275     -0.042     -0.060    27.9469   996.2690 0.0000e+00
     -0.043 9.5590e-15     7.4786     95.405     36.409  38.534705     4.7225      9.072   200.7016 3.6333e-01     4.4335     -0.042     -0.061    27.9405   996.2708 0.0000e+00
     -0.043 1.0515e-13     7.3945     94.316     36.357  38.472664     4.6188      9.069   200.3767 3.6570e-01     4.4795     -0.042     -0.061    27.9341   996.2726 0.0000e+00
     -0.043 1.1566e-12     7.3142     93.275     36.287  38.391011     4.6075      9.065   200.3162 3.6603e-01     4.5253     -0.042     -0.060    27.9275   996.2745 0.0000e+00
     -0.043 1.2723e-11     7.2376     92.281     36.217  38.309146     4.5950      9.064   200.4009 3.6607e-01     4.5280     -0.042     -0.061    27.9202   996.2766 0.0000e+00
     -0.043 1.3995e-10     7.1661     91.350     36.164  38.244556     4.5790      9.063   200.4545 3.5712e-01     4.4469     -0.042     -0.061    27.9121   996.2788 0.0000e+00
     -0.042 1.5395e-09     7.0956     90.430     36.114  38.181341     4.5613      9.061   200.7923 3.4999e-01     4.3306     -0.042     -0.060    27.9028   996.2815 0.0000e+00
     -0.042 1.6934e-08     7.0250     89.508     36.061  38.116098     4.5548      9.058   201.3019 3.6274e-01     4.2696     -0.042     -0.060    27.8930   996.2842 0.0000e+00
     -0.042 1.8628e-07     6.9580     88.633     35.986  38.026979     4.5702      9.056   201.4529 3.7467e-01     4.2663     -0.041     -0.060    27.8822   996.2872 0.0000e+00
     -0.042 1.8631e-07     6.8949     87.808     35.902  37.928983     4.6604      9.056   201.2415 3.6738e-01     4.3234     -0.041     -0.059    27.8700   996.2906 0.0000e+00
     -0.042 1.7270e-08     6.8332     87.004     35.867  37.883362     4.8042      9.055   200.9837 3.5700e-01     4.4032     -0.042     -0.060    27.8569   996.2943 0.0000e+00
     -0.042 5.2367e-09     6.7716     86.203     35.849  37.856219     4.8784      9.052   201.4330 3.5383e-01     4.4446     -0.041     -0.060    27.8426   996.2984 0.0000e+00
     -0.042 4.0810e-08     6.7116     85.426     35.794  37.791210     4.8906      9.049   202.4579 3.5498e-01     4.4629     -0.042     -0.060    27.8281   996.3024 0.0000e+00
     -0.042 4.4738e-07     6.6560     84.705     35.744  37.732089     4.8997      9.047   202.8784 3.5385e-01     4.4276     -0.041     -0.060    27.8149   996.3061 0.0000e+00
     -0.042      0.000     6.6055     84.047     35.731  37.712668     4.9022      9.046   202.4734 3.4886e-01     4.3133     -0.042     -0.060    27.8032   996.3095 0.0000e+00
     -0.042      0.000     6.5595     83.450     35.710  37.683330     4.8941      9.045   201.7774 3.5296e-01     4.2281     -0.041     -0.060    27.7928   996.3124 0.0000e+00
     -0.042      0.001     6.5172     82.896     35.667  37.631247     4.8883      9.043   201.3469 3.6225e-01     4.2489     -0.041     -0.060    27.7831   996.3151 0.0000e+00
     -0.042      0.002     6.4788     82.391     35.637  37.590728     4.8938      9.043   201.6551 3.6143e-01     4.3681     -0.042     -0.061    27.7741   996.3176 0.0000e+00
     -0.042      0.002     6.4442     81.934     35.629  37.574254     4.8995      9.042   202.4063 3.6395e-01     4.4899     -0.041     -0.060    27.7656   996.3200 0.0000e+00
     -0.041      0.003     6.4127     81.519     35.621  37.559002     4.9052      9.041   202.5153 3.6762e-01     4.5094     -0.041     -0.059    27.7570   996.3224 0.0000e+00
     -0.039      0.003     6.3852     81.156     35.603  37.533254     4.9013      9.039   202.1127 3.6522e-01     4.4720     -0.039     -0.056    27.7469   996.3252 0.0000e+00
     -0.038      0.002     6.3580     80.797     35.594  37.516819     4.8788      9.037   202.1847 3.6702e-01     4.3989     -0.037     -0.054    27.7349   996.3286 0.0000e+00
     -0.038      0.002     6.3285     80.410     35.572  37.487233     4.8579      9.034   202.9549 3.6633e-01     4.3135     -0.037     -0.054    27.7232   996.3320 0.0000e+00
     -0.038      0.001     6.3015     80.053     35.523  37.429415     4.8493      9.031   204.0255 3.6361e-01     4.2914     -0.037     -0.054    27.7126   996.3348 0.0000e+00
     -0.038      0.000     6.2770     79.727     35.492  37.389004     4.8429      9.027   204.8042 3.6373e-01     4.2964     -0.037     -0.054    27.7035   996.3374 0.0000e+00
     -0.038 1.9701e-08     6.2527     79.403     35.491  37.379463     4.8409      9.023   205.1427 3.6278e-01     4.3413     -0.037     -0.054    27.6949   996.3399 0.0000e+00
     -0.038 2.1671e-07     6.2293     79.089     35.497  37.377512     4.8603      9.020   205.0212 3.5810e-01     4.4406     -0.037     -0.053    27.6861   996.3424 0.0000e+00
     -0.038 1.4699e-07     6.2062     78.777     35.493  37.365407     4.8865      9.019   204.5401 3.5363e-01     4.4810     -0.037     -0.053    27.6768   996.3450 0.0000e+00
     -0.038 -1.260e-07     6.1820     78.452     35.496  37.360042     4.8975      9.018   204.2295 3.5654e-01     4.4689     -0.037     -0.054    27.6662   996.3479 0.0000e+00
     -0.038 -1.502e-07     6.1580     78.132     35.520  37.376096     4.9071      9.017   204.1909 3.6139e-01     4.4584     -0.037     -0.053    27.6547   996.3512 0.0000e+00
     -0.038 -1.462e-07     6.1366     77.845     35.521  37.369076     4.9248      9.017   203.9874 3.6643e-01     4.3536     -0.037     -0.053    27.6426   996.3546 0.0000e+00
     -0.038 -7.670e-08     6.1168     77.577     35.501  37.338631     4.9471      9.016   203.5757 3.6896e-01     4.1848     -0.037     -0.054    27.6305   996.3580 0.0000e+00
     -0.038 -6.970e-09     6.0987     77.327     35.498  37.325345     4.9676      9.015   203.1712 3.6492e-01     4.0896     -0.037     -0.054    27.6184   996.3613 0.0000e+00
     -0.038 -6.335e-10     6.0845     77.124     35.518  37.335366     4.9736      9.015   202.5380 3.6308e-01     4.0541     -0.037     -0.053    27.6064   996.3647 0.0000e+00
     -0.038 -5.760e-11     6.0738     76.964     35.527  37.332828     4.9245      9.013   201.7705 3.6174e-01     4.1166     -0.037     -0.053    27.5949   996.3679 0.0000e+00
     -0.038 -5.235e-12     6.0674     76.860     35.502  37.294641     4.8334      9.011   201.5486 3.6211e-01     4.2553     -0.037     -0.054    27.5822   996.3715 0.0000e+00
     -0.038 -4.759e-13     6.0652     76.812     35.474  37.254468     4.7825      9.008   201.9204 3.6549e-01     4.3214     -0.037     -0.053    27.5680   996.3754 0.0000e+00
     -0.038 -4.137e-14     6.0640     76.777     35.459  37.227936     4.7776      9.006   202.3943 3.6289e-01     4.2943     -0.037     -0.054    27.5517   996.3800 0.0000e+00
     -0.038 1.7095e-14     6.0645     76.765     35.468  37.227718     4.7395      9.005   202.6323 3.5688e-01     4.1896     -0.037     -0.053    27.5337   996.3851 0.0000e+00
     -0.038 2.3097e-13     6.0674     76.783     35.500  37.251820     4.6506      9.002   202.2160 3.5628e-01     4.0708     -0.037     -0.054    27.5168   996.3898 0.0000e+00
     -0.038 2.5446e-12     6.0689     76.783     35.523  37.265440     4.5969      8.999   201.4050 3.6233e-01     4.0379     -0.037     -0.054    27.5013   996.3941 0.0000e+00
     -0.038 2.7990e-11     6.0677     76.749     35.533  37.265431     4.6099      8.997   201.1725 3.6589e-01     4.0541     -0.036     -0.053    27.4871   996.3981 0.0000e+00
     -0.038 3.0789e-10     6.0646     76.687     35.530  37.251697     4.7123      8.994   201.6419 3.6475e-01     4.0365     -0.037     -0.053    27.4737   996.4018 0.0000e+00
     -0.038 3.3868e-09     6.0601     76.607     35.518  37.226310     4.8646      8.992   202.3489 3.6267e-01     3.9893     -0.037     -0.053    27.4605   996.4054 0.0000e+00
     -0.038 3.7255e-08     6.0546     76.510     35.518  37.212359     4.9338      8.990   202.3210 3.6117e-01     3.9743     -0.037     -0.054    27.4469   996.4093 0.0000e+00
     -0.038 4.0981e-07     6.0479     76.395     35.530  37.209949     4.9414      8.988   201.4767 3.6103e-01     4.0200     -0.037     -0.053    27.4323   996.4134 0.0000e+00
     -0.038      0.000     6.0400     76.262     35.535  37.197134     4.9649      8.986   201.0894 3.6138e-01     4.1158     -0.037     -0.053    27.4167   996.4178 0.0000e+00
     -0.038      0.000     6.0309     76.113     35.541  37.184336     5.0009      8.984   201.4229 3.6047e-01     4.2146     -0.037     -0.053    27.3994   996.4226 0.0000e+00
     -0.037      0.001     6.0224     75.970     35.556  37.182134     5.0133      8.984   201.8957 3.5642e-01     4.2650     -0.036     -0.052    27.3799   996.4280 0.0000e+00
     -0.037      0.001     6.0160     75.855     35.562  37.170482     5.0099      8.983   201.9882 3.5648e-01     4.2657     -0.036     -0.053    27.3571   996.4343 0.0000e+00
     -0.037      0.001     6.0105     75.751     35.579  37.170371     5.0134      8.982   201.4228 3.6208e-01     4.2560     -0.037     -0.053    27.3322   996.4413 0.0000e+00
     -0.037      0.001     6.0060     75.658     35.607  37.180753     5.0121      8.979   200.6518 3.6202e-01     4.4426     -0.036     -0.052    27.3063   996.4485 0.0000e+00
     -0.036      0.001     6.0032     75.586     35.615  37.169035     5.0193      8.975   200.3235 3.6305e-01     4.7857     -0.035     -0.051    27.2801   996.4558 0.0000e+00
     -0.036      0.001     6.0012     75.523     35.621  37.155606     5.0314      8.971   200.2931 3.6884e-01     4.9297     -0.035     -0.050    27.2549   996.4628 0.0000e+00
     -0.036      0.001     5.9980     75.446     35.629  37.145306     5.0287      8.967   200.5416 3.6413e-01     4.9053     -0.035     -0.050    27.2300   996.4697 0.0000e+00
     -0.036      0.001     5.9933     75.351     35.673  37.171415     4.9857      8.964   201.0051 3.4879e-01     4.7528     -0.034     -0.050    27.2035   996.4770 0.0000e+00
     -0.036      0.000     5.9949     75.340     36.098  37.598200     4.9104      8.959   201.2511 3.3887e-01     4.4624     -0.035     -0.050    27.1757   996.4847 0.0000e+00
     -0.035 1.8628e-08     6.0240     75.734     37.008  38.560432     4.8648      8.954   201.4511 3.3974e-01     4.2779     -0.034     -0.050    27.1484   996.4923 0.0000e+00
     -0.035 2.0490e-07     6.1677     77.730     37.730  39.411136     4.8497      8.950   201.6167 3.4589e-01     4.2260     -0.034     -0.050    27.1209   996.4999 0.0000e+00
     -0.035 2.0490e-07     6.5819     83.317     37.891  39.758931     4.8579      8.946   201.6184 3.5910e-01     4.2945     -0.034     -0.050    27.0933   996.5075 0.0000e+00
     -0.035 1.8627e-08     7.3014     92.815     37.803  39.845790     4.8950      8.942   201.7299 3.7328e-01     4.4504     -0.034     -0.050    27.0649   996.5153 0.0000e+00
     -0.035 1.6934e-09     8.1788    104.259     37.727  39.890299     4.9169      8.938   202.0188 3.7804e-01     4.5050     -0.034     -0.049    27.0433   996.5217 0.0000e+00
     -0.035 1.5395e-10     9.0313    115.320     37.681  39.916388     4.9139      8.937   202.1863 3.7225e-01     4.4628     -0.034     -0.050    27.1670   996.4878 0.0000e+00
     -0.035 1.3995e-11     9.7362    124.445     37.631  39.907410     4.9025      8.936   201.9474 3.5772e-01     4.4322     -0.034     -0.050    27.4688   996.4039 0.0000e+00
     -0.035 1.2723e-12    10.2540    131.142     37.606  39.908783     4.8922      8.935   201.4543 3.4710e-01     4.4631     -0.034     -0.050    27.7302   996.3306 0.0000e+00
     -0.035 1.1566e-13    10.5805    135.370     37.613  39.933030     4.8931      8.933   201.0426 3.5125e-01     4.5082     -0.034     -0.050    27.8813   996.2880 0.0000e+00
     -0.034 1.0515e-14    10.7171    137.150     37.617  39.946672     4.8961      8.931   201.1852 3.5909e-01     4.4864     -0.034     -0.049    27.9732   996.2620 0.0000e+00
     -0.034 9.5590e-16    10.6849    136.754     37.612  39.946776     4.8943      8.928   201.7158 3.5754e-01     4.4294     -0.034     -0.049    28.0253   996.2472 0.0000e+00
     -0.034 8.6900e-17    10.5395    134.901     37.598  39.934298     4.8883      8.927   201.7791 3.5509e-01     4.4074     -0.034     -0.049    28.0583   996.2377 0.0000e+00
     -0.034 7.9000e-18    10.3602    132.611     37.585  39.922766     4.8924      8.925   201.3491 3.5622e-01     4.4174     -0.033     -0.049    28.0795   996.2316 0.0000e+00
     -0.034 7.1820e-19    10.1987    130.551     37.594  39.934309     4.9094      8.922   200.9046 3.6314e-01     4.4192     -0.034     -0.049    28.0925   996.2280 0.0000e+00
     -0.034 6.5291e-20    10.0737    128.955     37.605  39.946899     4.9122      8.919   201.3086 3.7550e-01     4.4295     -0.034     -0.049    28.0974   996.2266 0.0000e+00
     -0.034 5.9446e-21     9.9845    127.816     37.606  39.948034     4.8909      8.916   202.3620 3.7684e-01     4.5095     -0.034     -0.050    28.0997   996.2258 0.0000e+00
     -0.034 6.3941e-22     9.9189    126.977     37.605  39.948033     4.8602      8.914   202.8003 3.7138e-01     4.5994     -0.034     -0.049    28.1028   996.2251 0.0000e+00
     -0.034 1.1470e-21     9.8686    126.333     37.604  39.946887     4.8363      8.912   202.8223 3.6688e-01     4.6314     -0.034     -0.049    28.1057   996.2242 0.0000e+00
     -0.034 1.2082e-20     9.8312    125.851     37.593  39.934182     4.8271      8.910   202.7992 3.5842e-01     4.6669     -0.034     -0.049    28.1070   996.2238 0.0000e+00
     -0.034 1.3285e-19     9.8052    125.509     37.584  39.921381     4.8263      8.908   203.2094 3.4774e-01     4.6359     -0.033     -0.049    28.1079   996.2236 0.0000e+00
     -0.035 1.4614e-18     9.7884    125.278     37.587  39.919074     4.8270      8.907   204.1687 3.4358e-01     4.5194     -0.034     -0.050    28.1085   996.2234 0.0000e+00
     -0.035 1.6075e-17     9.7772    125.114     37.581  39.906274     4.8355      8.907   204.5039 3.4415e-01     4.4376     -0.034     -0.050    28.1095   996.2231 0.0000e+00
     -0.034 1.7683e-16     9.7703    125.005     37.576  39.893569     4.8520      8.907   204.2508 3.4866e-01     4.4339     -0.034     -0.049    28.1091   996.2233 0.0000e+00
     -0.034 1.9451e-15     9.7666    124.936     37.582  39.892415     4.8696      8.906   203.7761 3.5634e-01     4.5395     -0.034     -0.049    28.1038   996.2247 0.0000e+00
     -0.034 2.1396e-14     9.7636    124.877     37.588  39.892311     4.8836      8.906   203.0656 3.5634e-01     4.6659     -0.034     -0.049    28.0959   996.2270 0.0000e+00
     -0.034 2.3536e-13     9.7618    124.839     37.593  39.892302     4.8836      8.906   203.0592 3.5573e-01     4.6837     -0.034     -0.050    28.0870   996.2296 0.0000e+00
     -0.034 2.5889e-12     9.7610    124.823     37.596  39.892302     4.8865      8.905   203.7852 3.4652e-01     4.6562     -0.033     -0.049    28.0764   996.2326 0.0000e+00
     -0.034 2.8478e-11     9.7585    124.790     37.596  39.892302     4.9442      8.903   204.1860 3.3112e-01     4.6620     -0.034     -0.049    28.0663   996.2354 0.0000e+00
     -0.034 3.1326e-10     9.7497    124.677     37.596  39.892302     5.0355      8.901   203.9472 3.2975e-01     4.6881     -0.033     -0.049    28.0568   996.2381 0.0000e+00
     -0.034 3.4459e-09     9.7345    124.477     37.597  39.892302     5.0804      8.899   203.3937 3.2076e-01     4.7098     -0.034     -0.049    28.0495   996.2402 0.0000e+00
     -0.034 3.7904e-08     9.7195    124.276     37.600  39.892303     5.0791      8.896   203.1720 2.9734e-01     4.6940     -0.033     -0.049    28.0472   996.2409 0.0000e+00
     -0.034 4.1695e-07     9.7085    124.129     37.602  39.892303     5.0461      8.894   203.5035 2.7676e-01     4.6286     -0.034     -0.049    28.0474   996.2408 0.0000e+00
     -0.034      0.000     9.7012    124.036     37.602  39.892298     4.9928      8.893   203.9605 2.6598e-01     4.5420     -0.033     -0.049    28.0483   996.2405 0.0000e+00
     -0.034      0.000     9.6962    123.976     37.601  39.892235     4.9637      8.893   204.2230 2.6278e-01     4.4655     -0.033     -0.048    28.0468   996.2410 0.0000e+00
     -0.035      0.001     9.6929    123.931     37.601  39.891548     4.9543      8.892   204.2693 2.5031e-01     4.4260     -0.034     -0.050    28.0409   996.2427 0.0000e+00
     -0.035      0.001     9.6949    123.941     37.599  39.883993     4.9483      8.891   203.9178 2.4604e-01     4.4243     -0.034     -0.050    28.0374   996.2437 0.0000e+00
     -0.034      0.002     9.7020    124.003     37.589  39.864363     4.9350      8.890   203.3277 2.5738e-01     4.4768     -0.033     -0.049    28.0375   996.2436 0.0000e+00
     -0.033      0.004     9.7025    123.978     37.581  39.844634     4.9151      8.889   203.1569 2.5229e-01     4.6029     -0.033     -0.048    28.0408   996.2426 0.0000e+00
     -0.032      0.005     9.6863    123.741     37.583  39.835875     4.9068      8.889   203.3161 2.3681e-01     4.7039     -0.032     -0.046    28.0415   996.2425 0.0000e+00
     -0.031      0.007     9.6582    123.358     37.578  39.821922     4.9039      8.890   203.2741 2.2384e-01     4.7471     -0.030     -0.044    28.0339   996.2446 0.0000e+00
     -0.029      0.008     9.6311    122.993     37.565  39.802878     4.9062      8.893   202.3916 2.0869e-01     4.7981     -0.028     -0.041    28.0198   996.2486 0.0000e+00
     -0.027      0.010     9.6108    122.720     37.564  39.796053     4.9083      8.898   200.9050 2.0165e-01     4.8606     -0.026     -0.038    28.0043   996.2530 0.0000e+00
     -0.024      0.012     9.5946    122.507     37.572  39.802873     4.9036      8.903   200.3568 2.0545e-01     4.9127     -0.024     -0.034    27.9899   996.2571 0.0000e+00
     -0.021      0.014     9.5827    122.363     37.587  39.821866     4.9009      8.908   200.7538 1.9339e-01     4.9369     -0.021     -0.031    27.9773   996.2608 0.0000e+00
     -0.018      0.016     9.5778    122.326     37.592  39.835246     4.8492      8.912   201.0588 1.6443e-01     5.0224     -0.018     -0.025    27.9720   996.2623 0.0000e+00
     -0.013      0.018     9.5782    122.378     37.579  39.837709     4.7386      8.914   201.0321 1.4728e-01     5.1920     -0.013     -0.018    27.9637   996.2646 0.0000e+00
     -0.008      0.019     9.5809    122.473     37.573  39.851666     4.6652      8.914   199.9156 1.3773e-01     5.2837     -0.008     -0.011    27.9589   996.2660 0.0000e+00
     -0.003      0.020     9.5860    122.592     37.579  39.877065     4.6460      8.914   198.0556 1.2788e-01     5.3123     -0.003     -0.004    27.9636   996.2647 0.0000e+00
      0.002      0.022     9.5947    122.741     37.580  39.890910     4.6374      8.915   197.1277 1.2406e-01     5.3737      0.002      0.003    27.9724   996.2623 0.0000e+00
      0.008      0.024     9.6022    122.857     37.574  39.892116     4.6216      8.919   197.2137 1.2368e-01     5.4033      0.008      0.012    27.9970   996.2553 0.0000e+00
      0.014      0.027     9.6041    122.893     37.570  39.891656     4.6111      8.923   197.4616 1.2371e-01     5.3752      0.014      0.019    28.0287   996.2463 0.0000e+00
      0.021      0.031     9.6080    122.954     37.560  39.885361     4.6143      8.923   196.9409 1.2379e-01     5.3622      0.020      0.029    28.0544   996.2390 0.0000e+00
      0.029      0.036     9.6182    123.098     37.551  39.879486     4.6685      8.918   195.7359 1.2379e-01     5.3444      0.028      0.041    28.0719   996.2341 0.0000e+00
      0.039      0.040     9.6292    123.249     37.552  39.884107     4.7810      8.906   195.1106 1.2375e-01     5.2908      0.037      0.054    28.0791   996.2321 0.0000e+00
      0.050      0.044     9.6385    123.369     37.545  39.877759     4.8470      8.896   195.4889 1.2374e-01     5.2389      0.049      0.071    28.0828   996.2311 0.0000e+00
      0.063      0.047     9.6462    123.464     37.535  39.866216     4.8516      8.889   196.1799 1.2372e-01     5.1751      0.062      0.089    28.0890   996.2293 0.0000e+00
      0.077      0.049     9.6492    123.499     37.541  39.871503     4.8460      8.880   195.8941 1.2372e-01     5.1100      0.076      0.110    28.0954   996.2276 0.0000e+00
      0.090      0.049     9.6451    123.442     37.549  39.878204     4.8481      8.867   194.7861 1.2375e-01     5.1400      0.088      0.128    28.0998   996.2265 0.0000e+00
      0.101      0.048     9.6362    123.325     37.555  39.883757     4.8514      8.857   194.2267 1.2377e-01     5.2747      0.098      0.142    28.1014   996.2260 0.0000e+00
      0.114      0.047     9.6229    123.152     37.548  39.875156     4.8339      8.849   194.4645 1.2379e-01     5.3623      0.112      0.162    28.0997   996.2265 0.0000e+00
      0.127      0.046     9.6066    122.941     37.514  39.837692     4.8264      8.843   194.9936 1.2379e-01     5.3806      0.125      0.181    28.0971   996.2273 0.0000e+00
      0.139      0.046     9.5973    122.818     37.490  39.811666     4.9258      8.840   195.2906 1.2370e-01     5.4621      0.136      0.197    28.0951   996.2279 0.0000e+00
      0.149      0.046     9.6029    122.876     37.497  39.814398     5.1080      8.840   195.2162 1.2363e-01     5.5951      0.146      0.213    28.0940   996.2283 0.0000e+00
      0.159      0.049     9.6219    123.085     37.501  39.807241     5.2090      8.836   194.8684 1.2368e-01     5.6446      0.155      0.225    28.0926   996.2288 0.0000e+00
      0.170      0.054     9.6441    123.320     37.500  39.788595     5.2184      8.827   194.5273 1.2373e-01     5.6021      0.167      0.241    28.0907   996.2294 0.0000e+00
      0.183      0.059     9.6586    123.451     37.509  39.779361     5.2134      8.819   194.5325 1.2370e-01     5.5069      0.179      0.259    28.0908   996.2293 0.0000e+00
      0.198      0.064     9.6630    123.462     37.504  39.759045     5.2097      8.815   194.8459 1.2376e-01     5.4108      0.191      0.277    28.0866   996.2305 0.0000e+00
      0.218      0.066     9.6598    123.399     37.488  39.733371     5.2077      8.814   195.4769 1.2492e-01     5.3909      0.213      0.309    28.0705   996.2353 0.0000e+00
      0.241      0.066     9.6501    123.269     37.479  39.722857     5.2063      8.817   196.0538 1.2599e-01     5.3970      0.238      0.347    28.0455   996.2425 0.0000e+00
      0.261      0.064     9.6362    123.089     37.454  39.695407     5.2184      8.825   196.0568 1.2500e-01     5.3209      0.257      0.372    28.0178   996.2505 0.0000e+00
      0.276      0.059     9.6238    122.910     37.423  39.655403     5.2499      8.833   196.0286 1.2392e-01     5.1917      0.271      0.394    27.9948   996.2571 0.0000e+00
      0.286      0.055     9.6156    122.749     37.408  39.620047     5.2750      8.830   196.3154 1.2382e-01     5.1461      0.281      0.408    27.9860   996.2596 0.0000e+00
      0.296      0.051     9.6145    122.620     37.352  39.521813     5.2716      8.812   196.9428 1.2383e-01     5.1625      0.290      0.420    27.9853   996.2598 0.0000e+00
      0.308      0.048     9.6241    122.526     37.267  39.356338     5.2437      8.797   197.8504 1.2411e-01     5.1276      0.302      0.438    27.9880   996.2592 0.0000e+00
      0.322      0.046     9.6436    122.441     37.232  39.206192     5.2064      8.800   198.3405 1.2746e-01     5.0194      0.315      0.455    27.9836   996.2605 0.0000e+00
      0.337      0.045     9.6707    122.411     37.256  39.102792     5.1844      8.815   198.4811 1.3053e-01     4.9356      0.332      0.481    27.9554   996.2686 0.0000e+00
      0.350      0.043     9.7043    122.502     37.321  39.058125     5.1862      8.829   198.5179 1.2738e-01     4.9333      0.346      0.501    27.9149   996.2801 0.0000e+00
      0.358      0.040     9.7483    122.804     37.393  39.046821     5.2191      8.839   198.8710 1.2403e-01     4.9268      0.351      0.509    27.8213   996.3065 0.0000e+00
      0.366      0.037     9.8121    123.435     37.432  39.029468     5.2791      8.848   199.7395 1.2379e-01     4.8894      0.358      0.520    27.6503   996.3547 0.0000e+00
      0.376      0.035     9.8942    124.368     37.474  39.038655     5.3212      8.855   200.1562 1.2375e-01     4.8746      0.370      0.536    27.4648   996.4067 0.0000e+00
      0.384      0.035     9.9730    125.334     37.535  39.094375     5.3293      8.855   200.2102 1.2370e-01     4.8787      0.377      0.548    27.3065   996.4508 0.0000e+00
      0.392      0.038    10.0363    126.180     37.555  39.131840     5.3248      8.845   200.1347 1.2369e-01     4.9062      0.383      0.556    27.1913   996.4829 0.0000e+00
      0.401      0.039    10.0955    127.005     37.510  39.110790     5.3106      8.830   199.7592 1.2370e-01     4.9448      0.392      0.569    27.1167   996.5035 0.0000e+00
      0.411      0.039    10.1448    127.709     37.467  39.093822     5.2886      8.826   199.9720 1.2371e-01     4.9520      0.401      0.582    27.0702   996.5164 0.0000e+00
      0.424      0.040    10.1663    128.101     37.451  39.117159     5.2756      8.833   200.8141 1.2375e-01     4.9615      0.416      0.603    27.0555   996.5205 0.0000e+00
      0.438      0.044    10.1754    128.337     37.374  39.075619     5.2652      8.840   201.3372 1.2378e-01     4.9601      0.432      0.628    27.0887   996.5114 0.0000e+00
      0.446      0.050    10.1962    128.585     37.219  38.909033     5.2582      8.842   201.3068 1.2374e-01     4.9354      0.438      0.635    27.1336   996.4991 0.0000e+00
      0.451      0.055    10.2242    128.725     37.135  38.753429     5.2609      8.837   201.0486 1.2369e-01     4.9255      0.438      0.634    27.1553   996.4930 0.0000e+00
      0.464      0.055    10.2438    128.653     37.199  38.717612     5.2632      8.833   201.1409 1.2370e-01     4.9380      0.450      0.652    27.2106   996.4778 0.0000e+00
      0.487      0.054    10.2446    128.368     37.303  38.729718     5.2597      8.836   201.5623 1.2372e-01     4.9230      0.478      0.693    27.2969   996.4540 0.0000e+00
      0.511      0.053    10.2241    127.911     37.346  38.709226     5.2102      8.842   201.8420 1.2370e-01     4.9075      0.506      0.733    27.3021   996.4526 0.0000e+00
      0.524      0.053    10.1943    127.427     37.333  38.660175     5.1235      8.846   201.8558 1.2370e-01     4.9485      0.517      0.751    27.1895   996.4838 0.0000e+00
      0.529      0.053    10.1704    127.058     37.279  38.580940     5.0786      8.846   201.5578 1.2370e-01     4.9598      0.519      0.753    27.0277   996.5285 0.0000e+00
      0.532      0.051    10.1520    126.741     37.241  38.512915     5.0746      8.846   201.3355 1.2366e-01     4.9453      0.519      0.752    26.8891   996.5667 0.0000e+00
      0.544      0.051    10.1290    126.349     37.236  38.472417     5.0839      8.849   201.4043 1.2364e-01     4.9372      0.528      0.765    26.8036   996.5901 0.0000e+00
      0.567      0.055    10.1113    126.027     37.206  38.408621     5.1054      8.851   201.5290 1.2367e-01     4.9267      0.558      0.809    26.7636   996.6011 0.0000e+00
      0.588      0.064    10.1233    126.082     37.142  38.312812     5.1254      8.851   201.7254 1.2372e-01     4.9507      0.582      0.844    26.7451   996.6062 0.0000e+00
      0.599      0.073    10.1644    126.496     37.066  38.202627     5.1442      8.848   201.8859 1.2373e-01     4.9971      0.587      0.852    26.7063   996.6168 0.0000e+00
      0.610      0.078    10.2051    126.889     37.057  38.155446     5.1677      8.843   201.9210 1.2368e-01     5.0292      0.594      0.862    26.6524   996.6315 0.0000e+00
      0.630      0.081    10.2235    126.989     37.128  38.186636     5.3483      8.835   201.9777 1.2363e-01     5.1099      0.614      0.890    26.6089   996.6434 0.0000e+00
      0.658      0.082    10.2200    126.819     37.179  38.198813     5.6897      8.830   202.0548 1.2363e-01     5.2510      0.646      0.938    26.5701   996.6540 0.0000e+00
      0.686      0.084    10.2015    126.491     37.187  38.175653     5.8884      8.826   202.1649 1.2361e-01     5.3259      0.674      0.978    26.5298   996.6650 0.0000e+00
      0.710      0.083    10.1775    126.128     37.193  38.160473     5.9386      8.823   202.3627 1.2364e-01     5.3599      0.698      1.014    26.4797   996.6787 0.0000e+00
      0.728      0.078    10.1569    125.818     37.193  38.142192     6.1756      8.819   202.4682 1.2370e-01     5.4659      0.717      1.041    26.4197   996.6950 0.0000e+00
      0.742      0.071    10.1402    125.548     37.154  38.081542     6.6035      8.816   202.4937 1.2371e-01     5.5925      0.724      1.051    26.3600   996.7111 0.0000e+00
      0.760      0.068    10.1336    125.404     37.092  37.998419     6.8385      8.814   202.5846 1.2372e-01     5.6127      0.743      1.078    26.3159   996.7230 0.0000e+00
      0.780      0.068    10.1485    125.538     37.073  37.962319     6.8667      8.811   202.6216 1.2376e-01     5.5789      0.769      1.116    26.2929   996.7294 0.0000e+00
      0.794      0.072    10.1808    125.902     37.085  37.962420     6.9450      8.806   202.6824 1.2378e-01     5.6422      0.778      1.129    26.2724   996.7348 0.0000e+00
      0.809      0.076    10.2166    126.314     37.069  37.936142     7.0824      8.800   202.8037 1.2380e-01     5.7556      0.788      1.143    26.2416   996.7431 0.0000e+00
      0.831      0.079    10.2461    126.635     37.046  37.898496     7.1580      8.793   202.7972 1.2381e-01     5.8034      0.816      1.183    26.2121   996.7512 0.0000e+00
      0.855      0.082    10.2624    126.766     37.058  37.888076     7.1658      8.787   202.8617 1.2378e-01     5.7935      0.841      1.219    26.1907   996.7570 0.0000e+00
      0.876      0.084    10.2638    126.703     37.069  37.873588     7.2373      8.780   203.2400 1.2370e-01     5.7990      0.858      1.245    26.1750   996.7613 0.0000e+00
      0.899      0.082    10.2578    126.559     37.069  37.850234     7.3803      8.774   203.6710 1.2361e-01     5.8377      0.883      1.280    26.1661   996.7638 0.0000e+00
      0.921      0.076    10.2566    126.484     37.097  37.859576     7.4559      8.771   203.8574 1.2360e-01     5.8348      0.904      1.310    26.1507   996.7679 0.0000e+00
      0.941      0.071    10.2730    126.638     37.112  37.859562     7.4571      8.771   203.7728 1.2365e-01     5.8305      0.922      1.337    26.1147   996.7777 0.0000e+00
      0.959      0.068    10.3090    127.040     37.116  37.850041     7.4729      8.770   203.7664 1.2367e-01     5.8504      0.945      1.370    26.0755   996.7882 0.0000e+00
      0.972      0.067    10.3444    127.426     37.152  37.871389     7.5088      8.765   204.1244 1.2368e-01     5.8457      0.954      1.383    26.0471   996.7958 0.0000e+00
      0.983      0.066    10.3566    127.511     37.165  37.863747     7.5271      8.760   204.4882 1.2372e-01     5.8400      0.960      1.393    26.0211   996.8028 0.0000e+00
      1.001      0.062    10.3392    127.229     37.145  37.821086     7.5286      8.756   204.5515 1.2374e-01     5.8472      0.979      1.420    25.9988   996.8088 0.0000e+00
      1.023      0.057    10.3024    126.719     37.142  37.799879     7.5705      8.756   204.3727 1.2375e-01     5.8673      1.004      1.456    25.9851   996.8126 0.0000e+00
      1.043      0.053    10.2706    126.284     37.154  37.797725     7.6528      8.756   204.3062 1.2377e-01     5.8855      1.027      1.490    25.9646   996.8181 0.0000e+00
      1.055      0.049    10.2680    126.220     37.162  37.795022     7.6999      8.754   204.6074 1.2374e-01     5.8711      1.036      1.503    25.9338   996.8263 0.0000e+00
      1.060      0.045    10.3040    126.636     37.143  37.767184     7.7074      8.749   205.0026 1.2377e-01     5.8250      1.040      1.508    25.9029   996.8345 0.0000e+00
      1.064      0.042    10.3815    127.560     37.101  37.715019     7.7084      8.746   205.2134 1.2382e-01     5.7862      1.043      1.512    25.8768   996.8414 0.0000e+00
      1.073      0.042    10.5028    129.020     37.068  37.672100     7.7636      8.746   205.1766 1.2376e-01     5.8282      1.047      1.520    25.8580   996.8465 0.0000e+00
      1.090      0.047    10.6583    130.902     37.033  37.629095     7.8809      8.745   205.0736 1.2368e-01     5.9719      1.068      1.550    25.8456   996.8498 0.0000e+00
      1.105      0.055    10.8238    132.907     36.989  37.575883     7.9472      8.740   205.1728 1.2367e-01     6.0817      1.087      1.576    25.8354   996.8526 0.0000e+00
      1.115      0.062    10.9693    134.652     36.962  37.536510     7.9497      8.733   205.4298 1.2367e-01     6.1071      1.092      1.585    25.8218   996.8562 0.0000e+00
      1.129      0.065    11.0675    135.816     36.972  37.533866     7.9022      8.728   205.6853 1.2367e-01     6.1152      1.103      1.600    25.8097   996.8594 0.0000e+00
      1.150      0.067    11.1080    136.317     36.981  37.543897     7.8161      8.727   205.9393 1.2368e-01     6.1150      1.127      1.634    25.7969   996.8629 0.0000e+00
      1.173      0.069    11.1070    136.347     36.956  37.530838     7.7753      8.723   206.0928 1.2373e-01     6.1041      1.154      1.674    25.7884   996.8653 0.0000e+00
      1.190      0.071    11.0908    136.156     36.927  37.502945     7.7733      8.720   206.0779 1.2377e-01     6.0815      1.170      1.697    25.7735   996.8693 0.0000e+00
      1.204      0.071    11.0733    135.878     36.904  37.460551     7.7915      8.717   205.8455 1.2373e-01     6.1704      1.177      1.708    25.7438   996.8771 0.0000e+00
      1.222      0.069    11.0654    135.671     36.875  37.399076     7.8387      8.715   205.4345 1.2370e-01     6.3916      1.196      1.735    25.7448   996.8770 0.0000e+00
      1.242      0.067    11.0733    135.647     36.843  37.330875     7.8677      8.712   205.3235 1.2371e-01     6.5277      1.221      1.770    25.7786   996.8681 0.0000e+00
      1.259      0.066    11.0908    135.750     36.817  37.270627     7.8732      8.709   205.7081 1.2371e-01     6.5380      1.236      1.791    25.7880   996.8657 0.0000e+00
      1.276      0.064    11.1106    135.902     36.815  37.241843     7.8966      8.706   206.2133 1.2372e-01     6.4172      1.250      1.813    25.7549   996.8745 0.0000e+00
      1.293      0.060    11.1250    136.007     36.830  37.236700     7.9427      8.706   206.0118 1.2373e-01     6.2142      1.269      1.841    25.7059   996.8875 0.0000e+00
      1.308      0.057    11.1313    136.025     36.819  37.208410     7.9792      8.703   205.2495 1.2373e-01     6.1158      1.283      1.862    25.6541   996.9011 0.0000e+00
      1.321      0.056    11.1343    136.010     36.780  37.153663     7.9910      8.698   205.0839 1.2373e-01     6.1125      1.296      1.880    25.6069   996.9135 0.0000e+00
      1.331      0.055    11.1271    135.873     36.724  37.082523     7.9554      8.693   205.6445 1.2376e-01     6.2401      1.306      1.894    25.5713   996.9228 0.0000e+00
      1.344      0.052    11.0979    135.472     36.639  36.982984     7.8788      8.690   206.3492 1.2379e-01     6.4460      1.316      1.908    25.5449   996.9298 0.0000e+00
      1.362      0.048    11.0513    134.861     36.571  36.902221     7.8277      8.689   206.7217 1.2373e-01     6.5039      1.337      1.939    25.5219   996.9359 0.0000e+00
      1.378      0.045    11.0005    134.205     36.548  36.867683     7.8143      8.688   206.1904 1.2362e-01     6.4809      1.354      1.963    25.5008   996.9415 0.0000e+00
      1.389      0.044    10.9495    133.554     36.508  36.819268     7.8211      8.686   205.2589 1.2357e-01     6.4629      1.363      1.977    25.4815   996.9466 0.0000e+00
      1.395      0.043    10.8893    132.793     36.458  36.761132     7.8748      8.683   205.1816 1.2362e-01     6.3522      1.369      1.987    25.4632   996.9514 0.0000e+00
      1.401      0.042    10.8138    131.843     36.442  36.736011     7.9528      8.680   205.5140 1.2368e-01     6.1584      1.371      1.989    25.4453   996.9560 0.0000e+00
      1.411      0.044    10.7312    130.805     36.422  36.705940     7.9842      8.675   205.9227 1.2372e-01     6.0207      1.380      2.001    25.4300   996.9600 0.0000e+00
      1.426      0.048    10.6492    129.780     36.376  36.651420     7.9934      8.670   206.1655 1.2372e-01     5.9981      1.399      2.030    25.4206   996.9626 0.0000e+00
      1.441      0.054    10.5680    128.774     36.377  36.648045     8.0985      8.663   205.6965 1.2372e-01     6.0164      1.414      2.051    25.4102   996.9653 0.0000e+00
      1.454      0.061    10.4910    127.829     36.459  36.728605     8.2844      8.654   205.4144 1.2372e-01     6.0129      1.424      2.066    25.3966   996.9688 0.0000e+00
      1.468      0.066    10.4209    126.990     36.526  36.800312     8.3849      8.642   205.7657 1.2376e-01     6.0204      1.439      2.088    25.3833   996.9724 0.0000e+00
      1.484      0.070    10.3539    126.209     36.531  36.816852     8.4042      8.630   206.8472 1.2377e-01     6.0422      1.455      2.111    25.3718   996.9754 0.0000e+00
      1.504      0.074    10.2864    125.421     36.506  36.801658     8.5432      8.618   208.3376 1.2376e-01     5.9815      1.474      2.137    25.3652   996.9772 0.0000e+00
      1.526      0.075    10.2226    124.647     36.446  36.743569     8.7992      8.605   209.2456 1.2374e-01     5.8764      1.497      2.171    25.3603   996.9786 0.0000e+00
      1.549      0.070    10.1772    124.052     36.401  36.685763     8.9424      8.595   209.5652 1.2370e-01     5.8520      1.520      2.205    25.3655   996.9774 0.0000e+00
      1.570      0.063    10.1648    123.844     36.408  36.673958     8.9653      8.588   209.7077 1.2365e-01     5.8513      1.540      2.233    25.3856   996.9723 0.0000e+00
      1.587      0.054    10.1848    124.058     36.408  36.664283     9.1113      8.583   210.1078 1.2358e-01     5.7358      1.558      2.260    25.4046   996.9674 0.0000e+00
      1.597      0.048    10.2207    124.493     36.377  36.632241     9.4076      8.577   210.5313 1.2359e-01     5.5373      1.567      2.273    25.4115   996.9656 0.0000e+00
      1.602      0.043    10.2520    124.877     36.285  36.540436     9.5913      8.570   210.4405 1.2370e-01     5.4175      1.569      2.276    25.3882   996.9717 0.0000e+00
      1.608      0.043    10.2710    125.082     36.134  36.379402     9.6154      8.560   210.3001 1.2376e-01     5.4019      1.576      2.286    25.3529   996.9809 0.0000e+00
      1.618      0.044    10.2823    125.132     36.054  36.271969     9.5172      8.549   210.2966 1.2369e-01     5.4464      1.586      2.301    25.3415   996.9839 0.0000e+00
      1.631      0.046    10.2830    125.003     36.082  36.256978     9.3144      8.538   210.3112 1.2364e-01     5.5309      1.599      2.320    25.3446   996.9832 0.0000e+00
      1.648      0.046    10.2609    124.594     36.131  36.261548     9.2004      8.528   210.5635 1.2370e-01     5.5705      1.617      2.344    25.3499   996.9818 0.0000e+00
      1.664      0.043    10.2012    123.764     36.166  36.263690     9.1965      8.520   211.1095 1.2373e-01     5.5649      1.633      2.368    25.3465   996.9826 0.0000e+00
      1.676      0.041    10.0814    122.266     36.199  36.282820     9.1974      8.508   212.2668 1.2372e-01     5.5620      1.645      2.386    25.3058   996.9933 0.0000e+00
      1.682      0.040     9.8935    119.992     36.217  36.302422     9.1769      8.493   213.7160 1.2374e-01     5.5024      1.651      2.395    25.2360   997.0114 0.0000e+00
      1.686      0.039     9.6624    117.195     36.223  36.310282     9.1400      8.478   214.5205 1.2375e-01     5.4014      1.651      2.395    25.1697   997.0285 0.0000e+00
      1.693      0.041     9.4239    114.292     36.231  36.314394     9.1240      8.463   214.5088 1.2372e-01     5.3573      1.655      2.401    25.1194   997.0415 0.0000e+00
      1.707      0.047     9.2077    111.659     36.209  36.288656     9.1302      8.448   214.0913 1.2368e-01     5.3624      1.675      2.430    25.0997   997.0467 0.0000e+00
      1.721      0.055     9.0308    109.459     36.193  36.252967     9.1285      8.433   214.0325 1.2364e-01     5.3644      1.690      2.452    25.1136   997.0433 0.0000e+00
      1.732      0.064     8.8945    107.634     36.267  36.263685     9.1211      8.419   215.3462 1.2363e-01     5.3480      1.695      2.459    25.1204   997.0415 0.0000e+00
      1.749      0.070     8.8007    106.223     36.462  36.354670     9.1191      8.404   217.4993 1.2367e-01     5.3285      1.712      2.485    25.1040   997.0458 0.0000e+00
      1.772      0.073     8.7383    105.172     36.684  36.464311     9.1131      8.391   218.8140 1.2368e-01     5.3255      1.739      2.522    25.1090   997.0446 0.0000e+00
      1.794      0.073     8.6445    103.782     36.831  36.510160     9.0654      8.381   219.5411 1.2366e-01     5.2451      1.759      2.552    25.1044   997.0458 0.0000e+00
      1.814      0.073     8.4302    101.000     36.933  36.528050     8.9834      8.370   219.8375 1.2371e-01     5.0452      1.780      2.582    25.0107   997.0700 0.0000e+00
      1.833      0.068     8.0222     95.948     37.029  36.553546     8.9374      8.360   220.0747 1.2380e-01     4.9077      1.800      2.611    24.8500   997.1113 0.0000e+00
      1.848      0.063     7.4004     88.381     37.099  36.564444     8.9341      8.351   221.1177 1.2379e-01     4.8932      1.811      2.627    24.6887   997.1524 0.0000e+00
      1.862      0.058     6.6225     78.996     37.116  36.532789     8.9522      8.342   221.9512 1.2371e-01     4.8699      1.826      2.649    24.5498   997.1876 0.0000e+00
      1.877      0.056     5.7744     68.815     37.109  36.488095     8.9833      8.332   222.3236 1.2368e-01     4.7904      1.844      2.673    24.4384   997.2157 0.0000e+00
      1.889      0.056     4.9314     58.721     37.122  36.468304     8.9973      8.322   222.4366 1.2370e-01     4.7183      1.852      2.686    24.3495   997.2380 0.0000e+00
      1.900      0.058     4.1613     49.511     37.105  36.420394     9.0010      8.309   222.4579 1.2374e-01     4.6866      1.861      2.699    24.2683   997.2584 0.0000e+00
      1.915      0.063     3.5165     41.809     37.066  36.353074     9.0455      8.294   223.5273 1.2378e-01     4.6364      1.877      2.722    24.2024   997.2748 0.0000e+00
      1.932      0.070     3.0340     36.045     37.029  36.289019     9.1276      8.278   225.3004 1.2374e-01     4.5374      1.894      2.748    24.1568   997.2862 0.0000e+00
      1.949      0.077     2.7258     32.360     36.985  36.217116     9.1776      8.263   226.6887 1.2368e-01     4.4725      1.912      2.773    24.1136   997.2970 0.0000e+00
      1.969      0.081     2.5619     30.392     36.977  36.181841     9.1827      8.249   227.5786 1.2368e-01     4.4745      1.927      2.794    24.0708   997.3077 0.0000e+00
      1.994      0.081     2.4906     29.527     37.001  36.179824     9.1810      8.238   227.9725 1.2370e-01     4.4636      1.953      2.832    24.0326   997.3172 0.0000e+00
      2.022      0.078     2.4700     29.271     37.032  36.192686     9.2174      8.229   228.1822 1.2372e-01     4.3071      1.988      2.882    23.9951   997.3266 0.0000e+00
      2.044      0.074     2.4654     29.213     37.055  36.210391     9.2836      8.220   228.7362 1.2373e-01     4.0907      2.008      2.912    23.9576   997.3360 0.0000e+00
      2.058      0.070     2.4583     29.134     37.040  36.203473     9.3147      8.210   229.7675 1.2378e-01     4.0432      2.018      2.926    23.9177   997.3458 0.0000e+00
      2.069      0.067     2.4523     29.068     37.001  36.172527     9.3082      8.199   230.6711 1.2381e-01     4.0602      2.029      2.942    23.8813   997.3547 0.0000e+00
      2.083      0.066     2.4498     29.031     36.992  36.153592     9.3174      8.189   230.9721 1.2375e-01     3.9347      2.042      2.961    23.8543   997.3614 0.0000e+00
      2.099      0.067     2.4514     29.028     37.035  36.164929     9.3558      8.179   231.0831 1.2371e-01     3.7058      2.056      2.982    23.8477   997.3632 0.0000e+00
      2.121      0.067     2.4593     29.096     37.088  36.182612     9.3821      8.170   231.0664 1.2375e-01     3.5870      2.079      3.015    23.8647   997.3591 0.0000e+00
      2.143      0.067     2.4712     29.219     37.107  36.176935     9.3838      8.161   230.9429 1.2376e-01     3.5801      2.106      3.054    23.8847   997.3543 0.0000e+00
      2.160      0.065     2.4785     29.296     37.102  36.159721     9.3771      8.152   231.3105 1.2378e-01     3.4912      2.121      3.075    23.8737   997.3571 0.0000e+00
      2.173      0.061     2.4709     29.195     37.123  36.164879     9.3711      8.145   232.0698 1.2379e-01     3.3644      2.130      3.089    23.8208   997.3700 0.0000e+00
      2.187      0.056     2.4484     28.907     37.164  36.175799     9.3721      8.137   232.7236 1.2373e-01     3.3245      2.144      3.110    23.7669   997.3834 0.0000e+00
      2.202      0.054     2.4160     28.499     37.189  36.164776     9.3623      8.129   233.1068 1.2362e-01     3.3041      2.160      3.133    23.7345   997.3913 0.0000e+00
      2.215      0.056     2.3702     27.931     37.224  36.158494     9.2098      8.122   232.8308 1.2357e-01     3.1826      2.173      3.152    23.7245   997.3939 0.0000e+00
      2.226      0.059     2.3021     27.089     37.288  36.163255     8.9229      8.113   232.3127 1.2365e-01     3.0036      2.183      3.167    23.7153   997.3962 0.0000e+00
      2.239      0.061     2.2074     25.929     37.356  36.158788     8.7644      8.103   232.5205 1.2368e-01     2.9089      2.195      3.182    23.6648   997.4085 0.0000e+00
      2.256      0.061     2.0838     24.436     37.435  36.167845     8.7496      8.094   232.9344 1.2365e-01     2.8900      2.211      3.207    23.6163   997.4203 0.0000e+00
      2.277      0.062     1.9309     22.612     37.535  36.209190     8.7353      8.085   233.2736 1.2365e-01     2.8072      2.233      3.239    23.5757   997.4303 0.0000e+00
      2.296      0.063     1.7549     20.527     37.658  36.277786     8.7124      8.077   233.8682 1.2367e-01     2.6618      2.254      3.269    23.4907   997.4511 0.0000e+00
      2.309      0.062     1.5645     18.273     37.808  36.362454     8.6981      8.069   233.6702 1.2370e-01     2.6077      2.265      3.286    23.3903   997.4753 0.0000e+00
      2.321      0.061     1.3733     16.012     37.928  36.407691     8.6928      8.060   232.6873 1.2369e-01     2.6444      2.274      3.297    23.2938   997.4985 0.0000e+00
      2.337      0.059     1.2025     13.995     37.972  36.380337     8.6737      8.053   232.4810 1.2365e-01     2.6467      2.292      3.324    23.2224   997.5158 0.0000e+00
      2.354      0.057     1.0595     12.312     38.002  36.348978     8.5368      8.046   233.1549 1.2361e-01     2.6352      2.310      3.350    23.1724   997.5279 0.0000e+00
      2.368      0.057     0.9389     10.895     38.055  36.345800     8.3038      8.040   233.8654 1.2361e-01     2.6694      2.323      3.367    23.0908   997.5474 0.0000e+00
      2.383      0.057     0.8356      9.685     38.102  36.341840     8.1794      8.033   233.5858 1.2361e-01     2.6663      2.337      3.390    22.9872   997.5721 0.0000e+00
      2.397      0.057     0.7480      8.660     38.175  36.364496     8.1524      8.025   232.5273 1.2361e-01     2.6308      2.352      3.412    22.8948   997.5940 0.0000e+00
      2.410      0.058     0.6788      7.849     38.292  36.429252     7.9761      8.016   232.1672 1.2369e-01     2.5678      2.363      3.428    22.8163   997.6125 0.0000e+00
      2.422      0.058     0.6272      7.244     38.406  36.490020     7.6524      8.007   232.7601 1.2373e-01     2.3969      2.375      3.444    22.7456   997.6291 0.0000e+00
      2.438      0.057     0.5899      6.806     38.492  36.527918     7.4724      7.999   233.7589 1.2373e-01     2.2689      2.389      3.465    22.6832   997.6439 0.0000e+00
      2.457      0.056     0.5633      6.494     38.570  36.570048     7.4558      7.992   234.4344 1.2379e-01     2.2647      2.409      3.494    22.6218   997.6583 0.0000e+00
      2.474      0.056     0.5421      6.245     38.654  36.618528     7.4173      7.985   234.0452 1.2374e-01     2.2806      2.429      3.523    22.5633   997.6720 0.0000e+00
      2.485      0.056     0.5245      6.034     38.758  36.669739     7.3363      7.978   233.0097 1.2364e-01     2.2976      2.437      3.535    22.5019   997.6863 0.0000e+00
      2.495      0.057     0.5113      5.874     38.899  36.744853     7.2823      7.971   232.6699 1.2370e-01     2.3057      2.445      3.546    22.4341   997.7020 0.0000e+00
      2.508      0.058     0.5013      5.751     39.049  36.828437     7.2678      7.964   233.2921 1.2376e-01     2.3127      2.459      3.567    22.4003   997.7100 0.0000e+00
      2.524      0.060     0.4907      5.621     39.136  36.855111     7.2991      7.957   234.2518 1.2373e-01     2.3170      2.474      3.590    22.3731   997.7164 0.0000e+00
      2.542      0.062     0.4771      5.460     39.139  36.813398     7.3748      7.950   234.6369 1.2372e-01     2.2919      2.493      3.615    22.3065   997.7319 0.0000e+00
      2.559      0.063     0.4621      5.286     39.107  36.768333     7.4197      7.943   234.1625 1.2372e-01     2.2714      2.511      3.641    22.2231   997.7510 0.0000e+00
      2.576      0.062     0.4496      5.145     39.077  36.754538     7.3998      7.937   233.7646 1.2377e-01     2.2660      2.527      3.665    22.1515   997.7675 0.0000e+00
      2.592      0.060     0.4417      5.059     39.136  36.837047     7.2210      7.929   233.9558 1.2379e-01     2.2597      2.544      3.690    22.0782   997.7843 0.0000e+00
      2.606      0.059     0.4382      5.019     39.307  37.004302     6.9230      7.922   234.4096 1.2371e-01     2.2611      2.557      3.709    22.0062   997.8008 0.0000e+00
      2.618      0.056     0.4412      5.048     39.487  37.126490     6.7783      7.916   234.7776 1.2366e-01     2.2820      2.566      3.723    21.9906   997.8043 0.0000e+00
      2.633      0.055     0.4525      5.165     39.699  37.235295     6.7726      7.909   235.1358 1.2369e-01     2.3152      2.581      3.744    22.0157   997.7987 0.0000e+00
      2.649      0.055     0.4669      5.316     39.957  37.367596     6.7502      7.903   235.2990 1.2372e-01     2.3030      2.599      3.770    22.0638   997.7879 0.0000e+00
      2.664      0.056     0.4804      5.450     40.209  37.456491     6.6464      7.897   235.1164 1.2372e-01     2.2003      2.613      3.791    22.0994   997.7799 0.0000e+00
      2.675      0.057     0.4920      5.555     40.445  37.484734     6.4791      7.890   234.9923 1.2376e-01     2.0890      2.623      3.805    22.0260   997.7967 0.0000e+00
      2.688      0.057     0.4979      5.596     40.630  37.454906     6.3920      7.884   235.2603 1.2377e-01     2.0393      2.634      3.822    21.8913   997.8272 0.0000e+00
      2.705      0.056     0.4963      5.555     40.771  37.412936     6.3911      7.879   235.9486 1.2372e-01     2.0253      2.652      3.846    21.7755   997.8536 0.0000e+00
      2.723      0.057     0.4874      5.439     40.921  37.421372     6.4248      7.873   236.5169 1.2374e-01     2.0178      2.672      3.875    21.5994   997.8931 0.0000e+00
      2.738      0.059     0.4718      5.252     41.107  37.493254     6.4790      7.865   236.5389 1.2380e-01     2.0144      2.687      3.898    21.3363   997.9515 0.0000e+00
      2.748      0.060     0.4506      5.005     41.310  37.583703     6.5083      7.858   236.4727 1.2377e-01     2.0173      2.695      3.908    21.0742   998.0090 0.0000e+00
      2.760      0.060     0.4278      4.740     41.475  37.626196     6.5113      7.852   236.5769 1.2371e-01     2.0198      2.704      3.921    20.8579   998.0558 0.0000e+00
      2.779      0.062     0.4091      4.521     41.594  37.626024     6.4365      7.846   236.6805 1.2372e-01     1.9793      2.724      3.952    20.7020   998.0894 0.0000e+00
      2.800      0.065     0.3966      4.373     41.654  37.581479     6.2886      7.839   237.2093 1.2373e-01     1.8543      2.748      3.986    20.6005   998.1112 0.0000e+00
      2.815      0.068     0.3906      4.297     41.639  37.468326     6.2061      7.832   238.0663 1.2372e-01     1.7546      2.762      4.006    20.4954   998.1335 0.0000e+00
      2.829      0.069     0.3896      4.275     41.611  37.336858     6.1939      7.825   238.6108 1.2372e-01     1.7573      2.772      4.021    20.3557   998.1630 0.0000e+00
      2.848      0.069     0.3886      4.252     41.644  37.261293     6.1499      7.818   238.8020 1.2374e-01     1.7881      2.791      4.048    20.2180   998.1920 0.0000e+00
      2.869      0.071     0.3854      4.207     41.743  37.252758     6.0728      7.811   238.8295 1.2376e-01     1.7998      2.816      4.083    20.1060   998.2155 0.0000e+00
      2.887      0.075     0.3814      4.153     41.837  37.233543     6.0331      7.805   239.7179 1.2374e-01     1.7996      2.832      4.107    19.9923   998.2390 0.0000e+00
      2.902      0.076     0.3769      4.093     41.881  37.155775     6.0243      7.799   241.2841 1.2373e-01     1.7859      2.842      4.122    19.8585   998.2666 0.0000e+00
      2.922      0.075     0.3722      4.031     41.917  37.074017     5.9402      7.792   241.9348 1.2372e-01     1.7327      2.864      4.155    19.7255   998.2938 0.0000e+00
      2.947      0.074     0.3654      3.948     41.950  37.006561     5.7800      7.787   241.7353 1.2374e-01     1.6485      2.893      4.195    19.6183   998.3157 0.0000e+00
      2.968      0.071     0.3556      3.833     41.945  36.911324     5.6823      7.782   241.4520 1.2373e-01     1.5875      2.912      4.222    19.5059   998.3386 0.0000e+00
      2.984      0.066     0.3445      3.705     41.945  36.811047     5.6608      7.777   241.4353 1.2369e-01     1.5835      2.926      4.244    19.3521   998.3693 0.0000e+00
      2.999      0.058     0.3329      3.571     41.989  36.746096     5.6412      7.772   242.0497 1.2372e-01     1.6664      2.942      4.268    19.2064   998.3984 0.0000e+00
      3.014      0.052     0.3189      3.414     42.040  36.697141     5.5495      7.768   242.9436 1.2380e-01     1.8038      2.957      4.289    19.1011   998.4193 0.0000e+00
      3.026      0.047     0.3018      3.224     42.092  36.663330     5.4013      7.763   243.2092 1.2379e-01     1.8681      2.968      4.305    19.0008   998.4390 0.0000e+00
      3.034      0.043     0.2830      3.019     42.156  36.654545     5.3327      7.759   243.1964 1.2369e-01     1.8210      2.976      4.316    18.8781   998.4630 0.0000e+00
      3.043      0.040     0.2654      2.829     42.203  36.654320     5.3353      7.755   243.3049 1.2366e-01     1.7582      2.983      4.327    18.7473   998.4883 0.0000e+00
      3.054      0.037     0.2488      2.650     42.232  36.660555     5.3458      7.750   243.4888 1.2370e-01     1.6988      2.994      4.342    18.6361   998.5097 0.0000e+00
      3.066      0.035     0.2321      2.471     42.242  36.666435     5.3638      7.745   243.9564 1.2369e-01     1.6276      3.009      4.364    18.5414   998.5279 0.0000e+00
      3.076      0.033     0.2181      2.323     42.231  36.661933     5.3717      7.740   244.2265 1.2356e-01     1.5854      3.018      4.378    18.4600   998.5435 0.0000e+00
      3.081      0.030     0.2091      2.227     42.235  36.669605     5.3712      7.735   244.2596 1.2351e-01     1.5486      3.021      4.381    18.4125   998.5526 0.0000e+00
      3.087      0.027     0.2042      2.175     42.260  36.695729     5.3676      7.730   244.3575 1.2361e-01     1.5433      3.028      4.392    18.3926   998.5564 0.0000e+00
      3.094      0.025     0.2015      2.147     42.279  36.723904     5.3533      7.725   244.3767 1.2366e-01     1.5867      3.034      4.401    18.3912   998.5566 0.0000e+00
      3.101      0.026     0.1985      2.117     42.260  36.756379     5.3375      7.719   244.5777 1.2363e-01     1.6155      3.042      4.412    18.4055   998.5540 0.0000e+00
      3.107      0.029     0.1961      2.097     42.173  36.771082     5.3322      7.714   245.0673 1.2360e-01     1.6294      3.048      4.421    18.4047   998.5542 0.0000e+00
      3.112      0.031     0.1957      2.095     42.033  36.711381     5.3847      7.709   245.3933 1.2365e-01     1.6230      3.049      4.422    18.4147   998.5522 0.0000e+00
      3.121      0.031     0.1958      2.095     41.940  36.605887     5.4877      7.704   245.5076 1.2371e-01     1.6032      3.060      4.438    18.4122   998.5528 0.0000e+00
      3.132      0.030     0.1965      2.099     41.992  36.574580     5.5457      7.700   245.5890 1.2375e-01     1.6205      3.072      4.456    18.4494   998.5458 0.0000e+00
      3.142      0.028     0.1997      2.129     42.078  36.586630     5.5557      7.695   245.6028 1.2376e-01     1.6357      3.080      4.468    18.6079   998.5156 0.0000e+00
      3.150      0.026     0.2048      2.184     41.997  36.497612     5.5824      7.691   245.6751 1.2373e-01     1.6231      3.091      4.484    18.7140   998.4953 0.0000e+00
      3.155      0.025     0.2105      2.244     41.731  36.259922     5.6352      7.687   245.8605 1.2371e-01     1.6316      3.096      4.491    18.6603   998.5055 0.0000e+00
      3.157      0.027     0.2165      2.304     41.492  35.997762     5.6738      7.683   246.1225 1.2375e-01     1.6389      3.095      4.490    18.5350   998.5296 0.0000e+00
      3.159      0.031     0.2226      2.363     41.463  35.866670     5.6765      7.679   246.4347 1.2374e-01     1.6134      3.097      4.491    18.4446   998.5468 0.0000e+00
      3.166      0.037     0.2278      2.412     41.531  35.817246     5.6595      7.676   246.6243 1.2362e-01     1.5862      3.101      4.499    18.4362   998.5483 0.0000e+00
      3.181      0.046     0.2334      2.465     41.598  35.780864     5.6150      7.673   246.6933 1.2356e-01     1.6382      3.118      4.523    18.4703   998.5418 0.0000e+00
      3.197      0.055     0.2414      2.545     41.739  35.807489     5.5463      7.669   246.8395 1.2363e-01     1.7506      3.137      4.549    18.4043   998.5544 0.0000e+00
      3.212      0.062     0.2507      2.636     41.939  35.885158     5.5059      7.667   247.1007 1.2373e-01     1.7975      3.149      4.567    18.2410   998.5851 0.0000e+00
      3.227      0.067     0.2589      2.718     42.119  35.958179     5.4984      7.664   247.4431 1.2373e-01     1.8119      3.163      4.587    18.1065   998.6103 0.0000e+00
      3.245      0.068     0.2642      2.769     42.246  35.992091     5.5074      7.660   247.8813 1.2372e-01     1.8915      3.182      4.616    18.0068   998.6289 0.0000e+00
      3.264      0.067     0.2632      2.754     42.323  35.977734     5.5282      7.655   248.2689 1.2381e-01     1.9732      3.201      4.643    17.8927   998.6501 0.0000e+00
      3.283      0.066     0.2557      2.669     42.418  35.974904     5.5412      7.651   248.4307 1.2384e-01     1.9809      3.219      4.668    17.7677   998.6732 0.0000e+00
      3.302      0.063     0.2439      2.542     42.560  36.021247     5.5348      7.648   248.4612 1.2373e-01     1.9849      3.239      4.697    17.6785   998.6895 0.0000e+00
      3.318      0.059     0.2286      2.379     42.719  36.093656     5.4173      7.646   248.5513 1.2363e-01     1.9883      3.255      4.721    17.6000   998.7038 0.0000e+00
      3.329      0.057     0.2112      2.194     42.926  36.215597     5.2033      7.643   248.6594 1.2365e-01     1.9244      3.265      4.735    17.5011   998.7217 0.0000e+00
      3.340      0.055     0.1961      2.035     43.220  36.416532     5.0802      7.640   248.8220 1.2372e-01     1.8351      3.275      4.749    17.3975   998.7403 0.0000e+00
      3.354      0.055     0.1848      1.915     43.587  36.682371     5.0648      7.637   249.1413 1.2376e-01     1.7936      3.288      4.769    17.3076   998.7563 0.0000e+00
      3.369      0.056     0.1757      1.819     43.961  36.954316     5.0780      7.633   249.5079 1.2375e-01     1.8809      3.303      4.791    17.2381   998.7687 0.0000e+00
      3.385      0.058     0.1664      1.721     44.192  37.102082     5.0922      7.629   249.8133 1.2372e-01     2.0385      3.320      4.816    17.1785   998.7794 0.0000e+00
      3.400      0.059     0.1575      1.628     44.290  37.135975     5.0891      7.625   249.9948 1.2372e-01     2.0939      3.335      4.838    17.1229   998.7893 0.0000e+00
      3.415      0.059     0.1511      1.560     44.462  37.237100     5.0670      7.622   250.0676 1.2377e-01     2.0584      3.348      4.855    17.0744   998.7979 0.0000e+00
      3.430      0.059     0.1456      1.501     44.821  37.499525     4.9455      7.618   250.1766 1.2377e-01     2.0359      3.364      4.880    17.0285   998.8061 0.0000e+00
      3.445      0.059     0.1388      1.429     45.269  37.833315     4.7385      7.613   250.5391 1.2372e-01     2.0512      3.381      4.903    16.9762   998.8153 0.0000e+00
      3.459      0.059     0.1313      1.351     45.645  38.099017     4.6279      7.608   251.0944 1.2368e-01     2.0793      3.392      4.919    16.9177   998.8256 0.0000e+00
      3.474      0.060     0.1257      1.291     45.947  38.299887     4.6139      7.604   251.4700 1.2370e-01     2.0806      3.406      4.940    16.8677   998.8343 0.0000e+00
      3.490      0.060     0.1234      1.267     46.230  38.484541     4.6040      7.601   251.4666 1.2378e-01     2.0663      3.423      4.965    16.8304   998.8410 0.0000e+00
      3.505      0.059     0.1239      1.271     46.450  38.617646     4.5348      7.596   251.3121 1.2374e-01     2.1361      3.437      4.985    16.7874   998.8486 0.0000e+00
      3.521      0.057     0.1248      1.279     46.603  38.703063     4.4009      7.591   251.5806 1.2366e-01     2.2693      3.451      5.005    16.7314   998.8582 0.0000e+00
      3.538      0.054     0.1254      1.285     46.770  38.818987     4.3280      7.586   252.2179 1.2366e-01     2.3009      3.469      5.033    16.6740   998.8683 0.0000e+00
      3.554      0.049     0.1263      1.293     47.002  39.003542     4.3222      7.581   252.5642 1.2369e-01     2.2553      3.487      5.057    16.6202   998.8776 0.0000e+00
      3.564      0.045     0.1273      1.303     47.267  39.220502     4.3050      7.577   252.4990 1.2372e-01     2.1772      3.495      5.070    16.5634   998.8873 0.0000e+00
      3.572      0.043     0.1280      1.310     47.583  39.474294     4.2839      7.572   252.2902 1.2374e-01     2.0767      3.501      5.078    16.5116   998.8961 0.0000e+00
      3.580      0.043     0.1275      1.304     48.074  39.850219     4.2751      7.567   252.2772 1.2369e-01     2.0562      3.511      5.092    16.4902   998.8997 0.0000e+00
      3.590      0.047     0.1260      1.288     48.728  40.337617     4.2852      7.562   252.5994 1.2364e-01     2.0608      3.521      5.106    16.4852   998.9007 0.0000e+00
      3.601      0.052     0.1254      1.279     49.268  40.732912     4.4580      7.557   253.0881 1.2367e-01     2.0341      3.530      5.119    16.4848   998.9009 0.0000e+00
      3.615      0.056     0.1250      1.275     49.719  41.074417     4.7693      7.551   253.4535 1.2372e-01     1.9957      3.543      5.139    16.4855   998.9009 0.0000e+00
      3.634      0.058     0.1248      1.273     50.323  41.546239     4.9378      7.545   253.5758 1.2373e-01     1.9893      3.565      5.170    16.4543   998.9064 0.0000e+00
      3.652      0.059     0.1252      1.275     50.846  41.929933     4.9683      7.539   253.6204 1.2370e-01     2.0548      3.586      5.201    16.3854   998.9183 0.0000e+00
      3.666      0.058     0.1255      1.275     51.141  42.094670     5.0081      7.534   253.5629 1.2369e-01     2.1650      3.595      5.215    16.3239   998.9288 0.0000e+00
      3.678      0.057     0.1247      1.265     51.385  42.204656     5.0550      7.528   253.0524 1.2369e-01     2.2734      3.606      5.230    16.2999   998.9329 0.0000e+00
      3.692      0.057     0.1232      1.248     51.541  42.243784     5.0760      7.522   252.1803 1.2376e-01     2.3173      3.622      5.253    16.2857   998.9356 0.0000e+00
      3.705      0.059     0.1231      1.244     51.504  42.123212     5.0885      7.515   251.4500 1.2384e-01     2.3344      3.634      5.271    16.2411   998.9433 0.0000e+00
      3.718      0.061     0.1241      1.253     51.339  41.889577     5.1283      7.507   250.2455 1.2380e-01     2.4150      3.645      5.287    16.1560   998.9573 0.0000e+00
      3.735      0.063     0.1254      1.263     51.153  41.640978     5.1755      7.499   247.8555 1.2374e-01     2.5380      3.660      5.308    16.0607   998.9731 0.0000e+00
      3.756      0.064     0.1264      1.270     51.359  41.720400     5.1906      7.492   245.3532 1.2371e-01     2.6098      3.685      5.344    15.9775   998.9868 0.0000e+00
      3.775      0.064     0.1275      1.279     52.151  42.278328     5.1807      7.485   243.9095 1.2369e-01     2.6277      3.706      5.375    15.8949   999.0002 0.0000e+00
      3.788      0.063     0.1295      1.298     52.973  42.862981     5.1521      7.479   242.9619 1.2368e-01     2.6886      3.713      5.386    15.7924   999.0166 0.0000e+00
      3.802      0.060     0.1319      1.320     53.555  43.265466     5.1043      7.474   240.6062 1.2371e-01     2.7885      3.727      5.405    15.6923   999.0325 0.0000e+00
      3.819      0.058     0.1326      1.325     54.021  43.588975     5.0803      7.469   236.1626 1.2376e-01     2.8535      3.747      5.434    15.6131   999.0452 0.0000e+00
      3.834      0.056     0.1308      1.307     54.164  43.663145     5.0783      7.464   231.9956 1.2376e-01     2.8843      3.762      5.455    15.5313   999.0585 0.0000e+00
      3.846      0.055     0.1277      1.274     53.869  43.400248     5.0713      7.459   229.7157 1.2371e-01     2.8658      3.772      5.470    15.4496   999.0716 0.0000e+00
      3.860      0.053     0.1245      1.242     53.529  43.140592     5.0304      7.454   228.3000 1.2365e-01     2.7933      3.784      5.489    15.3844   999.0821 0.0000e+00
      3.875      0.049     0.1236      1.235     53.544  43.190496     4.9567      7.450   226.3211 1.2361e-01     2.7292      3.801      5.513    15.3374   999.0895 0.0000e+00
      3.889      0.048     0.1253      1.252     53.931  43.495723     4.9081      7.445   222.0501 1.2365e-01     2.7123      3.815      5.533    15.3008   999.0953 0.0000e+00
      3.900      0.049     0.1271      1.267     54.376  43.783265     4.8852      7.439   216.4961 1.2370e-01     2.6880      3.825      5.548    15.2636   999.1010 0.0000e+00
      3.909      0.052     0.1278      1.273     54.572  43.873226     4.8360      7.434   212.9424 1.2368e-01     2.6323      3.833      5.559    15.2779   999.0986 0.0000e+00
      3.919      0.055     0.1275      1.270     54.600  43.884886     4.7638      7.428   211.6062 1.2368e-01     2.6281      3.841      5.571    15.3474   999.0879 0.0000e+00
      3.934      0.057     0.1265      1.260     54.710  43.987737     4.7321      7.421   210.9237 1.2371e-01     2.6696      3.855      5.592    15.3527   999.0874 0.0000e+00
      3.954      0.057     0.1251      1.246     55.100  44.291352     4.7215      7.415   209.0774 1.2376e-01     2.6761      3.878      5.624    15.2551   999.1027 0.0000e+00
      3.973      0.057     0.1224      1.218     55.830  44.825430     4.6183      7.409   206.0604 1.2379e-01     2.6414      3.899      5.655    15.1631   999.1170 0.0000e+00
      3.988      0.055     0.1192      1.184     56.548  45.301709     4.4381      7.404   204.2150 1.2377e-01     2.6100      3.913      5.675    15.1770   999.1149 0.0000e+00
      3.999      0.050     0.1174      1.162     56.847  45.414338     4.3380      7.400   203.6291 1.2378e-01     2.5916      3.922      5.688    15.2105   999.1099 0.0000e+00
      4.009      0.045     0.1162      1.147     56.768  45.234548     4.3354      7.396   202.9336 1.2382e-01     2.5831      3.930      5.701    15.1988   999.1118 0.0000e+00
      4.020      0.043     0.1153      1.137     56.631  45.032791     4.3713      7.391   201.3123 1.2377e-01     2.6050      3.942      5.717    15.1597   999.1180 0.0000e+00
      4.030      0.045     0.1159      1.142     56.696  45.006839     4.4256      7.386   199.1684 1.2369e-01     2.6280      3.954      5.735    15.0624   999.1332 0.0000e+00
      4.039      0.049     0.1179      1.161     56.920  45.111183     4.4544      7.380   197.9207 1.2368e-01     2.6312      3.960      5.743    14.9350   999.1525 0.0000e+00
      4.050      0.052     0.1192      1.171     57.143  45.214805     4.4675      7.375   197.6687 1.2364e-01     2.6762      3.969      5.757    14.8277   999.1685 0.0000e+00
      4.066      0.054     0.1192      1.170     57.349  45.307124     4.5841      7.369   197.4981 1.2362e-01     2.8770      3.987      5.784    14.7512   999.1799 0.0000e+00
      4.085      0.056     0.1200      1.176     57.551  45.401803     4.8065      7.363   196.2890 1.2367e-01     3.1588      4.006      5.811    14.6874   999.1894 0.0000e+00
      4.101      0.056     0.1225      1.200     57.710  45.470450     4.9373      7.357   194.0620 1.2369e-01     3.2646      4.022      5.834    14.6229   999.1990 0.0000e+00
      4.114      0.054     0.1243      1.216     57.885  45.565554     4.9515      7.353   191.9965 1.2370e-01     3.2382      4.034      5.851    14.5591   999.2085 0.0000e+00
      4.126      0.052     0.1233      1.205     58.212  45.789610     4.9523      7.348   190.5014 1.2376e-01     3.2665      4.046      5.867    14.4960   999.2178 0.0000e+00
      4.140      0.050     0.1217      1.189     58.637  46.083860     4.9734      7.343   189.3208 1.2376e-01     3.2788      4.061      5.889    14.4391   999.2261 0.0000e+00
      4.151      0.049     0.1211      1.182     59.016  46.329094     5.0071      7.337   188.1323 1.2372e-01     3.2237      4.070      5.903    14.3882   999.2335 0.0000e+00
      4.161      0.049     0.1203      1.173     59.264  46.468488     5.0212      7.332   187.0591 1.2369e-01     3.1898      4.079      5.916    14.3513   999.2389 0.0000e+00
      4.175      0.049     0.1182      1.152     59.368  46.499090     5.0236      7.328   186.2396 1.2369e-01     3.1637      4.095      5.939    14.3301   999.2420 0.0000e+00
      4.189      0.049     0.1165      1.135     59.435  46.508528     5.0354      7.323   185.6228 1.2370e-01     3.1699      4.110      5.960    14.2978   999.2469 0.0000e+00
      4.202      0.050     0.1164      1.133     59.577  46.582563     5.0608      7.319   185.5376 1.2373e-01     3.2321      4.121      5.977    14.2483   999.2542 0.0000e+00
      4.213      0.051     0.1158      1.126     59.849  46.759130     5.0789      7.315   185.5546 1.2373e-01     3.2606      4.132      5.993    14.1991   999.2613 0.0000e+00
      4.224      0.051     0.1142      1.109     60.279  47.055694     5.0805      7.311   184.8811 1.2367e-01     3.2518      4.142      6.007    14.1563   999.2674 0.0000e+00
      4.237      0.052     0.1143      1.109     60.822  47.437441     5.1060      7.307   183.7613 1.2364e-01     3.1914      4.154      6.025    14.1204   999.2724 0.0000e+00
      4.253      0.053     0.1151      1.115     61.365  47.818306     5.1614      7.302   182.7701 1.2365e-01     3.1200      4.170      6.048    14.0911   999.2767 0.0000e+00
      4.268      0.055     0.1147      1.111     61.785  48.104146     5.1951      7.297   182.7913 1.2368e-01     3.1100      4.187      6.072    14.0623   999.2809 0.0000e+00
      4.281      0.056     0.1149      1.113     62.081  48.289550     5.2025      7.292   183.3297 1.2365e-01     3.1358      4.200      6.090    14.0293   999.2857 0.0000e+00
      4.294      0.056     0.1146      1.109     62.378  48.472191     5.2330      7.288   182.9124 1.2358e-01     3.2027      4.209      6.105    13.9935   999.2909 0.0000e+00
      4.308      0.055     0.1130      1.092     62.766  48.724595     5.2864      7.283   181.9618 1.2360e-01     3.2632      4.224      6.127    13.9587   999.2961 0.0000e+00
      4.323      0.054     0.1123      1.085     63.169  48.991327     5.3113      7.278   181.8165 1.2365e-01     3.2776      4.241      6.152    13.9266   999.3007 0.0000e+00
      4.338      0.054     0.1131      1.091     63.440  49.156654     5.3172      7.274   182.4465 1.2367e-01     3.2786      4.255      6.171    13.8903   999.3058 0.0000e+00
      4.351      0.053     0.1133      1.093     63.549  49.199179     5.3744      7.269   182.4373 1.2366e-01     3.3086      4.266      6.188    13.8497   999.3116 0.0000e+00
      4.364      0.051     0.1122      1.081     63.569  49.187874     5.4569      7.263   181.6198 1.2366e-01     3.3451      4.280      6.207    13.8106   999.3171 0.0000e+00
      4.378      0.047     0.1102      1.062     63.609  49.210471     5.4826      7.258   180.5638 1.2371e-01     3.3264      4.293      6.227    13.7750   999.3222 0.0000e+00
      4.390      0.044     0.1087      1.047     63.784  49.345363     5.4768      7.253   180.0793 1.2376e-01     3.3120      4.306      6.245    13.7396   999.3271 0.0000e+00
      4.401      0.043     0.1081      1.042     64.144  49.612064     5.4132      7.249   180.4084 1.2374e-01     3.3350      4.317      6.262    13.7017   999.3323 0.0000e+00
      4.409      0.043     0.1083      1.043     64.638  49.958025     5.2768      7.245   180.2410 1.2369e-01     3.3424      4.325      6.273    13.6788   999.3355 0.0000e+00
      4.417      0.044     0.1082      1.041     65.139  50.288994     5.1977      7.240   179.2593 1.2370e-01     3.3346      4.330      6.280    13.6767   999.3357 0.0000e+00
      4.427      0.046     0.1086      1.044     65.581  50.564899     5.1935      7.234   178.6048 1.2372e-01     3.3395      4.339      6.293    13.6816   999.3352 0.0000e+00
      4.442      0.049     0.1109      1.065     65.748  50.626138     5.1912      7.228   178.7814 1.2372e-01     3.3362      4.356      6.317    13.6773   999.3361 0.0000e+00
      4.457      0.053     0.1129      1.083     64.953  49.949533     5.1268      7.223   178.7270 1.2373e-01     3.3281      4.371      6.340    13.6470   999.3404 0.0000e+00
      4.471      0.054     0.1128      1.081     63.693  48.926132     5.0038      7.219   177.8612 1.2373e-01     3.3394      4.384      6.358    13.5994   999.3470 0.0000e+00
      4.484      0.054     0.1113      1.066     63.148  48.478187     4.9353      7.214   176.6597 1.2370e-01     3.3097      4.396      6.376    13.5492   999.3538 0.0000e+00
      4.498      0.053     0.1099      1.052     63.893  49.042981     4.9228      7.208   175.7290 1.2363e-01     3.2632      4.411      6.398    13.4973   999.3610 0.0000e+00
      4.513      0.053     0.1099      1.052     66.300  50.864188     4.8268      7.202   175.2985 1.2360e-01     3.3340      4.429      6.424    13.4446   999.3679 0.0000e+00
      4.525      0.052     0.1106      1.057     68.134  52.204967     4.6584      7.196   174.9809 1.2361e-01     3.5103      4.438      6.436    13.3960   999.3736 0.0000e+00
      4.535      0.049     0.1105      1.055     68.274  52.232744     4.5779      7.190   174.3843 1.2361e-01     3.6258      4.444      6.446    13.3717   999.3767 0.0000e+00
      4.550      0.044     0.1096      1.045     68.829  52.597549     4.5734      7.183   173.2477 1.2367e-01     3.6157      4.461      6.471    13.3827   999.3752 0.0000e+00
      4.566      0.038     0.1087      1.036     69.067  52.740809     4.5346      7.178   172.0796 1.2376e-01     3.4862      4.482      6.500    13.3730   999.3779 0.0000e+00
      4.575      0.032     0.1083      1.031     68.208  52.059069     4.4723      7.174   171.6172 1.2372e-01     3.2737      4.489      6.510    13.3091   999.3874 0.0000e+00
      4.579      0.025     0.1077      1.025     68.115  51.977571     4.4453      7.171   171.3574 1.2365e-01     3.1428      4.490      6.511    13.2414   999.3954 0.0000e+00
      4.584      0.019     0.1067      1.016     68.655  52.390776     4.4335      7.166   170.7453 1.2366e-01     3.1166      4.496      6.521    13.2010   999.4012 0.0000e+00
      4.587      0.014     0.1058      1.008     68.526  52.290857     4.3547      7.162   169.8081 1.2369e-01     3.1206      4.499      6.525    13.1759   999.4048 0.0000e+00
      4.588      0.011     0.1048      0.998     68.115  51.976421     4.2301      7.159   168.8018 1.2368e-01     3.1261      4.497      6.522    13.1540   999.4068 0.0000e+00
      4.591      0.010     0.1035      0.985     67.909  51.828669     4.1582      7.155   168.2147 1.2365e-01     3.1166      4.502      6.530    13.1463   999.4079 0.0000e+00
      4.596      0.008     0.1018      0.969     67.652  51.647821     4.1354      7.152   167.8714 1.2370e-01     3.1043      4.508      6.539    13.1551   999.4073 0.0000e+00
      4.598      0.006     0.1003      0.956     67.527  51.568446     4.1444      7.149   166.9740 1.2372e-01     3.0767      4.509      6.540    13.1508   999.4076 0.0000e+00
      4.598      0.005     0.0987      0.941     67.593  51.631249     4.1810      7.145   165.6249 1.2368e-01     3.0775      4.508      6.538    13.1460   999.4081 0.0000e+00
      4.598      0.004     0.0970      0.926     67.671  51.708434     4.2050      7.143   164.7234 1.2368e-01     3.1137      4.509      6.539    13.1568   999.4067 0.0000e+00
      4.598      0.004     0.0958      0.915     67.849  51.866485     4.2096      7.142   164.4195 1.2371e-01     3.1217      4.509      6.540    13.1677   999.4051 0.0000e+00
      4.598      0.007     0.0938      0.895     67.969  51.954192     4.2011      7.141   163.8431 1.2375e-01     3.1080      4.509      6.539    13.1833   999.4030 0.0000e+00
      4.598      0.013     0.0923      0.879     67.666  51.689014     4.1979      7.138   162.7456 1.2370e-01     3.1449      4.509      6.540    13.1876   999.4026 0.0000e+00
      4.601      0.020     0.0928      0.884     66.596  50.819930     4.2058      7.136   162.0766 1.2365e-01     3.2404      4.511      6.542    13.1969   999.4013 0.0000e+00
      4.607      0.029     0.0958      0.911     65.055  49.576617     4.2099      7.134   162.0343 1.2365e-01     3.3116      4.517      6.552    13.2283   999.3974 0.0000e+00
      4.616      0.039     0.0998      0.948     64.030  48.724437     4.2120      7.132   162.0618 1.2370e-01     3.3179      4.525      6.563    13.2259   999.3978 0.0000e+00
      4.627      0.048     0.1018      0.967     63.438  48.201572     4.2227      7.128   161.7218 1.2377e-01     3.2504      4.536      6.578    13.1923   999.4023 0.0000e+00
      4.641      0.055     0.1025      0.972     61.048  46.303210     4.2438      7.124   161.1919 1.2372e-01     3.1514      4.551      6.600    13.1584   999.4063 0.0000e+00
      4.658      0.060     0.1049      0.992     56.358  42.663102     4.2594      7.120   160.9895 1.2364e-01     3.1041      4.568      6.626    13.0992   999.4132 0.0000e+00
      4.676      0.065     0.1077      1.017     52.277  39.494408     4.2645      7.116   161.0823 1.2368e-01     3.1047      4.587      6.653    13.0430   999.4200 0.0000e+00
      4.692      0.066     0.1082      1.020     50.180  37.831974     4.2529      7.113   161.2812 1.2369e-01     3.1262      4.601      6.673    12.9949   999.4264 0.0000e+00
      4.709      0.065     0.1084      1.020     49.310  37.100184     4.2236      7.111   161.2430 1.2370e-01     3.1339      4.615      6.695    12.9181   999.4356 0.0000e+00
      4.728      0.063     0.1112      1.045     49.005  36.803704     4.2053      7.110   160.8790 1.2374e-01     3.0997      4.637      6.726    12.8400   999.4431 0.0000e+00
      4.745      0.061     0.1181      1.108     48.889  36.659274     4.1959      7.110   160.5800 1.2374e-01     3.1064      4.654      6.750    12.7702   999.4503 0.0000e+00
      4.758      0.058     0.1347      1.262     48.910  36.623340     4.0929      7.111   160.4666 1.2374e-01     3.1498      4.666      6.768    12.6918   999.4596 0.0000e+00
      4.771      0.053     0.1716      1.607     49.052  36.686535     3.8966      7.113   160.4540 1.2381e-01     3.1326      4.678      6.784    12.6113   999.4693 0.0000e+00
      4.785      0.048     0.2375      2.222     49.395  36.915517     3.7820      7.114   160.4273 1.2382e-01     3.0948      4.693      6.806    12.5436   999.4775 0.0000e+00
      4.799      0.045     0.3350      3.134     49.830  37.233727     3.7645      7.117   160.2296 1.2376e-01     3.0853      4.709      6.829    12.4889   999.4841 0.0000e+00
      4.808      0.045     0.4527      4.237     49.898  37.296696     3.7458      7.121   159.7850 1.2372e-01     3.1494      4.716      6.840    12.4350   999.4906 0.0000e+00
      4.815      0.044     0.5712      5.349     49.699  37.169074     3.7201      7.124   159.2684 1.2368e-01     3.2804      4.720      6.845    12.3850   999.4967 0.0000e+00
      4.826      0.044     0.6777      6.347     49.658  37.150655     3.7132      7.127   158.8864 1.2368e-01     3.3245      4.730      6.861    12.3574   999.5001 0.0000e+00
      4.841      0.044     0.7645      7.161     49.722  37.200961     3.7149      7.129   158.5224 1.2371e-01     3.2892      4.749      6.887    12.3505   999.5012 0.0000e+00
      4.854      0.044     0.8267      7.742     49.646  37.142569     3.7060      7.132   158.1374 1.2367e-01     3.3127      4.762      6.905    12.3643   999.4996 0.0000e+00
      4.864      0.044     0.8611      8.062     49.411  36.952446     3.6064      7.136   157.7581 1.2361e-01     3.4778      4.769      6.917    12.3978   999.4955 0.0000e+00
      4.875      0.042     0.8683      8.124     49.340  36.869933     3.4201      7.137   157.3776 1.2361e-01     3.7124      4.782      6.935    12.4083   999.4943 0.0000e+00
      4.886      0.038     0.8556      8.000     49.340  36.843116     3.3171      7.137   157.0654 1.2365e-01     3.8216      4.793      6.951    12.4024   999.4952 0.0000e+00
      4.895      0.038     0.8345      7.800     49.075  36.628165     3.2984      7.140   156.8229 1.2367e-01     3.8159      4.800      6.963    12.4106   999.4942 0.0000e+00
      4.904      0.039     0.8113      7.580     48.828  36.429117     3.2632      7.142   156.5956 1.2365e-01     3.8724      4.810      6.977    12.3985   999.4955 0.0000e+00
      4.911      0.041     0.7904      7.382     48.817  36.404153     3.2113      7.143   156.3824 1.2364e-01     4.0133      4.816      6.984    12.3561   999.5006 0.0000e+00
      4.920      0.042     0.7757      7.243     48.906  36.453252     3.1833      7.144   156.2245 1.2365e-01     4.0779      4.822      6.994    12.3276   999.5041 0.0000e+00
      4.934      0.043     0.7647      7.138     49.007  36.514949     3.1844      7.145   156.0635 1.2370e-01     4.0314      4.839      7.018    12.3156   999.5054 0.0000e+00
      4.949      0.044     0.7592      7.085     49.107  36.578849     3.2689      7.145   155.9845 1.2372e-01     3.9415      4.855      7.042    12.3007   999.5071 0.0000e+00
      4.960      0.047     0.7643      7.130     49.135  36.591108     3.4331      7.146   156.2150 1.2369e-01     3.8432      4.865      7.056    12.2836   999.5092 0.0000e+00
      4.969      0.051     0.7793      7.269     48.901  36.409268     3.5230      7.148   156.9570 1.2364e-01     3.7936      4.871      7.065    12.2641   999.5116 0.0000e+00
      4.979      0.056     0.8032      7.488     48.593  36.157493     3.5142      7.148   157.9872 1.2363e-01     3.8666      4.881      7.080    12.2497   999.5133 0.0000e+00
      4.993      0.060     0.8353      7.778     48.564  36.085851     3.2574      7.148   158.7772 1.2366e-01     4.9866      4.896      7.100    12.2413   999.5144 0.0000e+00
      5.009      0.062     0.8760      8.147     48.673  36.114256     2.7763      7.148   159.3663 1.2366e-01     7.0788      4.909      7.119    12.2291   999.5160 0.0000e+00
      5.031      0.065     0.9315      8.658     48.717  36.120039     2.5171      7.149   159.9479 1.2364e-01     8.2546      4.933      7.154    12.2288   999.5161 0.0000e+00
      5.053      0.067     1.0095      9.382     48.689  36.092264     2.4991      7.149   160.6472 1.2362e-01     8.4871      4.961      7.195    12.2181   999.5172 0.0000e+00
      5.066      0.069     1.1160     10.371     48.609  36.032322     2.4469      7.149   161.2826 1.2366e-01     9.5940      4.970      7.208    12.1503   999.5252 0.0000e+00
      5.077      0.070     1.2498     11.610     48.538  35.966539     2.3275      7.149   161.6942 1.2381e-01    11.6090      4.976      7.217    12.0815   999.5333 0.0000e+00
      5.093      0.069     1.3952     12.949     48.539  35.931609     2.2512      7.148   162.2676 1.2389e-01    12.7286      4.993      7.242    12.0620   999.5356 0.0000e+00
      5.116      0.069     1.5373     14.254     48.590  35.927304     2.2444      7.148   162.9674 1.2386e-01    12.8404      5.016      7.275    12.0589   999.5360 0.0000e+00
      5.139      0.071     1.6679     15.455     48.615  35.914438     2.2543      7.147   163.7883 1.2381e-01    12.8303      5.042      7.312    12.0635   999.5356 0.0000e+00
      5.157      0.071     1.7843     16.526     48.628  35.902959     2.2754      7.146   164.8797 1.2377e-01    12.6058      5.059      7.338    12.0598   999.5360 0.0000e+00
      5.172      0.067     1.8921     17.517     48.670  35.915434     2.3003      7.144   165.6670 1.2375e-01    12.1905      5.069      7.352    12.0129   999.5414 0.0000e+00
      5.188      0.060     1.9936     18.449     48.723  35.938307     2.3124      7.144   165.9945 1.2372e-01    11.9720      5.087      7.377    11.9604   999.5476 0.0000e+00
      5.206      0.053     2.0830     19.272     48.720  35.925605     2.3093      7.143   166.5160 1.2368e-01    12.0285      5.108      7.407    11.9318   999.5509 0.0000e+00
      5.220      0.048     2.1599     19.981     48.679  35.888790     2.2276      7.142   167.3268 1.2366e-01    12.5129      5.122      7.428    11.9126   999.5531 0.0000e+00
      5.229      0.045     2.2299     20.626     48.665  35.874007     2.0794      7.140   168.1395 1.2368e-01    13.3054      5.128      7.439    11.8930   999.5554 0.0000e+00
      5.237      0.044     2.2944     21.222     48.667  35.873807     2.0087      7.140   168.8566 1.2374e-01    13.7455      5.135      7.447    11.8742   999.5576 0.0000e+00
      5.245      0.047     2.3519     21.755     48.683  35.886369     2.0062      7.139   169.3721 1.2380e-01    13.8367      5.144      7.461    11.8649   999.5587 0.0000e+00
      5.255      0.052     2.3994     22.195     48.700  35.898948     1.9187      7.137   169.7262 1.2380e-01    13.9492      5.152      7.473    11.8596   999.5593 0.0000e+00
      5.269      0.057     2.4330     22.505     48.699  35.898956     1.7480      7.135   170.2136 1.2374e-01    14.1222      5.164      7.490    11.8539   999.5600 0.0000e+00
      5.289      0.062     2.4544     22.703     48.680  35.886461     1.6503      7.134   171.0487 1.2368e-01    14.2237      5.186      7.521    11.8522   999.5603 0.0000e+00
      5.310      0.063     2.4700     22.848     48.662  35.874825     1.6389      7.133   172.1667 1.2370e-01    14.2267      5.208      7.555    11.8551   999.5601 0.0000e+00
      5.328      0.061     2.4830     22.970     48.674  35.885212     1.6363      7.132   173.2337 1.2376e-01    13.9287      5.225      7.578    11.8548   999.5602 0.0000e+00
      5.343      0.059     2.4929     23.061     48.674  35.885107     1.6358      7.129   174.0561 1.2374e-01    13.4066      5.240      7.599    11.8543   999.5603 0.0000e+00
      5.356      0.059     2.4984     23.111     48.660  35.873557     1.6413      7.127   174.7965 1.2369e-01    13.1581      5.254      7.620    11.8570   999.5601 0.0000e+00
      5.364      0.060     2.5009     23.131     48.666  35.872498     1.6338      7.125   175.5600 1.2366e-01    13.1520      5.262      7.633    11.8586   999.5599 0.0000e+00
      5.374      0.060     2.5026     23.143     48.676  35.872299     1.5541      7.123   176.4053 1.2363e-01    13.3658      5.264      7.635    11.8600   999.5598 0.0000e+00
      5.394      0.059     2.5016     23.130     48.683  35.871147     1.4231      7.122   177.3593 1.2368e-01    13.7765      5.284      7.664    11.8614   999.5597 0.0000e+00
      5.421      0.058     2.4978     23.092     48.673  35.858558     1.3587      7.122   178.4047 1.2374e-01    13.9887      5.322      7.719    11.8602   999.5600 0.0000e+00
      5.440      0.057     2.4926     23.043     48.662  35.847028     1.3567      7.120   179.2369 1.2372e-01    13.9981      5.341      7.746    11.8540   999.5608 0.0000e+00
      5.445      0.054     2.4845     22.967     48.679  35.858681     1.3481      7.118   179.7639 1.2368e-01    13.9888      5.339      7.743    11.8451   999.5618 0.0000e+00
      5.451      0.049     2.4760     22.887     48.699  35.872510     1.3495      7.117   180.3881 1.2370e-01    13.9739      5.341      7.748    11.8378   999.5627 0.0000e+00
      5.466      0.047     2.4715     22.847     48.717  35.887285     1.3727      7.115   181.1054 1.2373e-01    13.9821      5.359      7.772    11.8324   999.5633 0.0000e+00
      5.481      0.050     2.4701     22.838     48.739  35.910365     1.3956      7.113   182.0694 1.2371e-01    13.9897      5.377      7.799    11.8293   999.5637 0.0000e+00
      5.492      0.055     2.4702     22.845     48.707  35.897688     1.4092      7.112   183.0962 1.2373e-01    13.9672      5.384      7.810    11.8289   999.5638 0.0000e+00
      5.505      0.057     2.4724     22.869     48.647  35.860968     1.4062      7.111   183.6259 1.2374e-01    14.0051      5.396      7.826    11.8279   999.5640 0.0000e+00
      5.524      0.056     2.4751     22.894     48.628  35.847235     1.4034      7.108   184.0855 1.2371e-01    14.1199      5.418      7.858    11.8271   999.5642 0.0000e+00
      5.540      0.055     2.4761     22.901     48.650  35.858585     1.4098      7.106   184.6956 1.2362e-01    14.1755      5.435      7.884    11.8340   999.5636 0.0000e+00
      5.553      0.057     2.4735     22.875     48.673  35.871252     1.4063      7.106   185.1524 1.2362e-01    14.1532      5.445      7.897    11.8494   999.5618 0.0000e+00
      5.564      0.059     2.4661     22.805     48.678  35.873445     1.3867      7.105   186.0806 1.2377e-01    14.1455      5.456      7.914    11.8603   999.5607 0.0000e+00
      5.577      0.059     2.4570     22.719     48.698  35.885100     1.3551      7.102   187.4868 1.2383e-01    14.1805      5.469      7.932    11.8580   999.5610 0.0000e+00
      5.593      0.059     2.4486     22.639     48.703  35.885216     1.3362      7.100   188.3028 1.2377e-01    14.2155      5.482      7.950    11.8496   999.5619 0.0000e+00
      5.613      0.060     2.4398     22.557     48.691  35.874839     1.3408      7.098   188.7183 1.2370e-01    14.2415      5.504      7.983    11.8447   999.5626 0.0000e+00
      5.632      0.060     2.4319     22.485     48.708  35.886579     1.3588      7.097   189.0697 1.2366e-01    14.2975      5.528      8.017    11.8455   999.5627 0.0000e+00
      5.643      0.059     2.4289     22.456     48.729  35.900218     1.3882      7.096   189.2821 1.2368e-01    14.4020      5.535      8.028    11.8431   999.5630 0.0000e+00
      5.653      0.056     2.4319     22.482     48.752  35.912799     1.4101      7.096   190.2540 1.2369e-01    14.4882      5.540      8.035    11.8366   999.5637 0.0000e+00
      5.669      0.051     2.4374     22.530     48.755  35.911740     1.3986      7.096   191.8720 1.2366e-01    14.5207      5.559      8.062    11.8355   999.5639 0.0000e+00
      5.686      0.048     2.4410     22.562     48.725  35.887410     1.2838      7.095   192.7561 1.2370e-01    14.6644      5.579      8.092    11.8374   999.5638 0.0000e+00
      5.699      0.048     2.4444     22.594     48.705  35.872513     1.0880      7.093   192.7700 1.2378e-01    14.9153      5.591      8.109    11.8349   999.5642 0.0000e+00
      5.708      0.047     2.4493     22.638     48.687  35.858569     0.9740      7.088   192.6427 1.2375e-01    15.0299      5.598      8.119    11.8292   999.5648 0.0000e+00
      5.717      0.044     2.4525     22.667     48.672  35.845761     0.9543      7.083   193.4538 1.2370e-01    15.0329      5.604      8.128    11.8245   999.5654 0.0000e+00
      5.728      0.042     2.4542     22.682     48.672  35.844597     0.9450      7.082   195.0909 1.2376e-01    15.0839      5.616      8.145    11.8231   999.5656 0.0000e+00
      5.741      0.043     2.4564     22.702     48.671  35.844491     0.9307      7.080   196.0889 1.2381e-01    15.1216      5.632      8.168    11.8237   999.5656 0.0000e+00
      5.752      0.044     2.4569     22.707     48.671  35.844481     0.9200      7.079   196.3154 1.2371e-01    15.0960      5.642      8.183    11.8227   999.5657 0.0000e+00
      5.761      0.043     2.4564     22.702     48.672  35.844481     0.9193      7.079   196.3666 1.2363e-01    15.1024      5.647      8.190    11.8204   999.5660 0.0000e+00
      5.773      0.043     2.4579     22.716     48.674  35.844481     0.9229      7.079   196.5360 1.2366e-01    15.1664      5.660      8.209    11.8194   999.5662 0.0000e+00
      5.787      0.046     2.4591     22.727     48.674  35.844481     0.9114      7.078   197.3317 1.2367e-01    15.2135      5.678      8.235    11.8209   999.5661 0.0000e+00
      5.797      0.051     2.4585     22.721     48.674  35.844481     0.8851      7.077   198.6742 1.2369e-01    15.1800      5.686      8.247    11.8214   999.5661 0.0000e+00
      5.804      0.054     2.4602     22.737     48.675  35.844481     0.8644      7.075   199.6030 1.2378e-01    15.1229      5.688      8.251    11.8195   999.5663 0.0000e+00
      5.818      0.054     2.4630     22.762     48.675  35.844481     0.8523      7.072   199.9580 1.2383e-01    15.1129      5.702      8.270    11.8176   999.5666 0.0000e+00
      5.840      0.053     2.4626     22.759     48.675  35.844481     0.8597      7.070   199.9549 1.2378e-01    15.1243      5.729      8.308    11.8179   999.5667 0.0000e+00
      5.858      0.050     2.4631     22.763     48.675  35.844482     0.8844      7.070   199.7376 1.2371e-01    15.1298      5.748      8.337    11.8186   999.5667 0.0000e+00
      5.869      0.045     2.4653     22.784     48.675  35.844490     0.8999      7.069   200.2560 1.2365e-01    15.1143      5.756      8.348    11.8175   999.5669 0.0000e+00
      5.878      0.040     2.4673     22.802     48.674  35.844585     0.9074      7.068   201.4900 1.2361e-01    15.0998      5.764      8.360    11.8171   999.5669 0.0000e+00
      5.885      0.038     2.4688     22.817     48.672  35.845626     0.9148      7.065   202.3553 1.2372e-01    15.1183      5.772      8.372    11.8178   999.5669 0.0000e+00
      5.890      0.040     2.4696     22.826     48.685  35.857081     0.9199      7.062   202.7167 1.2383e-01    15.1423      5.777      8.378    11.8172   999.5670 0.0000e+00
      5.896      0.043     2.4706     22.836     48.683  35.856136     0.9177      7.060   202.8473 1.2380e-01    15.1282      5.778      8.382    11.8174   999.5670 0.0000e+00
      5.909      0.047     2.4718     22.847     48.654  35.834199     0.9142      7.060   202.9884 1.2370e-01    15.1109      5.791      8.400    11.8183   999.5669 0.0000e+00
      5.928      0.049     2.4744     22.871     48.669  35.845739     0.9556      7.060   203.4759 1.2369e-01    15.1299      5.817      8.436    11.8203   999.5668 0.0000e+00
      5.945      0.049     2.4787     22.911     48.702  35.868715     1.0443      7.060   204.1820 1.2371e-01    15.1606      5.833      8.460    11.8243   999.5665 0.0000e+00
      5.955      0.045     2.4831     22.951     48.689  35.858111     1.1031      7.059   204.8154 1.2372e-01    15.1881      5.840      8.470    11.8238   999.5665 0.0000e+00
      5.965      0.039     2.4871     22.987     48.672  35.844471     1.1117      7.055   205.3686 1.2372e-01    15.1664      5.851      8.485    11.8228   999.5667 0.0000e+00
      5.975      0.034     2.4883     22.997     48.653  35.830736     1.0964      7.052   205.7948 1.2370e-01    15.0951      5.862      8.501    11.8238   999.5666 0.0000e+00
      5.980      0.034     2.4859     22.974     48.638  35.818989     1.0569      7.051   205.6666 1.2372e-01    15.0809      5.866      8.507    11.8220   999.5669 0.0000e+00
      5.985      0.037     2.4836     22.954     48.651  35.829375     1.0242      7.050   205.3676 1.2372e-01    15.1249      5.867      8.510    11.8204   999.5671 0.0000e+00
      5.992      0.041     2.4831     22.951     48.647  35.829374     1.0299      7.049   205.7931 1.2370e-01    15.1358      5.874      8.520    11.8199   999.5671 0.0000e+00
      6.006      0.044     2.4837     22.958     48.628  35.818977     1.0480      7.048   206.5960 1.2378e-01    15.1148      5.888      8.540    11.8197   999.5672 0.0000e+00
      6.022      0.045     2.4859     22.980     48.641  35.830620     1.0611      7.047   207.3311 1.2383e-01    15.1003      5.907      8.567    11.8184   999.5675 0.0000e+00
      6.037      0.045     2.4888     23.007     48.656  35.843210     1.0760      7.045   207.9704 1.2382e-01    15.1243      5.922      8.590    11.8185   999.5676 0.0000e+00
      6.049      0.042     2.4907     23.026     48.656  35.844251     1.0803      7.044   207.7868 1.2381e-01    15.1752      5.933      8.605    11.8232   999.5670 0.0000e+00
      6.057      0.039     2.4922     23.041     48.654  35.843211     1.0778      7.043   207.0040 1.2380e-01    15.1921      5.939      8.615    11.8275   999.5666 0.0000e+00
      6.063      0.037     2.4944     23.061     48.638  35.830640     1.0383      7.041   207.0234 1.2378e-01    15.1642      5.945      8.623    11.8288   999.5665 0.0000e+00
      6.070      0.037     2.4952     23.066     48.624  35.819196     0.9492      7.040   207.9355 1.2368e-01    15.1317      5.953      8.633    11.8298   999.5664 0.0000e+00
      6.079      0.037     2.4925     23.040     48.645  35.831777     0.9018      7.039   208.9120 1.2361e-01    15.1603      5.959      8.642    11.8319   999.5662 0.0000e+00
      6.092      0.037     2.4890     23.006     48.682  35.855811     0.9083      7.038   208.6770 1.2366e-01    15.2155      5.974      8.665    11.8325   999.5662 0.0000e+00
      6.106      0.037     2.4870     22.986     48.686  35.855906     0.9227      7.037   207.7618 1.2371e-01    15.2753      5.991      8.690    11.8318   999.5664 0.0000e+00
      6.114      0.036     2.4862     22.978     48.657  35.832921     0.9460      7.036   208.0845 1.2371e-01    15.3592      5.996      8.697    11.8303   999.5665 0.0000e+00
      6.121      0.035     2.4867     22.982     48.656  35.831776     0.9648      7.035   208.9652 1.2369e-01    15.3772      6.001      8.704    11.8268   999.5670 0.0000e+00
      6.129      0.036     2.4897     23.009     48.671  35.842069     0.9760      7.032   209.8057 1.2365e-01    15.3615      6.011      8.719    11.8235   999.5674 0.0000e+00
      6.136      0.039     2.4944     23.053     48.656  35.830425     0.9953      7.030   210.9337 1.2365e-01    15.3331      6.018      8.729    11.8207   999.5677 0.0000e+00
      6.143      0.043     2.4969     23.077     48.637  35.817939     1.0168      7.029   210.9890 1.2371e-01    15.2310      6.021      8.732    11.8188   999.5679 0.0000e+00
      6.156      0.044     2.4973     23.081     48.635  35.818043     1.0270      7.028   209.9575 1.2379e-01    15.1424      6.034      8.750    11.8178   999.5680 0.0000e+00
      6.175      0.044     2.4990     23.097     48.653  35.831683     1.0319      7.027   209.6480 1.2375e-01    15.1149      6.058      8.787    11.8176   999.5683 0.0000e+00
      6.190      0.042     2.5012     23.117     48.687  35.855908     1.0503      7.025   209.9994 1.2365e-01    15.1271      6.075      8.810    11.8176   999.5684 0.0000e+00
      6.197      0.037     2.5023     23.127     48.690  35.857061     1.0838      7.024   210.7651 1.2363e-01    15.1590      6.077      8.814    11.8183   999.5683 0.0000e+00
      6.204      0.031     2.5033     23.135     48.675  35.845625     1.1003      7.022   211.9369 1.2368e-01    15.1401      6.082      8.821    11.8205   999.5681 0.0000e+00
      6.211      0.026     2.5038     23.140     48.672  35.844575     1.0935      7.021   211.9497 1.2371e-01    15.0622      6.092      8.835    11.8217   999.5680 0.0000e+00
      6.215      0.026     2.5061     23.162     48.672  35.844368     1.0877      7.020   210.9207 1.2370e-01    15.0045      6.095      8.841    11.8205   999.5682 0.0000e+00
      6.218      0.027     2.5106     23.203     48.670  35.843120     1.0650      7.019   210.7665 1.2370e-01    14.9669      6.096      8.842    11.8186   999.5684 0.0000e+00
      6.225      0.029     2.5126     23.221     48.652  35.829489     1.0186      7.017   211.5476 1.2371e-01    14.9345      6.102      8.851    11.8190   999.5683 0.0000e+00
      6.237      0.031     2.5111     23.207     48.621  35.806503     0.9864      7.014   212.3635 1.2370e-01    14.9401      6.116      8.871    11.8200   999.5683 0.0000e+00
      6.247      0.034     2.5091     23.188     48.639  35.819084     0.9694      7.013   212.5433 1.2371e-01    14.9364      6.128      8.888    11.8198   999.5684 0.0000e+00
      6.254      0.036     2.5077     23.175     48.689  35.854650     0.9436      7.012   212.0860 1.2373e-01    14.9554      6.132      8.893    11.8195   999.5684 0.0000e+00
      6.261      0.036     2.5076     23.174     48.691  35.855699     0.9170      7.012   211.9109 1.2372e-01    15.0384      6.139      8.904    11.8193   999.5685 0.0000e+00
      6.271      0.036     2.5081     23.179     48.658  35.831767     0.9081      7.011   212.3189 1.2368e-01    15.0893      6.150      8.921    11.8189   999.5685 0.0000e+00
      6.281      0.038     2.5082     23.181     48.640  35.819187     0.9142      7.010   212.8900 1.2367e-01    15.0788      6.160      8.934    11.8184   999.5687 0.0000e+00
      6.290      0.039     2.5110     23.206     48.655  35.830529     0.9300      7.010   213.3954 1.2367e-01    15.0748      6.168      8.945    11.8174   999.5688 0.0000e+00
      6.299      0.038     2.5157     23.250     48.671  35.841955     0.9517      7.009   213.8690 1.2367e-01    15.1065      6.176      8.958    11.8160   999.5690 0.0000e+00
      6.311      0.036     2.5192     23.282     48.656  35.830404     0.9685      7.006   213.9707 1.2366e-01    15.1335      6.189      8.977    11.8173   999.5689 0.0000e+00
      6.323      0.034     2.5235     23.322     48.638  35.817814     0.9771      7.005   213.6786 1.2366e-01    15.1394      6.203      8.998    11.8188   999.5688 0.0000e+00
      6.330      0.032     2.5278     23.362     48.636  35.816670     0.9597      7.004   213.6923 1.2373e-01    15.1125      6.209      9.005    11.8182   999.5689 0.0000e+00
      6.335      0.030     2.5278     23.361     48.636  35.816574     0.9152      7.003   214.2227 1.2383e-01    15.0711      6.211      9.008    11.8176   999.5690 0.0000e+00
      6.341      0.030     2.5251     23.336     48.637  35.816649     0.8982      7.002   214.8433 1.2384e-01    15.0969      6.218      9.018    11.8175   999.5691 0.0000e+00
      6.349      0.033     2.5226     23.312     48.640  35.817584     0.9109      7.001   215.5169 1.2380e-01    15.1629      6.226      9.030    11.8179   999.5690 0.0000e+00
      6.357      0.039     2.5215     23.301     48.656  35.827877     0.9126      6.999   216.0867 1.2379e-01    15.1475      6.233      9.041    11.8184   999.5690 0.0000e+00
      6.366      0.045     2.5210     23.295     48.639  35.814144     0.9091      6.998   216.0538 1.2376e-01    15.0740      6.242      9.052    11.8186   999.5690 0.0000e+00
      6.379      0.049     2.5193     23.280     48.592  35.778484     0.9130      6.996   215.8943 1.2370e-01    15.0944      6.253      9.069    11.8179   999.5692 0.0000e+00
      6.396      0.051     2.5177     23.265     48.592  35.777548     0.9160      6.996   216.0502 1.2368e-01    15.1646      6.272      9.097    11.8161   999.5694 0.0000e+00
      6.412      0.052     2.5166     23.254     48.626  35.802832     0.9114      6.996   216.8210 1.2370e-01    15.1692      6.291      9.123    11.8141   999.5698 0.0000e+00
      6.424      0.052     2.5155     23.244     48.664  35.830292     0.9432      6.994   217.9868 1.2369e-01    15.1506      6.300      9.137    11.8127   999.5700 0.0000e+00
      6.435      0.052     2.5133     23.224     48.699  35.855680     1.0052      6.991   218.4439 1.2364e-01    15.1361      6.310      9.151    11.8117   999.5701 0.0000e+00
      6.447      0.052     2.5091     23.184     48.699  35.855898     1.0290      6.990   218.3898 1.2366e-01    15.1241      6.324      9.172    11.8110   999.5703 0.0000e+00
      6.459      0.053     2.5062     23.158     48.668  35.832932     1.0313      6.990   218.2792 1.2372e-01    15.1047      6.334      9.187    11.8112   999.5703 0.0000e+00
      6.472      0.053     2.5047     23.146     48.666  35.831894     1.0064      6.988   218.0529 1.2372e-01    15.0656      6.345      9.203    11.8114   999.5703 0.0000e+00
      6.490      0.052     2.5042     23.141     48.681  35.843339     0.9459      6.986   218.8382 1.2370e-01    15.0443      6.364      9.230    11.8108   999.5705 0.0000e+00
      6.507      0.051     2.5065     23.162     48.682  35.844379     0.9147      6.986   220.4611 1.2365e-01    15.0762      6.384      9.259    11.8108   999.5706 0.0000e+00
      6.518      0.048     2.5093     23.187     48.682  35.844464     0.9152      6.985   221.1550 1.2362e-01    15.1235      6.393      9.274    11.8115   999.5705 0.0000e+00
      6.527      0.045     2.5108     23.201     48.682  35.844368     0.9433      6.984   220.8611 1.2361e-01    15.1250      6.399      9.281    11.8116   999.5706 0.0000e+00
      6.537      0.043     2.5134     23.224     48.682  35.843215     1.0033      6.983   220.3482 1.2362e-01    15.0944      6.410      9.297    11.8117   999.5706 0.0000e+00
      6.548      0.042     2.5159     23.247     48.665  35.830520     1.0342      6.982   220.2026 1.2364e-01    15.0806      6.423      9.317    11.8120   999.5706 0.0000e+00
      6.558      0.041     2.5155     23.243     48.648  35.817826     1.0213      6.980   221.2508 1.2367e-01    15.0891      6.430      9.327    11.8117   999.5707 0.0000e+00
      6.568      0.038     2.5133     23.223     48.647  35.816673     0.9682      6.979   223.0417 1.2368e-01    15.1643      6.439      9.338    11.8111   999.5708 0.0000e+00
      6.583      0.033     2.5103     23.196     48.647  35.816587     0.8870      6.977   223.8747 1.2365e-01    15.3023      6.455      9.363    11.8108   999.5709 0.0000e+00
      6.595      0.027     2.5078     23.172     48.647  35.816777     0.8459      6.976   223.5796 1.2365e-01    15.3488      6.471      9.387    11.8103   999.5711 0.0000e+00
      6.599      0.022     2.5080     23.174     48.650  35.818971     0.8436      6.974   223.0870 1.2370e-01    15.2999      6.473      9.388    11.8099   999.5711 0.0000e+00
      6.599      0.018     2.5091     23.184     48.683  35.843110     0.8429      6.973   223.6832 1.2375e-01    15.3011      6.469      9.383    11.8096   999.5711 0.0000e+00
      6.600      0.023     2.5091     23.184     48.699  35.854755     0.8452      6.972   225.3674 1.2378e-01    15.3632      6.472      9.387    11.8094   999.5711 0.0000e+00
      6.601      0.036     2.5084     23.178     48.669  35.832829     0.8541      6.971   226.2433 1.2372e-01    15.3957      6.474      9.389    11.8097   999.5711 0.0000e+00
      6.604      0.052     2.5094     23.188     48.667  35.831885     0.8548      6.970   226.0136 1.2366e-01    15.3654      6.473      9.389    11.8098   999.5711 0.0000e+00
      6.618      0.067     2.5133     23.224     48.683  35.843340     0.8455      6.969   225.4291 1.2370e-01    15.3258      6.482      9.402    11.8096   999.5712 0.0000e+00
      6.647      0.077     2.5163     23.251     48.685  35.844381     0.8629      6.967   224.8544 1.2378e-01    15.3423      6.517      9.452    11.8096   999.5714 0.0000e+00
      6.682      0.083     2.5158     23.247     48.685  35.844474     0.9006      6.967   225.2598 1.2379e-01    15.4005      6.559      9.513    11.8097   999.5715 0.0000e+00
      6.707      0.082     2.5142     23.233     48.684  35.844474     0.9195      6.966   226.6310 1.2373e-01    15.4400      6.583      9.547    11.8102   999.5716 0.0000e+00
      6.722      0.072     2.5138     23.229     48.683  35.844371     0.9262      6.965   227.5818 1.2367e-01    15.4270      6.592      9.561    11.8100   999.5717 0.0000e+00
      6.737      0.055     2.5135     23.225     48.682  35.843236     0.9387      6.964   227.8937 1.2369e-01    15.3088      6.604      9.579    11.8091   999.5718 0.0000e+00
      6.753      0.040     2.5118     23.210     48.665  35.830751     0.9586      6.962   227.8197 1.2371e-01    15.1578      6.624      9.607    11.8095   999.5719 0.0000e+00
      6.763      0.029     2.5103     23.197     48.650  35.820356     0.9758      6.959   227.4619 1.2373e-01    15.1093      6.636      9.626    11.8116   999.5717 0.0000e+00
      6.766      0.021     2.5098     23.193     48.682  35.844495     0.9898      6.959   227.5255 1.2373e-01    15.1152      6.634      9.623    11.8112   999.5717 0.0000e+00
      6.766      0.014     2.5098     23.193     48.712  35.868730     1.0675      6.958   228.1586 1.2372e-01    15.1637      6.634      9.620    11.8097   999.5719 0.0000e+00
      6.767      0.008     2.5101     23.197     48.695  35.859487     1.2054      6.958   228.7506 1.2374e-01    15.2694      6.637      9.626    11.8104   999.5718 0.0000e+00
      6.769      0.005     2.5097     23.197     48.688  35.859696     1.2787      6.957   228.9185 1.2370e-01    15.3450      6.638      9.628    11.8112   999.5717 0.0000e+00
      6.770      0.005     2.5093     23.197     48.693  35.871255     1.2770      6.956   228.8122 1.2366e-01    15.3566      6.639      9.629    11.8124   999.5716 0.0000e+00
      6.772      0.004     2.5100     23.208     48.685  35.872315     1.1852      6.955   228.5842 1.2366e-01    15.2457      6.642      9.634    11.8141   999.5715 0.0000e+00
      6.773      0.003     2.5115     23.225     48.676  35.872514     1.0092      6.952   228.4842 1.2363e-01    15.0201      6.643      9.635    11.8165   999.5712 0.0000e+00
      6.773      0.002     2.5120     23.234     48.668  35.873667     0.9086      6.948   228.8076 1.2359e-01    14.8892      6.642      9.634    11.8226   999.5705 0.0000e+00
      6.773      0.001     2.5128     23.245     48.675  35.886268     0.9055      6.946   229.2244 1.2361e-01    14.9088      6.642      9.634    11.8316   999.5695 0.0000e+00
      6.773     -0.001     2.5148     23.268     48.679  35.897931     0.9287      6.946   229.6525 1.2367e-01    14.9301      6.642      9.634    11.8395   999.5686 0.0000e+00
      6.773     -0.001     2.5165     23.290     48.652  35.887742     0.9550      6.946   230.1122 1.2366e-01    14.9174      6.642      9.634    11.8452   999.5680 0.0000e+00
      6.773     -0.001     2.5175     23.304     48.641  35.890027     0.9640      6.946   229.7924 1.2361e-01    14.9189      6.643      9.635    11.8523   999.5672 0.0000e+00
      6.772     -0.001     2.5175     23.309     48.676  35.925581     0.9673      6.945   229.0552 1.2363e-01    14.9148      6.642      9.633    11.8600   999.5663 0.0000e+00
      6.772      0.004     2.5171     23.311     48.677  35.936799     0.9691      6.945   229.2859 1.2376e-01    14.9011      6.640      9.631    11.8684   999.5654 0.0000e+00
      6.772      0.018     2.5174     23.319     48.615  35.898724     0.9516      6.944   230.3447 1.2381e-01    14.9505      6.641      9.633    11.8797   999.5641 0.0000e+00
      6.772      0.043     2.5186     23.326     48.553  35.846067     0.9287      6.942   231.3597 1.2372e-01    15.0534      6.641      9.633    11.8898   999.5629 0.0000e+00
      6.774      0.070     2.5191     23.318     48.533  35.807894     0.9262      6.940   231.8367 1.2366e-01    15.0962      6.639      9.629    11.8992   999.5619 0.0000e+00
      6.791      0.092     2.5179     23.292     48.584  35.817981     0.9302      6.939   231.2934 1.2369e-01    15.0737      6.647      9.642    11.9107   999.5606 0.0000e+00
      6.831      0.107     2.5156     23.260     48.642  35.841053     0.9504      6.938   230.4695 1.2374e-01    15.0438      6.692      9.707    11.9239   999.5593 0.0000e+00
      6.884      0.118     2.5131     23.231     48.646  35.832943     1.0063      6.937   230.6515 1.2370e-01    14.9972      6.759      9.802    11.9199   999.5600 0.0000e+00
      6.923      0.125     2.5115     23.212     48.673  35.846867     1.0420      6.937   231.1710 1.2368e-01    14.9357      6.800      9.862    11.8882   999.5639 0.0000e+00
      6.941      0.121     2.5118     23.212     48.728  35.882452     1.0362      6.936   231.6737 1.2371e-01    14.8906      6.806      9.870    11.8550   999.5676 0.0000e+00
      6.958      0.106     2.5108     23.202     48.732  35.882359     0.9963      6.935   231.7397 1.2374e-01    14.9433      6.814      9.882    11.8349   999.5700 0.0000e+00
      6.989      0.088     2.5078     23.173     48.685  35.845735     0.9410      6.933   230.9365 1.2373e-01    15.0815      6.853      9.939    11.8261   999.5711 0.0000e+00
      7.024      0.077     2.5069     23.164     48.651  35.820469     0.9225      6.932   230.6523 1.2371e-01    15.1520      6.895     10.000    11.8220   999.5717 0.0000e+00
      7.044      0.072     2.5089     23.184     48.665  35.830762     0.9199      6.932   231.0566 1.2376e-01    15.1402      6.914     10.027    11.8159   999.5726 0.0000e+00
      7.052      0.071     2.5106     23.199     48.682  35.843238     0.8914      6.931   231.8676 1.2377e-01    15.1354      6.916     10.031    11.8123   999.5730 0.0000e+00
      7.056      0.071     2.5117     23.209     48.684  35.844372     0.8559      6.930   232.8860 1.2375e-01    15.1601      6.917     10.032    11.8114   999.5730 0.0000e+00
      7.068      0.072     2.5138     23.228     48.684  35.844475     0.8469      6.930   232.7014 1.2372e-01    15.1761      6.926     10.045    11.8108   999.5731 0.0000e+00
      7.093      0.073     2.5171     23.259     48.684  35.844484     0.8515      6.930   231.6136 1.2372e-01    15.1654      6.953     10.085    11.8113   999.5732 0.0000e+00
      7.126      0.074     2.5211     23.297     48.684  35.844476     0.8510      6.929   231.3492 1.2372e-01    15.0965      6.992     10.141    11.8115   999.5734 0.0000e+00
      7.154      0.071     2.5239     23.322     48.683  35.844372     0.8491      6.928   231.9996 1.2367e-01    14.9650      7.021     10.185    11.8107   999.5736 0.0000e+00
      7.169      0.066     2.5234     23.317     48.682  35.843227     0.8461      6.927   232.8530 1.2367e-01    14.8868      7.034     10.203    11.8107   999.5737 0.0000e+00
      7.173      0.058     2.5196     23.281     48.667  35.830637     0.8493      6.926   233.3218 1.2369e-01    14.8720      7.033     10.201    11.8107   999.5737 0.0000e+00
      7.180      0.053     2.5175     23.261     48.654  35.819088     0.8538      6.924   232.9360 1.2366e-01    14.8523      7.036     10.206    11.8109   999.5737 0.0000e+00
      7.195      0.055     2.5180     23.265     48.672  35.830524     0.8742      6.922   232.1455 1.2368e-01    14.8448      7.054     10.232    11.8116   999.5737 0.0000e+00
      7.213      0.063     2.5166     23.252     48.688  35.841970     0.9215      6.922   231.8513 1.2370e-01    14.8795      7.075     10.262    11.8111   999.5738 0.0000e+00
      7.229      0.072     2.5140     23.227     48.673  35.830525     0.9580      6.922   232.2173 1.2370e-01    14.9114      7.089     10.282    11.8090   999.5741 0.0000e+00
      7.247      0.077     2.5135     23.222     48.658  35.819088     0.9775      6.922   232.8714 1.2369e-01    14.9020      7.103     10.302    11.8068   999.5744 0.0000e+00
      7.271      0.077     2.5162     23.247     48.674  35.830638     0.9756      6.921   233.3076 1.2362e-01    14.8979      7.129     10.340    11.8055   999.5747 0.0000e+00
      7.296      0.076     2.5207     23.288     48.692  35.843228     0.9433      6.920   233.3626 1.2351e-01    14.8949      7.158     10.381    11.8046   999.5749 0.0000e+00
      7.317      0.074     2.5245     23.323     48.694  35.844363     0.9160      6.920   233.2773 1.2354e-01    14.8655      7.177     10.409    11.8041   999.5751 0.0000e+00
      7.332      0.071     2.5274     23.349     48.694  35.844363     0.9141      6.919   233.2229 1.2369e-01    14.8698      7.191     10.429    11.8044   999.5751 0.0000e+00
      7.346      0.064     2.5314     23.386     48.692  35.843228     0.9295      6.917   233.3070 1.2376e-01    14.9472      7.203     10.446    11.8041   999.5752 0.0000e+00
      7.362      0.058     2.5354     23.425     48.675  35.830639     0.9468      6.915   233.5199 1.2372e-01    15.0480      7.218     10.468    11.8032   999.5754 0.0000e+00
      7.380      0.054     2.5377     23.446     48.659  35.819099     0.9586      6.913   234.0769 1.2368e-01    15.1046      7.237     10.498    11.8029   999.5755 0.0000e+00
      7.395      0.055     2.5380     23.448     48.674  35.830639     0.9671      6.913   234.6207 1.2365e-01    15.1076      7.255     10.522    11.8029   999.5756 0.0000e+00
      7.403      0.058     2.5375     23.444     48.691  35.843228     0.9889      6.912   234.5885 1.2367e-01    15.1162      7.262     10.532    11.8029   999.5756 0.0000e+00
      7.411      0.060     2.5383     23.451     48.692  35.844363     1.0230      6.911   234.4618 1.2369e-01    15.1108      7.264     10.536    11.8032   999.5756 0.0000e+00
      7.426      0.061     2.5383     23.451     48.692  35.844362     1.0327      6.908   234.5514 1.2367e-01    15.0758      7.278     10.556    11.8041   999.5755 0.0000e+00
      7.450      0.063     2.5364     23.434     48.690  35.843218     1.0197      6.907   234.8124 1.2369e-01    15.0857      7.307     10.599    11.8040   999.5757 0.0000e+00
      7.472      0.064     2.5356     23.427     48.673  35.830524     0.9792      6.907   235.4656 1.2369e-01    15.1323      7.332     10.633    11.8039   999.5759 0.0000e+00
      7.486      0.062     2.5366     23.437     48.654  35.817830     0.9067      6.906   236.1687 1.2365e-01    15.1473      7.342     10.648    11.8042   999.5759 0.0000e+00
      7.499      0.054     2.5382     23.453     48.649  35.816676     0.8618      6.905   236.2577 1.2367e-01    15.1363      7.351     10.662    11.8044   999.5759 0.0000e+00
      7.514      0.047     2.5390     23.460     48.648  35.816581     0.8536      6.904   235.9402 1.2367e-01    15.1301      7.369     10.688    11.8042   999.5760 0.0000e+00
      7.527      0.044     2.5370     23.441     48.649  35.816676     0.8510      6.902   235.6850 1.2367e-01    15.1383      7.385     10.711    11.8042   999.5761 0.0000e+00
      7.534      0.046     2.5337     23.411     48.651  35.817829     0.8476      6.900   236.2697 1.2371e-01    15.1695      7.390     10.718    11.8062   999.5758 0.0000e+00
      7.538      0.048     2.5321     23.396     48.667  35.830524     0.8468      6.900   237.5033 1.2371e-01    15.1792      7.390     10.718    11.8093   999.5755 0.0000e+00
      7.548      0.048     2.5311     23.388     48.682  35.843219     0.8500      6.899   237.9521 1.2372e-01    15.1581      7.398     10.731    11.8095   999.5755 0.0000e+00
      7.568      0.049     2.5300     23.378     48.683  35.844382     0.8423      6.898   237.8248 1.2374e-01    15.1433      7.421     10.763    11.8084   999.5757 0.0000e+00
      7.588      0.050     2.5301     23.378     48.685  35.844581     0.8495      6.898   237.5986 1.2373e-01    15.1307      7.444     10.798    11.8075   999.5759 0.0000e+00
      7.601      0.050     2.5323     23.399     48.687  35.845621     0.8848      6.897   237.1958 1.2373e-01    15.1369      7.457     10.816    11.8087   999.5759 0.0000e+00
      7.608      0.048     2.5350     23.424     48.699  35.856962     0.9050      6.896   237.7723 1.2373e-01    15.1529      7.460     10.820    11.8122   999.5755 0.0000e+00
      7.616      0.044     2.5366     23.441     48.692  35.854759     0.9037      6.895   239.2352 1.2368e-01    15.1280      7.466     10.829    11.8119   999.5756 0.0000e+00
      7.628      0.044     2.5373     23.450     48.638  35.818984     0.8858      6.894   239.8262 1.2365e-01    15.0981      7.480     10.849    11.8093   999.5759 0.0000e+00
      7.641      0.048     2.5368     23.447     48.616  35.805249     0.8618      6.893   239.4117 1.2364e-01    15.1191      7.494     10.870    11.8088   999.5761 0.0000e+00
      7.652      0.053     2.5380     23.457     48.633  35.815635     0.8572      6.893   238.7832 1.2366e-01    15.1524      7.503     10.883    11.8111   999.5759 0.0000e+00
      7.665      0.055     2.5415     23.486     48.643  35.817620     0.8555      6.893   238.5092 1.2371e-01    15.1409      7.514     10.899    11.8152   999.5755 0.0000e+00
      7.682      0.055     2.5429     23.496     48.665  35.829246     0.8412      6.892   239.2815 1.2377e-01    15.1106      7.532     10.925    11.8201   999.5750 0.0000e+00
      7.699      0.057     2.5427     23.493     48.669  35.829256     0.8324      6.891   240.6364 1.2378e-01    15.1136      7.551     10.952    11.8235   999.5746 0.0000e+00
      7.714      0.062     2.5427     23.492     48.655  35.817726     0.8446      6.890   241.0385 1.2373e-01    15.1450      7.567     10.974    11.8202   999.5751 0.0000e+00
      7.725      0.065     2.5416     23.481     48.655  35.816782     0.8578      6.889   240.6146 1.2366e-01    15.1621      7.576     10.988    11.8135   999.5759 0.0000e+00
      7.737      0.066     2.5389     23.455     48.657  35.817841     0.8536      6.888   240.4155 1.2362e-01    15.1236      7.583     10.999    11.8084   999.5765 0.0000e+00
      7.757      0.067     2.5341     23.411     48.675  35.830526     0.8459      6.887   240.8686 1.2359e-01    15.0734      7.605     11.031    11.8056   999.5769 0.0000e+00
      7.782      0.067     2.5282     23.357     48.694  35.843220     0.8422      6.886   241.7906 1.2357e-01    15.0793      7.635     11.075    11.8044   999.5772 0.0000e+00
      7.802      0.067     2.5233     23.311     48.697  35.844375     0.8440      6.885   242.2714 1.2363e-01    15.0966      7.653     11.100    11.8038   999.5774 0.0000e+00
      7.815      0.066     2.5226     23.304     48.699  35.844490     0.8504      6.884   242.2081 1.2374e-01    15.0857      7.663     11.114    11.8029   999.5775 0.0000e+00
      7.828      0.064     2.5245     23.320     48.701  35.844603     0.9028      6.883   241.9720 1.2378e-01    15.0779      7.677     11.134    11.8022   999.5777 0.0000e+00
      7.843      0.062     2.5242     23.318     48.703  35.845748     1.0083      6.882   241.6532 1.2373e-01    15.1010      7.690     11.155    11.8020   999.5778 0.0000e+00
      7.858      0.061     2.5238     23.314     48.721  35.858327     1.0681      6.880   241.8813 1.2370e-01    15.1359      7.704     11.175    11.8010   999.5779 0.0000e+00
      7.877      0.060     2.5233     23.309     48.737  35.869754     1.0713      6.878   242.7508 1.2369e-01    15.1388      7.725     11.204    11.7992   999.5782 0.0000e+00
      7.896      0.059     2.5209     23.286     48.719  35.856966     1.0383      6.878   243.3903 1.2362e-01    15.1368      7.746     11.234    11.7980   999.5785 0.0000e+00
      7.910      0.058     2.5167     23.247     48.683  35.830652     0.9645      6.878   243.5899 1.2364e-01    15.1443      7.759     11.253    11.7976   999.5786 0.0000e+00
      7.922      0.057     2.5112     23.197     48.650  35.805481     0.9151      6.877   243.5300 1.2377e-01    15.1318      7.768     11.267    11.7969   999.5788 0.0000e+00
      7.933      0.056     2.5057     23.147     48.651  35.806512     0.9095      6.876   243.2682 1.2380e-01    15.1162      7.780     11.283    11.7963   999.5789 0.0000e+00
      7.947      0.056     2.5011     23.104     48.701  35.843117     0.9140      6.874   243.0923 1.2370e-01    15.1525      7.792     11.301    11.7969   999.5788 0.0000e+00
      7.964      0.056     2.4967     23.063     48.734  35.867236     0.9175      6.872   243.2962 1.2365e-01    15.2428      7.809     11.326    11.7972   999.5789 0.0000e+00
      7.981      0.055     2.4914     23.014     48.702  35.844241     0.9175      6.872   243.8402 1.2368e-01    15.2901      7.829     11.355    11.7965   999.5790 0.0000e+00
      7.996      0.054     2.4872     22.975     48.667  35.818976     0.9142      6.871   244.2497 1.2373e-01    15.2986      7.842     11.373    11.7963   999.5791 0.0000e+00
      8.008      0.053     2.4857     22.961     48.662  35.815648     0.9462      6.870   244.3762 1.2376e-01    15.2467      7.854     11.390    11.7964   999.5792 0.0000e+00
      8.020      0.052     2.4854     22.959     48.647  35.803995     1.0099      6.869   244.1640 1.2378e-01    15.0894      7.865     11.407    11.7964   999.5792 0.0000e+00
      8.031      0.050     2.4858     22.963     48.648  35.805025     1.0433      6.869   243.8353 1.2380e-01    14.9699      7.874     11.421    11.7970   999.5792 0.0000e+00
      8.044      0.049     2.4860     22.965     48.680  35.828114     1.0467      6.869   244.0162 1.2380e-01    14.9152      7.888     11.440    11.7979   999.5791 0.0000e+00
      8.059      0.048     2.4864     22.967     48.683  35.829268     1.0593      6.868   244.5447 1.2380e-01    14.9529      7.904     11.464    11.7979   999.5792 0.0000e+00
      8.073      0.048     2.4895     22.995     48.671  35.818977     1.0834      6.866   245.0620 1.2380e-01    15.0982      7.918     11.484    11.7971   999.5794 0.0000e+00
      8.085      0.049     2.4946     23.042     48.688  35.830622     1.0869      6.865   245.3670 1.2378e-01    15.1646      7.929     11.500    11.7970   999.5794 0.0000e+00
      8.093      0.052     2.4977     23.071     48.705  35.843118     1.0753      6.864   244.9635 1.2373e-01    15.1331      7.937     11.512    11.7967   999.5795 0.0000e+00
      8.103      0.053     2.4977     23.070     48.705  35.843119     1.0729      6.863   244.3991 1.2372e-01    15.1104      7.943     11.520    11.7954   999.5797 0.0000e+00
      8.118      0.052     2.4946     23.041     48.689  35.830634     1.0233      6.863   244.7379 1.2376e-01    15.1197      7.958     11.541    11.7943   999.5799 0.0000e+00
      8.138      0.050     2.4901     22.999     48.674  35.819113     0.9178      6.862   245.3590 1.2377e-01    15.1473      7.982     11.577    11.7931   999.5801 0.0000e+00
      8.156      0.046     2.4853     22.955     48.690  35.830758     0.8548      6.860   245.7149 1.2380e-01    15.1492      8.003     11.607    11.7929   999.5803 0.0000e+00
      8.166      0.041     2.4780     22.888     48.708  35.844492     0.8428      6.860   246.0292 1.2384e-01    15.1423      8.011     11.618    11.7930   999.5803 0.0000e+00
      8.170      0.036     2.4679     22.795     48.725  35.858225     0.8503      6.859   245.5456 1.2380e-01    15.1619      8.011     11.619    11.7924   999.5804 0.0000e+00
      8.175      0.032     2.4603     22.725     48.740  35.869860     0.8765      6.858   244.6854 1.2374e-01    15.1567      8.015     11.625    11.7921   999.5804 0.0000e+00
      8.182      0.034     2.4558     22.683     48.724  35.858224     0.8995      6.858   244.9208 1.2372e-01    15.1449      8.024     11.638    11.7920   999.5805 0.0000e+00
      8.191      0.042     2.4527     22.655     48.706  35.844482     0.9117      6.858   245.8117 1.2369e-01    15.1509      8.032     11.650    11.7922   999.5805 0.0000e+00
      8.200      0.051     2.4533     22.661     48.687  35.830644     0.9110      6.857   246.5943 1.2372e-01    15.1300      8.040     11.661    11.7936   999.5804 0.0000e+00
      8.214      0.060     2.4559     22.685     48.671  35.817855     0.8999      6.856   246.3821 1.2376e-01    15.1222      8.053     11.680    11.7944   999.5804 0.0000e+00
      8.234      0.066     2.4562     22.687     48.670  35.816795     0.8985      6.855   245.2251 1.2372e-01    15.1554      8.074     11.710    11.7938   999.5805 0.0000e+00
      8.255      0.071     2.4542     22.668     48.672  35.817834     0.9120      6.854   244.8225 1.2370e-01    15.1700      8.097     11.744    11.7939   999.5806 0.0000e+00
      8.274      0.073     2.4544     22.670     48.689  35.830413     0.9325      6.854   245.2138 1.2369e-01    15.1355      8.115     11.770    11.7937   999.5807 0.0000e+00
      8.292      0.072     2.4575     22.698     48.706  35.841953     0.9550      6.853   245.9127 1.2368e-01    15.0986      8.131     11.793    11.7927   999.5809 0.0000e+00
      8.312      0.070     2.4580     22.703     48.691  35.830404     0.9680      6.853   246.7332 1.2368e-01    15.1167      8.151     11.822    11.7926   999.5810 0.0000e+00
      8.330      0.067     2.4537     22.663     48.675  35.817720     0.9683      6.852   246.5311 1.2367e-01    15.1578      8.170     11.849    11.7930   999.5810 0.0000e+00
      8.346      0.064     2.4484     22.614     48.672  35.815535     0.9588      6.849   245.4468 1.2365e-01    15.1701      8.184     11.870    11.7928   999.5811 0.0000e+00
      8.362      0.061     2.4454     22.585     48.657  35.803986     0.9392      6.849   244.9809 1.2358e-01    15.1337      8.199     11.892    11.7917   999.5813 0.0000e+00
      8.377      0.059     2.4443     22.575     48.658  35.805027     0.9218      6.849   245.4585 1.2349e-01    15.0787      8.216     11.916    11.7907   999.5815 0.0000e+00
      8.391      0.059     2.4430     22.563     48.690  35.828117     0.9143      6.849   246.2306 1.2354e-01    15.0947      8.229     11.936    11.7900   999.5816 0.0000e+00
      8.404      0.060     2.4396     22.532     48.691  35.829280     0.9091      6.849   246.6594 1.2363e-01    15.1308      8.240     11.952    11.7896   999.5818 0.0000e+00
      8.418      0.063     2.4369     22.507     48.677  35.819093     0.9366      6.848   246.3412 1.2362e-01    15.1219      8.254     11.971    11.7893   999.5818 0.0000e+00
      8.434      0.067     2.4374     22.512     48.695  35.831892     0.9955      6.846   245.5661 1.2360e-01    15.1175      8.270     11.995    11.7895   999.5819 0.0000e+00
      8.453      0.070     2.4390     22.527     48.729  35.857083     1.0226      6.845   245.2035 1.2357e-01    15.1110      8.289     12.022    11.7897   999.5820 0.0000e+00
      8.473      0.073     2.4405     22.541     48.746  35.869779     1.0298      6.845   245.5714 1.2356e-01    15.1088      8.310     12.052    11.7896   999.5821 0.0000e+00
      8.493      0.075     2.4430     22.564     48.731  35.858455     1.0308      6.845   246.2282 1.2364e-01    15.1238      8.329     12.081    11.7896   999.5822 0.0000e+00
      8.512      0.076     2.4468     22.599     48.716  35.847114     1.0001      6.844   246.5192 1.2374e-01    15.1279      8.347     12.106    11.7897   999.5823 0.0000e+00
      8.530      0.075     2.4494     22.622     48.734  35.859590     0.9704      6.843   246.3370 1.2376e-01    15.1587      8.364     12.130    11.7894   999.5824 0.0000e+00
      8.550      0.074     2.4486     22.614     48.765  35.882358     0.9669      6.842   246.0902 1.2367e-01    15.2012      8.384     12.158    11.7892   999.5825 0.0000e+00
      8.571      0.070     2.4458     22.588     48.746  35.868510     0.9581      6.841   246.0305 1.2357e-01    15.2162      8.406     12.193    11.7892   999.5826 0.0000e+00
      8.590      0.065     2.4451     22.583     48.679  35.819095     0.9340      6.841   246.3034 1.2359e-01    15.2742      8.425     12.220    11.7892   999.5827 0.0000e+00
      8.606      0.059     2.4456     22.587     48.643  35.792667     0.9177      6.840   246.8088 1.2369e-01    15.3454      8.439     12.241    11.7890   999.5828 0.0000e+00
      8.620      0.051     2.4429     22.562     48.656  35.802864     0.9084      6.838   247.1507 1.2371e-01    15.3567      8.454     12.262    11.7888   999.5829 0.0000e+00
      8.631      0.044     2.4395     22.531     48.673  35.815435     0.8910      6.835   247.1679 1.2369e-01    15.3448      8.466     12.277    11.7886   999.5830 0.0000e+00
      8.640      0.039     2.4380     22.517     48.676  35.817722     0.8631      6.835   247.0160 1.2370e-01    15.3331      8.473     12.289    11.7888   999.5829 0.0000e+00
      8.647      0.039     2.4366     22.503     48.693  35.830519     0.8396      6.835   246.7770 1.2368e-01    15.3463      8.481     12.300    11.7890   999.5829 0.0000e+00
      8.654      0.041     2.4352     22.490     48.711  35.843222     0.8332      6.834   246.5154 1.2365e-01    15.3727      8.487     12.309    11.7891   999.5830 0.0000e+00
      8.663      0.044     2.4367     22.505     48.712  35.844367     0.8552      6.833   246.5201 1.2370e-01    15.3240      8.494     12.320    11.7892   999.5830 0.0000e+00
      8.677      0.047     2.4395     22.531     48.712  35.844358     0.8887      6.832   247.1786 1.2375e-01    15.2160      8.508     12.340    11.7894   999.5830 0.0000e+00
      8.692      0.049     2.4405     22.541     48.710  35.843110     0.9001      6.832   248.0245 1.2373e-01    15.1487      8.525     12.365    11.7895   999.5831 0.0000e+00
      8.707      0.049     2.4420     22.554     48.691  35.829282     0.9060      6.832   248.2293 1.2372e-01    15.1336      8.539     12.385    11.7893   999.5832 0.0000e+00
      8.721      0.049     2.4447     22.579     48.657  35.804102     0.9170      6.830   247.9340 1.2372e-01    15.0981      8.553     12.405    11.7896   999.5832 0.0000e+00
      8.731      0.049     2.4468     22.598     48.641  35.792552     0.9025      6.829   247.6369 1.2371e-01    15.0805      8.563     12.420    11.7895   999.5833 0.0000e+00
      8.740      0.050     2.4468     22.599     48.674  35.816587     0.8690      6.829   248.3374 1.2370e-01    15.1177      8.570     12.430    11.7896   999.5833 0.0000e+00
      8.751      0.051     2.4452     22.584     48.706  35.840812     0.8591      6.829   249.6924 1.2374e-01    15.1220      8.581     12.444    11.7897   999.5834 0.0000e+00
      8.766      0.052     2.4437     22.570     48.693  35.831560     0.8697      6.829   249.9959 1.2372e-01    15.1318      8.596     12.467    11.7896   999.5834 0.0000e+00
      8.784      0.052     2.4417     22.551     48.693  35.831664     0.8842      6.828   249.4260 1.2365e-01    15.1379      8.615     12.495    11.7897   999.5835 0.0000e+00
      8.799      0.052     2.4377     22.515     48.708  35.842079     0.8962      6.826   248.8243 1.2365e-01    15.0979      8.630     12.516    11.7897   999.5836 0.0000e+00
      8.811      0.050     2.4352     22.491     48.692  35.830541     0.9015      6.825   248.5718 1.2366e-01    15.1067      8.640     12.531    11.7898   999.5836 0.0000e+00
      8.822      0.048     2.4353     22.492     48.677  35.819096     0.9138      6.825   249.5558 1.2368e-01    15.1462      8.652     12.548    11.7900   999.5836 0.0000e+00
      8.832      0.048     2.4355     22.494     48.694  35.830645     0.9321      6.823   251.3436 1.2368e-01    15.2157      8.663     12.564    11.7901   999.5837 0.0000e+00
      8.842      0.050     2.4363     22.501     48.712  35.843225     0.9501      6.822   251.9476 1.2363e-01    15.3241      8.671     12.576    11.7900   999.5837 0.0000e+00
      8.855      0.054     2.4383     22.519     48.714  35.844255     0.9661      6.822   251.2664 1.2364e-01    15.3749      8.681     12.591    11.7903   999.5838 0.0000e+00
      8.870      0.056     2.4412     22.545     48.714  35.843101     0.9783      6.821   250.4201 1.2371e-01    15.4040      8.697     12.614    11.7900   999.5838 0.0000e+00
      8.888      0.056     2.4447     22.577     48.697  35.829272     0.9762      6.820   250.0614 1.2378e-01    15.4138      8.716     12.641    11.7890   999.5841 0.0000e+00
      8.904      0.056     2.4461     22.590     48.664  35.803999     0.9666      6.819   251.0590 1.2380e-01    15.3633      8.733     12.666    11.7881   999.5843 0.0000e+00
      8.919      0.057     2.4451     22.580     48.649  35.791410     0.9668      6.819   252.7598 1.2372e-01    15.3502      8.748     12.687    11.7875   999.5844 0.0000e+00
      8.931      0.058     2.4437     22.566     48.667  35.803998     0.9611      6.818   253.2454 1.2367e-01    15.3856      8.759     12.704    11.7864   999.5846 0.0000e+00
      8.941      0.058     2.4394     22.527     48.702  35.829263     0.9410      6.817   252.8004 1.2365e-01    15.3977      8.766     12.714    11.7847   999.5848 0.0000e+00
      8.954      0.057     2.4313     22.452     48.721  35.842997     0.9148      6.816   252.1984 1.2363e-01    15.3663      8.777     12.731    11.7834   999.5850 0.0000e+00
      8.974      0.056     2.4221     22.367     48.721  35.843111     0.9037      6.815   252.3337 1.2362e-01    15.3341      8.801     12.766    11.7825   999.5852 0.0000e+00
      8.994      0.053     2.4130     22.282     48.704  35.830635     0.9112      6.814   253.6618 1.2363e-01    15.3358      8.823     12.796    11.7820   999.5853 0.0000e+00
      9.008      0.049     2.4055     22.213     48.688  35.819096     0.9021      6.813   254.4035 1.2363e-01    15.3533      8.834     12.813    11.7817   999.5854 0.0000e+00
      9.018      0.046     2.3995     22.158     48.704  35.830532     0.8795      6.813   254.3321 1.2362e-01    15.3818      8.844     12.828    11.7812   999.5856 0.0000e+00
      9.024      0.045     2.3941     22.108     48.719  35.841967     0.8639      6.812   253.9174 1.2365e-01    15.3525      8.850     12.836    11.7810   999.5856 0.0000e+00
      9.029      0.048     2.3920     22.088     48.703  35.830407     0.8519      6.812   253.1753 1.2369e-01    15.2943      8.851     12.838    11.7810   999.5856 0.0000e+00
      9.039      0.053     2.3925     22.093     48.686  35.817712     0.8563      6.812   253.3603 1.2369e-01    15.3001      8.860     12.852    11.7810   999.5856 0.0000e+00
      9.059      0.057     2.3919     22.088     48.683  35.815414     0.8819      6.811   254.6057 1.2366e-01    15.3571      8.883     12.883    11.7812   999.5857 0.0000e+00
      9.080      0.059     2.3899     22.069     48.666  35.802627     0.9096      6.809   255.4992 1.2364e-01    15.3943      8.906     12.918    11.7816   999.5858 0.0000e+00
      9.098      0.060     2.3900     22.069     48.648  35.790038     0.9234      6.807   255.3879 1.2365e-01    15.3562      8.923     12.942    11.7817   999.5859 0.0000e+00
      9.112      0.060     2.3937     22.103     48.648  35.790151     0.9185      6.807   254.7232 1.2365e-01    15.3232      8.936     12.961    11.7813   999.5860 0.0000e+00
      9.123      0.058     2.3972     22.136     48.667  35.803988     0.9104      6.807   254.3451 1.2370e-01    15.3217      8.946     12.976    11.7812   999.5860 0.0000e+00
      9.134      0.055     2.3995     22.157     48.703  35.830398     0.9118      6.806   254.6018 1.2376e-01    15.3388      8.954     12.988    11.7815   999.5860 0.0000e+00
      9.151      0.053     2.4007     22.168     48.737  35.855587     0.9094      6.805   255.2460 1.2376e-01    15.3662      8.972     13.012    11.7817   999.5861 0.0000e+00
      9.169      0.053     2.4009     22.170     48.736  35.854652     0.8994      6.804   255.8535 1.2371e-01    15.3585      8.994     13.045    11.7821   999.5862 0.0000e+00
      9.183      0.053     2.4026     22.186     48.688  35.819097     0.9127      6.803   256.0960 1.2371e-01    15.3439      9.008     13.065    11.7819   999.5862 0.0000e+00
      9.193      0.054     2.4052     22.210     48.671  35.806518     0.9575      6.803   256.0278 1.2371e-01    15.3530      9.016     13.076    11.7814   999.5864 0.0000e+00
      9.203      0.055     2.4048     22.206     48.702  35.829503     0.9898      6.803   255.5449 1.2371e-01    15.3705      9.023     13.088    11.7816   999.5864 0.0000e+00
      9.215      0.055     2.4009     22.171     48.721  35.843124     0.9912      6.803   254.9900 1.2368e-01    15.3917      9.035     13.104    11.7816   999.5864 0.0000e+00
      9.232      0.055     2.3988     22.151     48.722  35.844259     0.9657      6.802   255.1685 1.2364e-01    15.3807      9.053     13.130    11.7814   999.5865 0.0000e+00
      9.252      0.055     2.3994     22.157     48.720  35.843237     0.9240      6.801   255.8965 1.2370e-01    15.3347      9.073     13.161    11.7816   999.5866 0.0000e+00
      9.269      0.050     2.3983     22.147     48.702  35.830762     0.9035      6.799   256.5648 1.2376e-01    15.3277      9.091     13.186    11.7814   999.5867 0.0000e+00
      9.281      0.043     2.3982     22.146     48.688  35.820367     0.9087      6.797   256.7956 1.2374e-01    15.3622      9.102     13.202    11.7813   999.5868 0.0000e+00
      9.289      0.034     2.4011     22.173     48.721  35.844497     0.9000      6.796   256.0200 1.2371e-01    15.3251      9.110     13.213    11.7818   999.5867 0.0000e+00
      9.295      0.025     2.4020     22.181     48.753  35.868626     0.8678      6.795   255.0160 1.2367e-01    15.2069      9.116     13.221    11.7825   999.5867 0.0000e+00
      9.299      0.018     2.4007     22.170     48.739  35.858221     0.8481      6.795   255.2402 1.2372e-01    15.1456      9.119     13.227    11.7825   999.5867 0.0000e+00
      9.302      0.016     2.4016     22.178     48.722  35.845641     0.8524      6.794   255.8920 1.2380e-01    15.1407      9.121     13.230    11.7826   999.5867 0.0000e+00
      9.305      0.016     2.4038     22.198     48.719  35.843456     0.8598      6.792   256.3575 1.2379e-01    15.1481      9.125     13.235    11.7829   999.5867 0.0000e+00
      9.307      0.018     2.4052     22.211     48.702  35.831804     0.8854      6.791   256.8239 1.2374e-01    15.1691      9.127     13.238    11.7830   999.5867 0.0000e+00
      9.310      0.021     2.4075     22.233     48.702  35.831699     0.9362      6.790   256.1973 1.2368e-01    15.1657      9.128     13.239    11.7830   999.5867 0.0000e+00
      9.316      0.023     2.4099     22.255     48.716  35.842189     0.9711      6.789   254.8897 1.2364e-01    15.1402      9.135     13.249    11.7828   999.5867 0.0000e+00
      9.326      0.023     2.4099     22.255     48.702  35.831697     0.9786      6.788   254.6946 1.2366e-01    15.1221      9.146     13.265    11.7832   999.5868 0.0000e+00
      9.335      0.022     2.4101     22.257     48.702  35.831792     0.9488      6.788   255.6454 1.2370e-01    15.1111      9.156     13.279    11.7835   999.5868 0.0000e+00
      9.341      0.020     2.4119     22.274     48.718  35.843332     0.8885      6.787   256.6628 1.2372e-01    15.1049      9.162     13.288    11.7836   999.5868 0.0000e+00
      9.344      0.018     2.4114     22.269     48.719  35.844278     0.8479      6.785   255.9830 1.2369e-01    15.1132      9.164     13.291    11.7839   999.5868 0.0000e+00
      9.344      0.016     2.4087     22.244     48.717  35.843228     0.8380      6.784   254.1360 1.2367e-01    15.1459      9.164     13.291    11.7842   999.5867 0.0000e+00
      9.347      0.014     2.4072     22.231     48.700  35.830648     0.8470      6.783   253.6044 1.2369e-01    15.2053      9.164     13.293    11.7842   999.5867 0.0000e+00
      9.352      0.014     2.4064     22.223     48.685  35.819108     0.8612      6.783   254.0303 1.2372e-01    15.2734      9.170     13.300    11.7843   999.5868 0.0000e+00
      9.358      0.015     2.4066     22.225     48.701  35.830648     0.8627      6.783   254.8107 1.2372e-01    15.3134      9.179     13.313    11.7844   999.5868 0.0000e+00
      9.362      0.016     2.4073     22.231     48.718  35.843237     0.8566      6.782   255.8989 1.2372e-01    15.3619      9.183     13.319    11.7845   999.5868 0.0000e+00
      9.364      0.017     2.4056     22.215     48.718  35.844372     0.8826      6.780   255.4859 1.2369e-01    15.7939      9.182     13.318    11.7844   999.5868 0.0000e+00
      9.367      0.017     2.4029     22.190     48.717  35.844372     0.9436      6.779   253.6890 1.2368e-01    16.5396      9.184     13.320    11.7840   999.5868 0.0000e+00
      9.372      0.019     2.4020     22.183     48.715  35.843237     0.9790      6.779   252.9300 1.2372e-01    16.9059      9.190     13.330    11.7837   999.5869 0.0000e+00
      9.378      0.022     2.4018     22.181     48.698  35.830648     0.9806      6.779   253.5359 1.2375e-01    16.8806      9.197     13.339    11.7838   999.5869 0.0000e+00
      9.383      0.026     2.4015     22.177     48.683  35.819108     0.9796      6.778   254.4763 1.2373e-01    16.4959      9.201     13.345    11.7849   999.5868 0.0000e+00
      9.389      0.028     2.4017     22.179     48.701  35.830648     0.9849      6.776   255.0079 1.2371e-01    15.7929      9.207     13.354    11.7860   999.5867 0.0000e+00
      9.398      0.028     2.3999     22.161     48.719  35.843237     0.9928      6.775   254.5433 1.2374e-01    15.3945      9.216     13.367    11.7865   999.5867 0.0000e+00
      9.407      0.027     2.3978     22.141     48.722  35.844372     0.9880      6.775   253.4181 1.2379e-01    15.3489      9.225     13.379    11.7866   999.5868 0.0000e+00
      9.414      0.026     2.3988     22.151     48.722  35.844372     0.9707      6.774   252.9323 1.2378e-01    15.3394      9.232     13.389    11.7853   999.5869 0.0000e+00
      9.421      0.024     2.3992     22.154     48.720  35.843236     0.9394      6.773   253.3158 1.2377e-01    15.2806      9.239     13.400    11.7836   999.5871 0.0000e+00
      9.427      0.023     2.3978     22.142     48.702  35.830638     0.8958      6.772   253.6668 1.2381e-01    15.1952      9.246     13.410    11.7825   999.5873 0.0000e+00
      9.430      0.024     2.3970     22.135     48.686  35.818994     0.8683      6.771   253.7349 1.2373e-01    15.1591      9.249     13.415    11.7817   999.5874 0.0000e+00
      9.433      0.027     2.3955     22.121     48.701  35.829389     0.8579      6.771   253.4507 1.2362e-01    15.1711      9.248     13.414    11.7818   999.5874 0.0000e+00
      9.439      0.032     2.3948     22.114     48.701  35.829389     0.8746      6.772   252.8121 1.2363e-01    15.2095      9.254     13.422    11.7824   999.5874 0.0000e+00
      9.449      0.041     2.3968     22.133     48.688  35.818993     0.9316      6.772   252.3802 1.2363e-01    15.2630      9.266     13.440    11.7831   999.5873 0.0000e+00
      9.461      0.051     2.3983     22.146     48.704  35.830629     0.9744      6.772   252.5306 1.2361e-01    15.3263      9.278     13.458    11.7833   999.5873 0.0000e+00
      9.473      0.058     2.3980     22.143     48.721  35.843124     0.9764      6.772   252.9959 1.2369e-01    15.3516      9.287     13.471    11.7828   999.5875 0.0000e+00
      9.491      0.061     2.3978     22.141     48.721  35.843124     0.9472      6.771   253.2744 1.2377e-01    15.3392      9.306     13.497    11.7823   999.5876 0.0000e+00
      9.513      0.060     2.3967     22.131     48.704  35.830639     0.8898      6.769   253.0583 1.2372e-01    15.3405      9.331     13.533    11.7820   999.5877 0.0000e+00
      9.533      0.055     2.3949     22.115     48.689  35.819109     0.8543      6.768   252.6203 1.2366e-01    15.3346      9.351     13.562    11.7815   999.5879 0.0000e+00
      9.546      0.047     2.3929     22.096     48.705  35.830660     0.8643      6.766   252.4519 1.2363e-01    15.3346      9.363     13.579    11.7812   999.5880 0.0000e+00
      9.556      0.036     2.3893     22.062     48.722  35.843354     0.8725      6.765   252.4859 1.2362e-01    15.4051      9.371     13.592    11.7810   999.5881 0.0000e+00
      9.562      0.026     2.3844     22.017     48.724  35.845644     0.8587      6.765   252.6008 1.2366e-01    15.4987      9.378     13.602    11.7807   999.5881 0.0000e+00
      9.566      0.017     2.3804     21.982     48.738  35.858358     0.8450      6.763   253.3244 1.2371e-01    15.5158      9.381     13.606    11.7806   999.5881 0.0000e+00
      9.568      0.011     2.3786     21.967     48.749  35.870129     0.8455      6.762   254.1802 1.2367e-01    15.5135      9.383     13.608    11.7806   999.5882 0.0000e+00
      9.570      0.007     2.3788     21.970     48.734  35.861029     0.8546      6.761   254.0867 1.2367e-01    15.5035      9.385     13.611    11.7807   999.5882 0.0000e+00
      9.570      0.006     2.3805     21.986     48.752  35.875272     0.8605      6.759   253.3973 1.2375e-01    15.4283      9.385     13.612    11.7808   999.5882 0.0000e+00
      9.570      0.006     2.3820     22.001     48.977  36.042340     0.8559      6.758   252.7286 1.2376e-01    15.3578      9.385     13.612    11.7835   999.5879 0.0000e+00
      9.571      0.007     2.3827     22.009     49.662  36.548103     0.8509      6.757   253.4006 1.2376e-01    15.3395      9.386     13.613    11.7886   999.5873 0.0000e+00
      9.574      0.008     2.3841     22.025     50.411  37.102849     0.8520      6.755   255.2414 1.2377e-01    15.3376      9.388     13.617    11.7905   999.5871 0.0000e+00
      9.577      0.009     2.3866     22.050     50.487  37.163911     0.8515      6.754   255.8854 1.2375e-01    15.3353      9.391     13.621    11.7907   999.5871 0.0000e+00
      9.580      0.009     2.3879     22.062     50.132  36.905576     0.8535      6.754   255.0778 1.2376e-01    15.3441      9.395     13.626    11.7917   999.5870 0.0000e+00
      9.583      0.008     2.3868     22.052     49.867  36.708836     0.8502      6.753   253.9945 1.2378e-01    15.3459      9.398     13.630    11.7926   999.5872 0.0000e+00
      9.585      0.006     2.3825     22.011     49.757  36.625936     0.8462      6.752   253.5423 1.2383e-01    15.3572      9.400     13.633    11.7969   999.5871 0.0000e+00
      9.586      0.004     2.3733     21.925     49.810  36.664945     0.8671      6.751   254.6870 1.2382e-01    15.3502      9.401     13.635    11.8045   999.5863 0.0000e+00
      9.586      0.003     2.3619     21.820     50.079  36.863113     0.9026      6.750   256.4776 1.2373e-01    15.2603      9.401     13.635    11.8071   999.5857 0.0000e+00
      9.586      0.003     2.3519     21.729     50.769  37.371595     0.9206      6.749   256.6945 1.2368e-01    15.1555      9.401     13.635    11.8040   999.5861 0.0000e+00
      9.586      0.003     2.3438     21.655     51.864  38.179122     0.9113      6.748   256.0181 1.2363e-01    15.0991      9.400     13.634    11.8016   999.5863 0.0000e+00
      9.587      0.004     2.3372     21.594     52.816  38.882440     0.8935      6.747   255.3548 1.2361e-01    15.1680      9.401     13.636    11.8015   999.5863 0.0000e+00
      9.588      0.005     2.3322     21.549     53.258  39.209910     0.8797      6.745   255.6438 1.2369e-01    15.3325      9.403     13.638    11.8016   999.5863 0.0000e+00
      9.590      0.005     2.3303     21.532     53.095  39.091410     0.8653      6.743   257.3618 1.2370e-01    15.3850      9.405     13.641    11.8016   999.5866 0.0000e+00
      9.592      0.005     2.3283     21.514     52.330  38.528848     0.8578      6.743   258.2304 1.2361e-01    15.3435      9.407     13.643    11.8039   999.5868 0.0000e+00
      9.594      0.004     2.3226     21.463     51.428  37.867423     0.9281      6.742   258.0584 1.2355e-01    15.3546      9.408     13.645    11.8072   999.5868 0.0000e+00
      9.595      0.003     2.3107     21.355     50.929  37.505678     1.0650      6.742   257.3467 1.2360e-01    15.3890      9.409     13.647    11.8086   999.5868 0.0000e+00
      9.595      0.002     2.2936     21.201     50.764  37.392450     1.1429      6.741   256.1643 1.2368e-01    15.3984      9.409     13.647    11.8096   999.5867 0.0000e+00
      9.595      0.001     2.2767     21.051     50.569  37.260139     1.1596      6.740   256.4962 1.2370e-01    15.4029      9.410     13.648    11.8104   999.5862 0.0000e+00
      9.595      0.001     2.2607     20.911     50.519  37.238935     1.1367      6.739   258.2618 1.2372e-01    15.3778      9.410     13.648    11.8124   999.5856 0.0000e+00
      9.596      0.001     2.2467     20.786     51.312  37.834340     1.0745      6.738   259.1861 1.2375e-01    15.3245      9.410     13.648    11.8184   999.5848 0.0000e+00
      9.596      0.002     2.2403     20.728     53.749  39.634739     1.0410      6.736   258.8096 1.2376e-01    15.3157      9.410     13.648    11.8248   999.5841 0.0000e+00
      9.596      0.002     2.2439     20.761     59.448  43.834926     1.0426      6.736   257.9253 1.2374e-01    15.3689      9.411     13.649    11.8363   999.5827 0.0000e+00
      9.597      0.003     2.2540     20.854     69.896  51.536749     1.0334      6.735   257.7011 1.2372e-01    15.4111      9.411     13.650    11.8555   999.5804 0.0000e+00
      9.597      0.003     2.2675     20.981     78.225  57.679672     0.9729      6.734   258.5084 1.2374e-01    15.5975      9.412     13.651    11.8676   999.5792 0.0000e+00
      9.598      0.003     2.2820     21.116     73.760  54.391208     0.8842      6.734   259.2539 1.2372e-01    16.0156      9.412     13.652    11.8685   999.5799 0.0000e+00
      9.599      0.003     2.2893     21.182     61.971  45.698141     0.8443      6.733   259.4010 1.2368e-01    16.2718      9.414     13.654    11.8655   999.5816 0.0000e+00
      9.601      0.003     2.2770     21.067     54.990  40.547641     0.8467      6.732   258.9969 1.2371e-01    16.2374      9.415     13.656    11.8623   999.5862 0.0000e+00
      9.602      0.002     2.2349     20.676     52.789  38.922571     0.8609      6.730   258.5838 1.2376e-01    15.9270      9.416     13.657    11.8642   999.5917 0.0000e+00
      9.602      0.001     2.1628     20.008     51.691  38.111746     0.8856      6.730   258.8800 1.2376e-01    15.4360      9.416     13.657    11.8694   999.5882 0.0000e+00
      9.602      0.001     2.0733     19.180     51.342  37.853925     0.9034      6.729   259.4807 1.2370e-01    15.1840      9.416     13.657    11.8685   999.5816 0.0000e+00
      9.602      0.000     1.9885     18.396     51.836  38.217482     0.9104      6.729   259.9099 1.2363e-01    15.1740      9.416     13.657    11.8653   999.5806 0.0000e+00
      9.601      0.000     1.9296     17.852     53.436  39.397002     0.9015      6.728   260.0256 1.2363e-01    15.2495      9.416     13.656    11.8629   999.5805 0.0000e+00
      9.601      0.001     1.9085     17.657     56.133  41.386596     0.8736      6.727   259.1589 1.2364e-01    15.4085      9.416     13.656    11.8614   999.5802 0.0000e+00
      9.602      0.001     1.9263     17.821     57.854  42.655790     0.8507      6.727   258.0346 1.2361e-01    15.5229      9.416     13.657    11.8619   999.5801 0.0000e+00
      9.602      0.002     1.9735     18.258     57.025  42.044840     0.8414      6.726   258.2194 1.2359e-01    15.5514      9.416     13.657    11.8608   999.5804 0.0000e+00
      9.603      0.002     2.0026     18.527     56.017  41.301157     0.8384      6.726   258.7257 1.2358e-01    15.5564      9.417     13.659    11.8608   999.5807 0.0000e+00
      9.603 -9.990e-29 -9.990e-29 -9.990e-29 -9.990e-29 -9.990e-29 -9.990e-29 -9.990e-29 -9.990e-29 1.2358e-01 -9.990e-29      9.418     13.659    11.8625   999.5818 0.0000e+00
      9.604 -9.990e-29 -9.990e-29 -9.990e-29 -9.990e-29 -9.990e-29 -9.990e-29 -9.990e-29 -9.990e-29 1.2365e-01 -9.990e-29      9.418     13.660    11.8627   999.5828 0.0000e+00
      9.604 -9.990e-29 -9.990e-29 -9.990e-29 -9.990e-29 -9.990e-29 -9.990e-29 -9.990e-29 -9.990e-29 1.2368e-01 -9.990e-29      9.419     13.661    11.8623   999.5820 0.0000e+00
      9.604 -9.990e-29 -9.990e-29 -9.990e-29 -9.990e-29 -9.990e-29 -9.990e-29 -9.990e-29 -9.990e-29 1.2366e-01 -9.990e-29      9.419     13.661    11.8619   999.5813 0.0000e+00
