* Sea-Bird SBE19plus  Data File:
* FileName = C:\R\Reservoirs\Data\DataNotYetUploadedToEDI\Raw_CTD\RawDownloads\081424_ccr50_S8188_0003.hex
* Software version 2.8.0.119
* Temperature SN = 8188
* Conductivity SN = 8188
* System UpLoad Time = Aug 16 2024 10:37:10
* <ApplicationData>
* <Seaterm232>
* <SoftwareVersion>2.8.0.119</SoftwareVersion>
* <BuildDate>07-Nov-2018</BuildDate>
* </Seaterm232>
* </ApplicationData>
* <InstrumentState>
* <HardwareData DeviceType='SBE19plus' SerialNumber='01908188'>
*
*    <Manufacturer>Sea-Bird Electronics, Inc.</Manufacturer>
*
*    <FirmwareVersion>3.1.8</FirmwareVersion>
*
*    <FirmwareDate>Mar  9 2016 16:22:29</FirmwareDate>
*
*    <CommandSetVersion>1.4</CommandSetVersion>
*
*    <PCBAssembly PCBSerialNum='260079' AssemblyNum='41054K'/>
*
*    <PCBAssembly PCBSerialNum='260083' AssemblyNum='41059E'/>
*
*    <PCBAssembly PCBSerialNum='260085' AssemblyNum='41606B'/>
*
*    <PCBAssembly PCBSerialNum='260081' AssemblyNum='41967C'/>
*
*    <MfgDate>30 Mar 2022</MfgDate>
*
*    <InternalSensors>
*
*       <Sensor id='Main Temperature'>
*
*          <type>temperature0</type>
*
*          <SerialNumber>01908188</SerialNumber>
*
*       </Sensor>
*
*       <Sensor id='Main Conductivity'>
*
*          <type>conductivity-0</type>
*
*          <SerialNumber>01908188</SerialNumber>
*
*       </Sensor>
*
*       <Sensor id='Main Pressure'>
*
*          <type>strain-0</type>
*
*          <SerialNumber>12220741</SerialNumber>
*
*       </Sensor>
*
*    </InternalSensors>
*
*    <ExternalSensors>
*
*       <Sensor id='volt 0'>
*
*          <type>CHL</type>
*
*          <SerialNumber>FLNTURT-7096</SerialNumber>
*
*       </Sensor>
*
*       <Sensor id='volt 1'>
*
*          <type>NTU</type>
*
*          <SerialNumber>FLNTURT-7096</SerialNumber>
*
*       </Sensor>
*
*       <Sensor id='volt 2'>
*
*          <type>OXY</type>
*
*          <SerialNumber>43-4269</SerialNumber>
*
*       </Sensor>
*
*       <Sensor id='volt 3'>
*
*          <type>not assigned</type>
*
*          <SerialNumber>not assigned</SerialNumber>
*
*       </Sensor>
*
*       <Sensor id='volt 4'>
*
*          <type>PAR</type>
*
*          <SerialNumber>PARLOGICSW-2209</SerialNumber>
*
*       </Sensor>
*
*       <Sensor id='volt 5'>
*
*          <type>not assigned</type>
*
*          <SerialNumber>not assigned</SerialNumber>
*
*       </Sensor>
*
*       <Sensor id='serial'>
*
*          <type>WETLABS</type>
*
*          <SerialNumber>FL3-7350</SerialNumber>
*
*       </Sensor>
*
*    </ExternalSensors>
*
* </HardwareData>
* <StatusData DeviceType='SBE19plus' SerialNumber='01908188'>
*
*    <DateTime>2024-08-16T10:35:18</DateTime>
*
*    <LoggingState>not logging</LoggingState>
*
*    <EventSummary numEvents='0'/>
*
*    <Power>
*
*       <vMain>12.4</vMain>
*
*       <vLith>8.6</vLith>
*
*       <iMain>61.7</iMain>
*
*       <iPump>49.8</iPump>
*
*       <iExt01>21.9</iExt01>
*
*       <iExt2345>21.1</iExt2345>
*
*       <iSerial>55.5</iSerial>
*
*    </Power>
*
*    <MemorySummary>
*
*       <Bytes>279875</Bytes>
*
*       <Samples>11195</Samples>
*
*       <SamplesFree>2620730</SamplesFree>
*
*       <SampleLength>25</SampleLength>
*
*       <Profiles>7</Profiles>
*
*    </MemorySummary>
*
* </StatusData>
* <ConfigurationData DeviceType='SBE19plus' SerialNumber='01908188'>
*
*    <ProfileMode>
*
*       <ScansToAverage>1</ScansToAverage>
*
*       <MinimumCondFreq>2</MinimumCondFreq>
*
*       <PumpDelay>90</PumpDelay>
*
*       <AutoRun>no</AutoRun>
*
*       <IgnoreSwitch>no</IgnoreSwitch>
*
*    </ProfileMode>
*
*    <Battery>
*
*       <Type>alkaline</Type>
*
*       <CutOff>7.5</CutOff>
*
*    </Battery>
*
*    <DataChannels>
*
*       <ExtVolt0>yes</ExtVolt0>
*
*       <ExtVolt1>yes</ExtVolt1>
*
*       <ExtVolt2>yes</ExtVolt2>
*
*       <ExtVolt3>no</ExtVolt3>
*
*       <ExtVolt4>yes</ExtVolt4>
*
*       <ExtVolt5>no</ExtVolt5>
*
*       <SBE38>no</SBE38>
*
*       <WETLABS>yes</WETLABS>
*
*       <OPTODE>no</OPTODE>
*
*       <SBE63>no</SBE63>
*
*       <SeaFET>no</SeaFET>
*
*       <GTD>no</GTD>
*
*    </DataChannels>
*
*    <EchoCharacters>yes</EchoCharacters>
*
*    <OutputExecutedTag>yes</OutputExecutedTag>
*
*    <OutputFormat>raw HEX</OutputFormat>
*
* </ConfigurationData>
* <CalibrationCoefficients DeviceType='SBE19plus' SerialNumber='01908188'>
*
*    <Calibration format='TEMP1' id='Main Temperature'>
*
*       <SerialNum>01908188</SerialNum>
*
*       <CalDate>07-May-24</CalDate>
*
*       <TA0>1.249325e-03</TA0>
*
*       <TA1>2.751683e-04</TA1>
*
*       <TA2>-1.314205e-06</TA2>
*
*       <TA3>1.914222e-07</TA3>
*
*       <TOFFSET>0.000000e+00</TOFFSET>
*
*    </Calibration>
*
*    <Calibration format='WBCOND0' id='Main Conductivity'>
*
*       <SerialNum>01908188</SerialNum>
*
*       <CalDate>07-May-24</CalDate>
*
*       <G>-1.014855e+00</G>
*
*       <H>1.444624e-01</H>
*
*       <I>-3.430060e-04</I>
*
*       <J>4.842261e-05</J>
*
*       <CPCOR>-9.570000e-08</CPCOR>
*
*       <CTCOR>3.250000e-06</CTCOR>
*
*       <CSLOPE>1.000000e+00</CSLOPE>
*
*    </Calibration>
*
*    <Calibration format='STRAIN0' id='Main Pressure'>
*
*       <SerialNum>12220741</SerialNum>
*
*       <CalDate>03-Apr-24</CalDate>
*
*       <PA0>7.209200e-02</PA0>
*
*       <PA1>4.836684e-04</PA1>
*
*       <PA2>-3.501227e-12</PA2>
*
*       <PTCA0>5.244614e+05</PTCA0>
*
*       <PTCA1>2.020364e+01</PTCA1>
*
*       <PTCA2>-6.074616e-01</PTCA2>
*
*       <PTCB0>2.522087e+01</PTCB0>
*
*       <PTCB1>5.750000e-04</PTCB1>
*
*       <PTCB2>0.000000e+00</PTCB2>
*
*       <PTEMPA0>-5.770713e+01</PTEMPA0>
*
*       <PTEMPA1>5.343973e+01</PTEMPA1>
*
*       <PTEMPA2>-5.775530e-01</PTEMPA2>
*
*       <POFFSET>7.020000e-01</POFFSET>
*
*       <PRANGE>1.600000e+02</PRANGE>
*
*    </Calibration>
*
*    <Calibration format='VOLT0' id='Volt 0'>
*
*       <OFFSET>-4.657200e-02</OFFSET>
*
*       <SLOPE>1.248989e+00</SLOPE>
*
*    </Calibration>
*
*    <Calibration format='VOLT0' id='Volt 1'>
*
*       <OFFSET>-4.600800e-02</OFFSET>
*
*       <SLOPE>1.249849e+00</SLOPE>
*
*    </Calibration>
*
*    <Calibration format='VOLT0' id='Volt 2'>
*
*       <OFFSET>-4.668000e-02</OFFSET>
*
*       <SLOPE>1.250379e+00</SLOPE>
*
*    </Calibration>
*
*    <Calibration format='VOLT0' id='Volt 3'>
*
*       <OFFSET>-4.643200e-02</OFFSET>
*
*       <SLOPE>1.251002e+00</SLOPE>
*
*    </Calibration>
*
*    <Calibration format='VOLT0' id='Volt 4'>
*
*       <OFFSET>-4.606100e-02</OFFSET>
*
*       <SLOPE>1.249962e+00</SLOPE>
*
*    </Calibration>
*
*    <Calibration format='VOLT0' id='Volt 5'>
*
*       <OFFSET>-4.642700e-02</OFFSET>
*
*       <SLOPE>1.248530e+00</SLOPE>
*
*    </Calibration>
*
*    <Calibration format='FREQ0' id='external frequency channel'>
*
*       <EXTFREQSF>1.000018e+00</EXTFREQSF>
*
*    </Calibration>
*
* </CalibrationCoefficients>
* <EventCounters DeviceType='SBE19plus' SerialNumber='01908188'>
*
*    <EventSummary numEvents='0'/>
*
* </EventCounters></InstrumentState>
* <Headers>
*
* cast   3 14 Aug 2024 10:26:35 samples 5538 to 6498, avg = 1, stop = mag switch
*
# nquan = 13
# nvalues = 961                         
# units = specified
# name 0 = depFM: Depth [fresh water, m]
# name 1 = dz/dtM: Descent Rate [m/s]
# name 2 = sbeox0Mg/L: Oxygen, SBE 43 [mg/l]
# name 3 = sbeox0PS: Oxygen, SBE 43 [% saturation]
# name 4 = specc: Specific Conductance [uS/cm]
# name 5 = c0uS/cm: Conductivity [uS/cm]
# name 6 = flECO-AFL: Fluorescence, WET Labs ECO-AFL/FL [mg/m^3]
# name 7 = par/sat/log: PAR/Logarithmic, Satlantic
# name 8 = turbWETntu0: Turbidity, WET Labs ECO [NTU]
# name 9 = prdM: Pressure, Strain Gauge [db]
# name 10 = prdE: Pressure, Strain Gauge [psi]
# name 11 = tv290C: Temperature [ITS-90, deg C]
# name 12 = flag:  0.000e+00
# span 0 =     -0.430,      3.870       
# span 1 =     -0.299,      0.166       
# span 2 =     4.2343,     9.7199       
# span 3 =     52.750,    120.677       
# span 4 =  -1166.641,    116.969       
# span 5 = -1.208e+03, 121.409337       
# span 6 =    -1.1605,   238.5045       
# span 7 = 1.3130e+02, 2.3455e+03       
# span 8 =    -6.6077,    24.8990       
# span 9 =     -0.424,      3.795       
# span 10 =     -0.614,      5.505      
# span 11 =    24.8253,    26.8943      
# span 12 = 0.0000e+00, 0.0000e+00      
# interval = seconds: 0.25
# start_time = Aug 14 2024 10:26:35 [Instrument's time stamp, header]
# bad_flag = -9.990e-29
# <Sensors count="10" >
#   <sensor Channel="1" >
#     <!-- Count, Temperature -->
#     <TemperatureSensor SensorID="58" >
#       <SerialNumber>8188</SerialNumber>
#       <CalibrationDate>07-May-24</CalibrationDate>
#       <A0>1.24932504e-003</A0>
#       <A1>2.75168293e-004</A1>
#       <A2>-1.31420465e-006</A2>
#       <A3>1.91422179e-007</A3>
#       <Slope>1.00000000</Slope>
#       <Offset>0.0000</Offset>
#     </TemperatureSensor>
#   </sensor>
#   <sensor Channel="2" >
#     <!-- Frequency 0, Conductivity -->
#     <ConductivitySensor SensorID="3" >
#       <SerialNumber>8188</SerialNumber>
#       <CalibrationDate>07-May-24</CalibrationDate>
#       <UseG_J>1</UseG_J>
#       <!-- Cell const and series R are applicable only for wide range sensors. -->
#       <SeriesR>0.0000</SeriesR>
#       <CellConst>2000.0000</CellConst>
#       <ConductivityType>0</ConductivityType>
#       <Coefficients equation="0" >
#         <A>0.00000000e+000</A>
#         <B>0.00000000e+000</B>
#         <C>0.00000000e+000</C>
#         <D>0.00000000e+000</D>
#         <M>0.0</M>
#         <CPcor>-9.57000000e-008</CPcor>
#       </Coefficients>
#       <Coefficients equation="1" >
#         <G>-1.01485473e+000</G>
#         <H>1.44462400e-001</H>
#         <I>-3.43006030e-004</I>
#         <J>4.84226116e-005</J>
#         <CPcor>-9.57000000e-008</CPcor>
#         <CTcor>3.2500e-006</CTcor>
#         <!-- WBOTC not applicable unless ConductivityType = 1. -->
#         <WBOTC>0.00000000e+000</WBOTC>
#       </Coefficients>
#       <Slope>1.00000000</Slope>
#       <Offset>0.00000</Offset>
#     </ConductivitySensor>
#   </sensor>
#   <sensor Channel="3" >
#     <!-- Count, Pressure, Strain Gauge -->
#     <PressureSensor SensorID="46" >
#       <SerialNumber>8188</SerialNumber>
#       <CalibrationDate>03-Apr-24</CalibrationDate>
#       <PA0>7.20920045e-002</PA0>
#       <PA1>4.83668449e-004</PA1>
#       <PA2>-3.50122678e-012</PA2>
#       <PTEMPA0>-5.77071299e+001</PTEMPA0>
#       <PTEMPA1>5.34397285e+001</PTEMPA1>
#       <PTEMPA2>-5.77553003e-001</PTEMPA2>
#       <PTCA0>5.24461366e+005</PTCA0>
#       <PTCA1>2.02036405e+001</PTCA1>
#       <PTCA2>-6.07461634e-001</PTCA2>
#       <PTCB0>2.52208750e+001</PTCB0>
#       <PTCB1>5.75000000e-004</PTCB1>
#       <PTCB2>0.00000000e+000</PTCB2>
#       <Offset>0.000000</Offset>
#     </PressureSensor>
#   </sensor>
#   <sensor Channel="4" >
#     <!-- A/D voltage 0, Fluorometer, WET Labs ECO-AFL/FL -->
#     <FluoroWetlabECO_AFL_FL_Sensor SensorID="20" >
#       <SerialNumber>FLNTURT-7096</SerialNumber>
#       <CalibrationDate>21-Mar-2024</CalibrationDate>
#       <ScaleFactor>5.00000000e+001</ScaleFactor>
#       <!-- Dark output -->
#       <Vblank>0.0710</Vblank>
#     </FluoroWetlabECO_AFL_FL_Sensor>
#   </sensor>
#   <sensor Channel="5" >
#     <!-- A/D voltage 1, Turbidity Meter, WET Labs, ECO-NTU -->
#     <TurbidityMeter SensorID="67" >
#       <SerialNumber>FLNTURT-7096</SerialNumber>
#       <CalibrationDate>21-Mar-2024</CalibrationDate>
#       <ScaleFactor>198.000000</ScaleFactor>
#       <!-- Dark output -->
#       <DarkVoltage>0.070000</DarkVoltage>
#     </TurbidityMeter>
#   </sensor>
#   <sensor Channel="6" >
#     <!-- A/D voltage 2, Oxygen, SBE 43 -->
#     <OxygenSensor SensorID="38" >
#       <SerialNumber>4269</SerialNumber>
#       <CalibrationDate>08-May-24</CalibrationDate>
#       <Use2007Equation>1</Use2007Equation>
#       <CalibrationCoefficients equation="0" >
#         <!-- Coefficients for Owens-Millard equation. -->
#         <Boc>0.0000</Boc>
#         <Soc>0.0000e+000</Soc>
#         <offset>0.0000</offset>
#         <Pcor>0.00e+000</Pcor>
#         <Tcor>0.0000</Tcor>
#         <Tau>0.0</Tau>
#       </CalibrationCoefficients>
#       <CalibrationCoefficients equation="1" >
#         <!-- Coefficients for Sea-Bird equation - SBE calibration in 2007 and later. -->
#         <Soc>4.3983e-001</Soc>
#         <offset>-0.4978</offset>
#         <A>-4.5504e-003</A>
#         <B> 2.4929e-004</B>
#         <C>-4.1306e-006</C>
#         <D0> 2.5826e+000</D0>
#         <D1> 1.92634e-004</D1>
#         <D2>-4.64803e-002</D2>
#         <E> 3.6000e-002</E>
#         <Tau20> 1.9700</Tau20>
#         <H1>-3.3000e-002</H1>
#         <H2> 5.0000e+003</H2>
#         <H3> 1.4500e+003</H3>
#       </CalibrationCoefficients>
#     </OxygenSensor>
#   </sensor>
#   <sensor Channel="7" >
#     <!-- A/D voltage 3, PAR/Logarithmic, Satlantic -->
#     <PARLog_SatlanticSensor SensorID="76" >
#       <SerialNumber>2209</SerialNumber>
#       <CalibrationDate>14-Jan-2022</CalibrationDate>
#       <a0>9.8861e-001</a0>
#       <a1>8.0845e-001</a1>
#       <Im>1.3589e+000</Im>
#       <Multiplier>1.0000e+000</Multiplier>
#     </PARLog_SatlanticSensor>
#   </sensor>
#   <sensor Channel="8" >
#     <!-- Serial RS-232, Fluorometer, WET Labs ECO-AFL/FL, 2 -->
#     <FluoroWetlabECO_AFL_FL_Sensor SensorID="20" >
#       <SerialNumber>FL3-7350</SerialNumber>
#       <CalibrationDate>10-Mar-2022</CalibrationDate>
#       <ScaleFactor>4.26000000e-002</ScaleFactor>
#       <!-- Dark output -->
#       <Vblank>50.0000</Vblank>
#     </FluoroWetlabECO_AFL_FL_Sensor>
#   </sensor>
#   <sensor Channel="9" >
#     <!-- Serial RS-232, Fluorometer, WET Labs ECO-AFL/FL, 3 -->
#     <FluoroWetlabECO_AFL_FL_Sensor SensorID="20" >
#       <SerialNumber>FL3-7350</SerialNumber>
#       <CalibrationDate>10-Mar-2022</CalibrationDate>
#       <ScaleFactor>4.23000000e-002</ScaleFactor>
#       <!-- Dark output -->
#       <Vblank>48.0000</Vblank>
#     </FluoroWetlabECO_AFL_FL_Sensor>
#   </sensor>
#   <sensor Channel="10" >
#     <!-- Serial RS-232, Fluorometer, WET Labs ECO CDOM -->
#     <FluoroWetlabCDOM_Sensor SensorID="19" >
#       <SerialNumber>FL3-7350</SerialNumber>
#       <CalibrationDate>10-Mar-2022</CalibrationDate>
#       <ScaleFactor>0.090</ScaleFactor>
#       <!-- Dark output -->
#       <Vblank>50.000</Vblank>
#     </FluoroWetlabCDOM_Sensor>
#   </sensor>
# </Sensors>
# datcnv_date = Aug 16 2024 10:56:14, 7.26.7.129 [datcnv_vars = 12]
# datcnv_in = C:\R\Reservoirs\Data\DataNotYetUploadedToEDI\Raw_CTD\RawDownloads\081424_ccr90_S8188003.hex C:\R\Reservoirs\Data\DataNotYetUploadedToEDI\Raw_CTD\RawDownloads\SBE19plusV2_8188_start20240601.xmlcon
# datcnv_skipover = 0
# datcnv_ox_hysteresis_correction = yes
# datcnv_ox_tau_correction = yes
# filter_date = Aug 16 2024 10:58:05, 7.26.7.129
# filter_in = C:\R\Reservoirs\Data\DataNotYetUploadedToEDI\Raw_CTD\RawDownloads\081424_ccr90_S8188003.cnv
# filter_low_pass_tc_A = 0.030
# filter_low_pass_tc_B = 0.150
# filter_low_pass_A_vars = sbeox0Mg/L prdM prdE tv290C
# filter_low_pass_B_vars = depFM dz/dtM sbeox0PS specc c0uS/cm flECO-AFL par/sat/log turbWETntu0
# alignctd_date = Aug 16 2024 10:59:29, 7.26.7.129
# alignctd_in = C:\R\Reservoirs\Data\DataNotYetUploadedToEDI\Raw_CTD\RawDownloads\081424_ccr90_S8188003.cnv
# alignctd_adv = dz/dtM 1.000, sbeox0PS 1.000, specc 1.000, c0uS/cm 1.000, flECO-AFL 1.000, turbWETntu0 1.000                                                                                                                        
# file_type = ascii
*END*
     -0.429      0.024     8.5385    103.017     50.385  50.793836   238.4777 1.0338e+03     4.3995     -0.422     -0.612    24.8310 0.0000e+00
     -0.429      0.049     8.5356    103.012     81.598  82.827427   238.5045 1.1584e+03     4.5323     -0.421     -0.611    24.8353 0.0000e+00
     -0.424      0.078     8.5388    103.011    105.407 107.661221   178.2460 1.3140e+03     3.4990     -0.423     -0.613    24.8253 0.0000e+00
     -0.402      0.108     8.5382    103.016    115.627 118.623428    66.8955 1.4747e+03     1.5881     -0.405     -0.588    24.8393 0.0000e+00
     -0.358      0.136     8.4862    103.041    116.362 119.796013     6.1285 1.6031e+03     0.5173     -0.350     -0.508    25.1583 0.0000e+00
     -0.309      0.157     8.4041    103.112    116.264 119.998309     0.6010 1.6948e+03     0.4059     -0.300     -0.435    25.6822 0.0000e+00
     -0.264      0.165     8.3454    103.279    116.053 119.978768     0.1589 1.7422e+03     0.5502     -0.260     -0.377    26.0625 0.0000e+00
     -0.219      0.156     8.3080    103.560    115.936 119.969197     0.2289 1.6732e+03     0.7849     -0.216     -0.312    26.3088 0.0000e+00
     -0.173      0.136     8.2832    103.883    115.925 120.019127     0.2938 1.5362e+03     0.8744     -0.167     -0.241    26.4860 0.0000e+00
     -0.134      0.110     8.2679    104.163    115.906 120.037018     0.3023 1.4727e+03     0.8425     -0.125     -0.182    26.6147 0.0000e+00
     -0.110      0.081     8.2672    104.376    115.771 119.912807     0.2706 1.4925e+03     0.7773     -0.105     -0.151    26.7003 0.0000e+00
     -0.097      0.053     8.2866    104.513    115.482 119.608395     0.2052 1.5177e+03     0.7046     -0.093     -0.134    26.7395 0.0000e+00
     -0.093      0.029     8.3126    104.568    115.192 119.288586     0.1622 1.5095e+03     0.6845     -0.087     -0.126    26.7625 0.0000e+00
     -0.094      0.015     8.3321    104.551    115.121 119.182744     0.1662 1.4722e+03     0.7055     -0.092     -0.133    26.7784 0.0000e+00
     -0.098      0.015     8.3480    104.475    115.335 119.351468     0.1939 1.4347e+03     0.6500     -0.097     -0.140    26.7866 0.0000e+00
     -0.100      0.027     8.3608    104.401    115.638 119.623778     0.2199 1.4343e+03     0.4939     -0.099     -0.143    26.7818 0.0000e+00
     -0.096      0.049     8.3653    104.437    115.752 119.747550     0.2279 1.4831e+03     0.3979     -0.097     -0.141    26.7718 0.0000e+00
     -0.084      0.073     8.3661    104.655    115.663 119.688750     0.2215 1.5467e+03     0.4165     -0.087     -0.126    26.7636 0.0000e+00
     -0.059      0.092     8.3622    105.019    115.611 119.662991     0.2376 1.5944e+03     0.5466     -0.063     -0.091    26.7338 0.0000e+00
     -0.022      0.102     8.3571    105.429    115.697 119.777088     0.2844 1.6356e+03     0.7689     -0.024     -0.034    26.7060 0.0000e+00
      0.019      0.103     8.3558    105.825    115.795 119.909077     0.3107 1.6764e+03     0.8722      0.022      0.032    26.7153 0.0000e+00
      0.050      0.095     8.3713    106.161    115.819 119.963279     0.3035 1.6998e+03     0.8351      0.055      0.080    26.7366 0.0000e+00
      0.069      0.081     8.4036    106.400    115.854 120.023341     0.2928 1.7130e+03     0.7670      0.069      0.099    26.7462 0.0000e+00
      0.082      0.070     8.4352    106.529    115.900 120.089778     0.2858 1.7367e+03     0.7010      0.080      0.116    26.7547 0.0000e+00
      0.093      0.068     8.4664    106.587    115.883 120.084662     0.2878 1.7600e+03     0.7235      0.094      0.136    26.7704 0.0000e+00
      0.102      0.079     8.4918    106.649    115.891 120.097886     0.3007 1.7573e+03     0.7636      0.100      0.144    26.7845 0.0000e+00
      0.113      0.099     8.5105    106.784    115.965 120.181480     0.3025 1.5449e+03     0.7744      0.104      0.150    26.7937 0.0000e+00
      0.141      0.121     8.5183    107.058    116.045 120.277081     0.2929 1.2483e+03     0.8195      0.133      0.193    26.8022 0.0000e+00
      0.184      0.140     8.5190    107.466    116.118 120.367301     0.2883 1.1986e+03     0.8629      0.179      0.260    26.8083 0.0000e+00
      0.231      0.155     8.5231    108.037    116.184 120.454027     0.2898 1.2541e+03     0.8873      0.225      0.326    26.8081 0.0000e+00
      0.278      0.163     8.5303    108.638    116.216 120.507390     0.2848 1.2027e+03     0.8735      0.274      0.398    26.8105 0.0000e+00
      0.322      0.166     8.5519    108.258    116.159 120.466989     0.2720 9.5189e+02     0.8682      0.318      0.462    26.8172 0.0000e+00
      0.359      0.162     8.5855    105.724    116.060 120.374718     0.2730 7.8648e+02     0.9267      0.355      0.516    26.8230 0.0000e+00
      0.394      0.153     8.6215    101.147    116.031 120.346470     0.2880 8.3003e+02     0.9281      0.382      0.554    26.8307 0.0000e+00
      0.436      0.141     8.7008     95.400    116.081 120.398217     0.2972 7.8663e+02     0.8169      0.423      0.613    26.8400 0.0000e+00
      0.482      0.130     8.7225     89.288    116.132 120.454839     0.2978 7.7705e+02     0.7147      0.481      0.698    26.8492 0.0000e+00
      0.517      0.121     8.5038     83.660    116.157 120.485544     0.2954 9.3963e+02     0.6538      0.512      0.744    26.8545 0.0000e+00
      0.537      0.111     8.1071     79.336    116.163 120.496696     0.2947 1.0542e+03     0.5957      0.527      0.765    26.8530 0.0000e+00
      0.556      0.101     7.6318     76.781    116.117 120.453294     0.3142 9.3833e+02     0.5957      0.544      0.787    26.8524 0.0000e+00
      0.580      0.095     7.1173     75.949    116.037 120.369939     0.3489 7.6362e+02     0.6201      0.567      0.823    26.8547 0.0000e+00
      0.606      0.094     6.6429     76.389    115.982 120.307174     0.3678 7.7744e+02     0.6156      0.597      0.866    26.8566 0.0000e+00
      0.630      0.095     6.2825     77.401    115.928 120.239941     0.3697 8.1538e+02     0.6436      0.618      0.896    26.8593 0.0000e+00
      0.655      0.091     6.0818     78.346    115.870 120.170744     0.3628 7.5072e+02     0.6849      0.641      0.929    26.8617 0.0000e+00
      0.681      0.081     6.0276     78.903    115.920 120.220621     0.3543 7.5616e+02     0.6682      0.669      0.972    26.8619 0.0000e+00
      0.706      0.066     6.0849     78.976    116.056 120.365651     0.3533 7.3573e+02     0.6478      0.695      1.008    26.8588 0.0000e+00
      0.724      0.048     6.1869     78.574    116.174 120.492248     0.3518 6.1598e+02     0.6784      0.714      1.034    26.8527 0.0000e+00
      0.734      0.030     6.2697     77.806    116.203 120.523817     0.3444 5.4101e+02     0.6952      0.722      1.049    26.8483 0.0000e+00
      0.735      0.013     6.3160     76.818    116.155 120.474578     0.3417 4.9859e+02     0.6783      0.723      1.049    26.8479 0.0000e+00
      0.730     -0.001     6.3221     75.798    116.123 120.442457     0.3450 4.9300e+02     0.6463      0.716      1.039    26.8500 0.0000e+00
      0.725     -0.010     6.2856     75.002    116.089 120.408217     0.3493 5.9334e+02     0.6178      0.710      1.030    26.8525 0.0000e+00
      0.721     -0.015     6.2199     74.504    116.017 120.333366     0.3415 6.9248e+02     0.6423      0.707      1.026    26.8529 0.0000e+00
      0.718     -0.016     6.1379     74.139    115.974 120.287564     0.3207 6.6779e+02     0.6679      0.705      1.022    26.8526 0.0000e+00
      0.715     -0.014     6.0460     73.918    116.014 120.331777     0.3062 6.5360e+02     0.6533      0.701      1.016    26.8533 0.0000e+00
      0.710     -0.009     5.9785     74.078    116.068 120.390588     0.2959 7.8256e+02     0.6373      0.696      1.010    26.8544 0.0000e+00
      0.705      0.000     5.9489     74.639    116.063 120.384912     0.2910 8.3647e+02     0.6109      0.690      1.001    26.8537 0.0000e+00
      0.702      0.009     5.9204     75.281    115.950 120.263144     0.2906 7.1213e+02     0.6098      0.686      0.994    26.8526 0.0000e+00
      0.705      0.014     5.8904     75.691    115.781 120.077571     0.2821 6.8597e+02     0.6573      0.689      0.998    26.8537 0.0000e+00
      0.715      0.014     5.9017     75.804    115.764 120.050543     0.2756 8.7449e+02     0.6710      0.701      1.016    26.8558 0.0000e+00
      0.729      0.010     5.9592     75.801    115.918 120.209101     0.2809 1.0390e+03     0.6379      0.716      1.039    26.8564 0.0000e+00
      0.737      0.005     6.0209     76.060    116.057 120.358068     0.2864 1.1688e+03     0.6343      0.728      1.057    26.8544 0.0000e+00
      0.733      0.001     6.0548     76.739    116.112 120.419651     0.2813 1.2447e+03     0.6620      0.725      1.050    26.8493 0.0000e+00
      0.719     -0.002     6.0609     77.474    116.106 120.408159     0.2789 1.0082e+03     0.6637      0.702      1.019    26.8433 0.0000e+00
      0.709     -0.003     6.0468     77.838    116.066 120.355500     0.2843 8.2609e+02     0.6557      0.689      1.000    26.8428 0.0000e+00
      0.712     -0.002     6.0579     77.830    116.048 120.328477     0.3029 9.0444e+02     0.6675      0.696      1.010    26.8468 0.0000e+00
      0.723      0.001     6.1276     77.754    116.073 120.354188     0.3393 9.0525e+02     0.6698      0.711      1.032    26.8498 0.0000e+00
      0.729      0.005     6.2028     77.884    116.103 120.393596     0.3597 8.0168e+02     0.6483      0.719      1.042    26.8478 0.0000e+00
      0.728      0.005     6.2304     78.247    116.098 120.395819     0.3584 9.7714e+02     0.6479      0.715      1.037    26.8407 0.0000e+00
      0.723      0.001     6.2192     78.537    116.083 120.381075     0.3585 1.2136e+03     0.6656      0.709      1.028    26.8356 0.0000e+00
      0.721     -0.003     6.2048     78.418    116.059 120.351707     0.3620 1.1385e+03     0.6557      0.705      1.022    26.8368 0.0000e+00
      0.721     -0.006     6.2122     77.878    116.028 120.313498     0.3652 1.1236e+03     0.6317      0.707      1.024    26.8414 0.0000e+00
      0.724     -0.006     6.2514     77.167    116.041 120.328243     0.3622 1.0996e+03     0.6151      0.710      1.031    26.8455 0.0000e+00
      0.724     -0.004     6.2885     76.612    116.098 120.393612     0.3525 9.5670e+02     0.6266      0.711      1.031    26.8462 0.0000e+00
      0.719     -0.001     6.2769     76.407    116.119 120.421949     0.3427 8.9796e+02     0.6677      0.706      1.023    26.8430 0.0000e+00
      0.714      0.003     6.2266     76.366    116.095 120.398098     0.3388 9.4656e+02     0.7002      0.698      1.013    26.8392 0.0000e+00
      0.713      0.006     6.1603     76.156    116.079 120.377999     0.3401 1.1098e+03     0.6764      0.696      1.009    26.8395 0.0000e+00
      0.718      0.006     6.1061     75.713    116.023 120.315319     0.3412 1.1552e+03     0.5864      0.703      1.019    26.8437 0.0000e+00
      0.727      0.000     6.0970     75.179    115.904 120.185776     0.3434 9.3677e+02     0.4698      0.714      1.036    26.8470 0.0000e+00
      0.733     -0.018     6.1076     74.629    115.839 120.107366     0.3496 1.1194e+03     0.3994      0.721      1.045    26.8476 0.0000e+00
      0.733     -0.048     6.0911     74.110    115.924 120.185559     0.3557 1.6834e+03     0.3879      0.721      1.046    26.8451 0.0000e+00
      0.724     -0.079     6.0496     73.910    116.049 120.312876     0.3558 1.6113e+03     0.4336      0.716      1.039    26.8434 0.0000e+00
      0.698     -0.105     6.0050     74.358    116.017 120.282900     0.3515 1.1400e+03     0.5403      0.695      1.007    26.8416 0.0000e+00
      0.650     -0.125     5.9638     75.268    115.839 120.095894     0.3468 9.6732e+02     0.6132      0.639      0.926    26.8358 0.0000e+00
      0.600     -0.140     5.9149     76.152    115.731 119.961193     0.3418 9.5281e+02     0.6282      0.580      0.840    26.8297 0.0000e+00
      0.564     -0.149     5.8812     76.887    115.765 119.949859     0.3351 8.8757e+02     0.6189      0.549      0.796    26.8299 0.0000e+00
      0.538     -0.149     5.9259     77.852    115.822 119.958792     0.3350 8.7394e+02     0.6039      0.532      0.771    26.8332 0.0000e+00
      0.505     -0.147     6.0175     79.332    115.826 119.932746     0.3400 1.0111e+03     0.6189      0.500      0.725    26.8337 0.0000e+00
      0.462     -0.148     6.0939     81.008    115.815 119.907654     0.3437 1.1224e+03     0.6281      0.451      0.654    26.8266 0.0000e+00
      0.420     -0.148     6.1397     82.298    115.836 119.928156     0.3375 1.1955e+03     0.6116      0.409      0.594    26.8018 0.0000e+00
      0.381     -0.142     6.2059     83.022    115.806 119.907866     0.3075 1.2886e+03     0.6263      0.377      0.547    26.7749 0.0000e+00
      0.341     -0.126     6.3386     83.339    115.688 119.798741     0.2840 1.5791e+03     0.6338      0.336      0.488    26.7641 0.0000e+00
      0.300     -0.101     6.4953     83.132    115.583 119.699806     0.2877 1.8862e+03     0.5991      0.288      0.419    26.7592 0.0000e+00
      0.274     -0.074     6.6044     82.053    115.544 119.666355     0.2913 1.8532e+03     0.6188      0.261      0.379    26.7577 0.0000e+00
      0.265     -0.046     6.6480     80.043    115.542 119.667058     0.2929 1.6948e+03     0.6663      0.259      0.376    26.7648 0.0000e+00
      0.264     -0.019     6.6785     77.533    115.582 119.708309     0.2991 1.4234e+03     0.6591      0.259      0.375    26.7709 0.0000e+00
      0.267      0.002     6.6755     75.182    115.631 119.755974     0.2967 1.1999e+03     0.6337      0.261      0.378    26.7745 0.0000e+00
      0.272      0.013     6.5921     73.422    115.580 119.697834     0.2893 1.0744e+03     0.6002      0.267      0.387    26.7786 0.0000e+00
      0.278      0.015     6.4169     72.250    115.048 119.141722     0.2883 1.0156e+03     0.5973      0.273      0.395    26.7793 0.0000e+00
      0.285      0.012     6.1942     71.468    109.745 113.645785     0.2933 1.0645e+03     0.6332      0.280      0.405    26.7788 0.0000e+00
      0.290      0.007     5.9928     70.980     51.947  53.792470     0.2968 1.0181e+03     0.6563      0.286      0.415    26.7774 0.0000e+00
      0.291      0.002     5.8542     70.715   -583.825-604.539269     0.2969 1.1336e+03     0.6704      0.288      0.417    26.7748 0.0000e+00
      0.288     -0.003     5.7703     70.561  -1166.641 -1.208e+03     0.2941 1.3946e+03     0.6665      0.284      0.411    26.7724 0.0000e+00
      0.283     -0.006     5.7076     70.341   -583.834-604.668324     0.2896 1.3205e+03     0.6770      0.278      0.403    26.7706 0.0000e+00
      0.279     -0.007     5.6712     69.868     51.949  53.778612     0.2851 1.1670e+03     0.6947      0.273      0.396    26.7689 0.0000e+00
      0.278     -0.006     5.6534     69.121    109.715 113.581304     0.2832 1.2187e+03     0.6757      0.271      0.393    26.7666 0.0000e+00
      0.279     -0.004     5.6469     68.200    114.941 118.985901     0.2845 1.2300e+03     0.6518      0.273      0.396    26.7643 0.0000e+00
      0.279     -0.003     5.6365     67.236    115.411 119.466050     0.2834 1.1487e+03     0.6116      0.275      0.398    26.7618 0.0000e+00
      0.279     -0.003     5.5977     66.370    115.471 119.523114     0.2872 1.0968e+03     0.5671      0.274      0.398    26.7587 0.0000e+00
      0.278     -0.004     5.5348     65.643    115.491 119.539470     0.2958 1.0467e+03     0.5954      0.273      0.395    26.7559 0.0000e+00
      0.276     -0.006     5.4585     64.994    115.486 119.527424     0.2916 1.0033e+03     0.6449      0.270      0.392    26.7530 0.0000e+00
      0.275     -0.008     5.3762     64.395    115.481 119.513830     0.2803 1.0876e+03     0.6168      0.269      0.391    26.7503 0.0000e+00
      0.274     -0.011     5.3058     63.852    115.489 119.511476     0.2799 1.2472e+03     0.5985      0.270      0.391    26.7485 0.0000e+00
      0.271     -0.013     5.2515     63.341    115.487 119.498946     0.2866 1.3203e+03     0.6300      0.266      0.386    26.7465 0.0000e+00
      0.266     -0.014     5.1999     62.844    115.494 119.498691     0.2923 1.4178e+03     0.6200      0.261      0.379    26.7434 0.0000e+00
      0.261     -0.013     5.1516     62.389    115.508 119.508383     0.2888 1.5273e+03     0.6148      0.256      0.372    26.7395 0.0000e+00
      0.256     -0.009     5.1098     61.994    115.485 119.479745     0.2793 1.4364e+03     0.6355      0.250      0.363    26.7349 0.0000e+00
      0.251     -0.004     5.0703     61.633    115.439 119.425186     0.2810 1.2934e+03     0.6294      0.245      0.355    26.7303 0.0000e+00
      0.251      0.002     5.0289     61.253    115.416 119.394219     0.2825 1.1358e+03     0.6099      0.245      0.356    26.7264 0.0000e+00
      0.255      0.008     4.9926     60.823    115.408 119.378071     0.2807 1.0261e+03     0.6059      0.250      0.363    26.7248 0.0000e+00
      0.259      0.013     4.9615     60.380    115.404 119.366311     0.2844 1.0150e+03     0.6498      0.254      0.369    26.7237 0.0000e+00
      0.264      0.017     4.9348     59.955    115.431 119.388395     0.2844 1.1351e+03     0.6938      0.259      0.375    26.7206 0.0000e+00
      0.269      0.018     4.9063     59.565    115.420 119.372321     0.2812 1.3079e+03     0.6914      0.264      0.383    26.7169 0.0000e+00
      0.273      0.017     4.8699     59.195    115.365 119.308332     0.2801 1.1849e+03     0.6903      0.267      0.388    26.7133 0.0000e+00
      0.278      0.012     4.8345     58.814    115.360 119.296597     0.2804 9.3605e+02     0.6805      0.273      0.395    26.7099 0.0000e+00
      0.283      0.006     4.7998     58.435    115.433 119.366803     0.2845 8.7787e+02     0.6765      0.279      0.405    26.7076 0.0000e+00
      0.287      0.000     4.7691     58.145    115.542 119.475286     0.2864 9.5453e+02     0.7097      0.284      0.411    26.7059 0.0000e+00
      0.285     -0.003     4.7411     58.061    115.582 119.517203     0.2852 1.0245e+03     0.7050      0.282      0.409    26.7030 0.0000e+00
      0.278     -0.003     4.7112     58.254    115.532 119.464487     0.2875 1.1099e+03     0.6540      0.273      0.396    26.6993 0.0000e+00
      0.271     -0.002     4.6775     58.604    115.465 119.383412     0.2888 1.1192e+03     0.6074      0.264      0.383    26.6973 0.0000e+00
      0.271      0.001     4.6517     58.870    115.461 119.355198     0.2919 9.9603e+02     0.5871      0.264      0.382    26.6950 0.0000e+00
      0.276      0.004     4.6409     58.938    115.544 119.396078     0.2899 9.9659e+02     0.6146      0.271      0.393    26.6955 0.0000e+00
      0.282      0.005     4.6595     58.834    115.677 119.468479     0.2825 1.1187e+03     0.6664      0.278      0.403    26.6982 0.0000e+00
      0.286      0.005     4.6986     58.652    115.804 119.548591     0.2799 1.1945e+03     0.6979      0.282      0.409    26.6915 0.0000e+00
      0.286      0.003     4.7223     58.523    115.822 119.546348     0.2764 1.6083e+03     0.6872      0.281      0.408    26.6830 0.0000e+00
      0.284     -0.002     4.7283     58.512    115.730 119.441326     0.2744 1.9567e+03     0.6739      0.278      0.403    26.6655 0.0000e+00
      0.281     -0.006     4.7206     58.547    115.676 119.369809     0.2819 1.5182e+03     0.6744      0.275      0.398    26.6296 0.0000e+00
      0.280     -0.008     4.7034     58.534    115.684 119.363523     0.3059 1.1350e+03     0.6591      0.274      0.397    26.6040 0.0000e+00
      0.279     -0.009     4.6906     58.473    115.691 119.365290     0.3395 1.1700e+03     0.6606      0.275      0.399    26.6005 0.0000e+00
      0.277     -0.009     4.6932     58.430    115.717 119.391169     0.3590 1.2717e+03     0.6580      0.272      0.395    26.5995 0.0000e+00
      0.272     -0.008     4.7006     58.436    115.735 119.403673     0.3592 1.3164e+03     0.6274      0.266      0.386    26.5894 0.0000e+00
      0.269     -0.007     4.6995     58.412    115.726 119.380087     0.3431 1.1758e+03     0.6335      0.262      0.380    26.5824 0.0000e+00
      0.268     -0.005     4.6925     58.276    115.742 119.378719     0.3198 1.0777e+03     0.6636      0.263      0.381    26.5815 0.0000e+00
      0.268     -0.002     4.6867     58.061    115.762 119.387106     0.3029 1.0802e+03     0.6824      0.263      0.382    26.5815 0.0000e+00
      0.268      0.000     4.6909     57.839    115.732 119.345089     0.2944 1.1657e+03     0.6893      0.262      0.381    26.5809 0.0000e+00
      0.268      0.000     4.6932     57.610    115.680 119.279819     0.3044 1.2070e+03     0.6785      0.262      0.380    26.5733 0.0000e+00
      0.270     -0.002     4.6810     57.334    115.685 119.279817     0.3280 1.0225e+03     0.6881      0.264      0.383    26.5630 0.0000e+00
      0.271     -0.004     4.6613     57.047    115.747 119.345055     0.3457 9.5671e+02     0.7027      0.267      0.387    26.5589 0.0000e+00
      0.269     -0.006     4.6436     56.832    115.784 119.386720     0.3533 1.1242e+03     0.6839      0.265      0.384    26.5550 0.0000e+00
      0.266     -0.006     4.6291     56.785    115.767 119.374442     0.3512 1.1359e+03     0.6665      0.260      0.378    26.5487 0.0000e+00
      0.261     -0.005     4.6047     56.952    115.721 119.332994     0.3466 9.5302e+02     0.6640      0.256      0.371    26.5466 0.0000e+00
      0.258     -0.002     4.5791     57.219    115.683 119.294725     0.3496 8.9503e+02     0.6530      0.251      0.365    26.5477 0.0000e+00
      0.258      0.000     4.5595     57.379    115.714 119.320874     0.3525 1.0211e+03     0.6366      0.252      0.365    26.5490 0.0000e+00
      0.262      0.002     4.5521     57.355    115.781 119.376391     0.3545 1.1937e+03     0.6376      0.257      0.372    26.5514 0.0000e+00
      0.266      0.004     4.5695     57.274    115.846 119.420444     0.3571 1.4512e+03     0.6315      0.262      0.381    26.5553 0.0000e+00
      0.267      0.006     4.5984     57.290    115.888 119.444330     0.3495 1.6570e+03     0.5970      0.263      0.382    26.5557 0.0000e+00
      0.265      0.007     4.6146     57.439    115.848 119.392403     0.3400 1.4524e+03     0.5981      0.259      0.376    26.5535 0.0000e+00
      0.265      0.009     4.6075     57.658    115.803 119.338100     0.3211 1.1066e+03     0.6114      0.260      0.375    26.5485 0.0000e+00
      0.267      0.011     4.5965     57.823    115.811 119.333267     0.2855 1.0236e+03     0.5853      0.262      0.380    26.5359 0.0000e+00
      0.272      0.011     4.5984     57.839    115.822 119.333957     0.2650 1.1095e+03     0.5913      0.266      0.386    26.5259 0.0000e+00
      0.278      0.011     4.6124     57.711    115.842 119.346417     0.2641 1.1538e+03     0.6508      0.273      0.396    26.5234 0.0000e+00
      0.284      0.008     4.6340     57.507    115.854 119.347531     0.2656 1.0425e+03     0.6857      0.280      0.406    26.5210 0.0000e+00
      0.286      0.003     4.6516     57.336    115.866 119.347421     0.2651 9.5065e+02     0.6697      0.282      0.409    26.5144 0.0000e+00
      0.284     -0.001     4.6524     57.315    115.874 119.345058     0.2681 1.0605e+03     0.6629      0.278      0.404    26.5089 0.0000e+00
      0.280     -0.003     4.6402     57.460    115.854 119.318942     0.2756 1.1514e+03     0.6722      0.274      0.397    26.5069 0.0000e+00
      0.276     -0.003     4.6218     57.670    115.848 119.304405     0.2956 1.0714e+03     0.6794      0.271      0.392    26.5022 0.0000e+00
      0.275     -0.002     4.6038     57.834    115.858 119.305656     0.3358 1.0807e+03     0.6815      0.269      0.390    26.4952 0.0000e+00
      0.277     -0.001     4.6019     57.881    115.895 119.334061     0.3633 1.1757e+03     0.6635      0.272      0.393    26.4907 0.0000e+00
      0.281     -0.001     4.6179     57.829    115.949 119.375075     0.3585 1.2012e+03     0.6335      0.277      0.401    26.4894 0.0000e+00
      0.281     -0.001     4.6380     57.790    115.982 119.392392     0.3302 1.1092e+03     0.5589      0.277      0.402    26.4860 0.0000e+00
      0.278     -0.002     4.6537     57.833    116.008 119.407039     0.2984 9.5665e+02     0.4477      0.272      0.395    26.4811 0.0000e+00
      0.275     -0.003     4.6580     57.908    116.025 119.415762     0.2869 9.8848e+02     0.3882      0.269      0.390    26.4782 0.0000e+00
      0.275     -0.003     4.6496     57.955    115.977 119.361468     0.2864 1.0366e+03     0.3878      0.269      0.391    26.4717 0.0000e+00
      0.275     -0.002     4.6445     57.945    115.915 119.296086     0.2837 9.2162e+02     0.4773      0.269      0.391    26.4632 0.0000e+00
      0.275     -0.002     4.6513     57.836    115.924 119.307132     0.2797 8.5007e+02     0.6130      0.268      0.389    26.4579 0.0000e+00
      0.276     -0.002     4.6596     57.646    115.972 119.358651     0.2808 8.4685e+02     0.6554      0.271      0.393    26.4544 0.0000e+00
      0.277     -0.003     4.6632     57.433    115.984 119.373479     0.2893 9.8912e+02     0.6455      0.273      0.396    26.4519 0.0000e+00
      0.275     -0.004     4.6648     57.228    115.959 119.350040     0.2868 1.4091e+03     0.6651      0.270      0.391    26.4515 0.0000e+00
      0.272     -0.004     4.6557     57.078    115.955 119.348018     0.2769 1.5765e+03     0.6867      0.266      0.385    26.4529 0.0000e+00
      0.270     -0.003     4.6368     57.002    115.954 119.349035     0.2822 1.1946e+03     0.6662      0.264      0.383    26.4543 0.0000e+00
      0.270     -0.000     4.6204     56.946    115.966 119.362335     0.2905 8.6040e+02     0.6585      0.264      0.383    26.4553 0.0000e+00
      0.270      0.003     4.6015     56.846    115.974 119.372458     0.2904 8.7382e+02     0.6616      0.263      0.382    26.4561 0.0000e+00
      0.271      0.006     4.5883     56.676    115.937 119.335049     0.2894 1.0085e+03     0.6354      0.265      0.384    26.4570 0.0000e+00
      0.273      0.007     4.5848     56.448    115.921 119.319168     0.2866 1.0430e+03     0.6513      0.268      0.388    26.4577 0.0000e+00
      0.276      0.006     4.5818     56.158    115.918 119.316819     0.2833 1.0150e+03     0.6815      0.271      0.393    26.4580 0.0000e+00
      0.279      0.005     4.5752     55.795    115.908 119.306646     0.2925 1.2602e+03     0.6570      0.274      0.397    26.4586 0.0000e+00
      0.281      0.002     4.5600     55.422    115.933 119.332549     0.3196 1.5156e+03     0.6300      0.277      0.401    26.4591 0.0000e+00
      0.281     -0.001     4.5420     55.158    115.956 119.357239     0.3427 1.2862e+03     0.6293      0.278      0.403    26.4593 0.0000e+00
      0.279     -0.003     4.5197     55.054    115.931 119.332424     0.3461 1.0410e+03     0.6147      0.274      0.397    26.4595 0.0000e+00
      0.275     -0.004     4.4889     55.060    115.904 119.305272     0.3426 1.0078e+03     0.5908      0.269      0.391    26.4597 0.0000e+00
      0.273     -0.002     4.4541     55.103    115.900 119.301717     0.3445 8.8239e+02     0.6153      0.267      0.388    26.4598 0.0000e+00
      0.273      0.001     4.4311     55.117    115.888 119.289432     0.3519 1.0197e+03     0.6708      0.268      0.388    26.4599 0.0000e+00
      0.274      0.003     4.4254     55.053    115.891 119.293121     0.3540 1.3656e+03     0.6776      0.269      0.390    26.4605 0.0000e+00
      0.277      0.004     4.4275     54.895    115.942 119.346315     0.3436 1.2269e+03     0.6626      0.270      0.392    26.4610 0.0000e+00
      0.281      0.003     4.4332     54.673    115.981 119.387084     0.3390 9.0307e+02     0.6617      0.275      0.399    26.4611 0.0000e+00
      0.283      0.001     4.4355     54.460    115.971 119.376911     0.3510 8.8396e+02     0.6660      0.280      0.406    26.4612 0.0000e+00
      0.282     -0.002     4.4310     54.328    115.953 119.359696     0.3581 9.1486e+02     0.6806      0.277      0.402    26.4613 0.0000e+00
      0.278     -0.004     4.4175     54.292    115.910 119.315320     0.3550 8.6580e+02     0.6671      0.272      0.395    26.4614 0.0000e+00
      0.275     -0.004     4.3973     54.322    115.846 119.249501     0.3565 1.0018e+03     0.6397      0.270      0.392    26.4616 0.0000e+00
      0.274     -0.003     4.3774     54.353    115.842 119.245782     0.3598 1.2709e+03     0.6240      0.268      0.389    26.4621 0.0000e+00
      0.274     -0.001     4.3665     54.295    115.867 119.270352     0.3613 1.2894e+03     0.6144      0.268      0.388    26.4627 0.0000e+00
      0.275      0.001     4.3651     54.136    115.870 119.273815     0.3561 1.1485e+03     0.6271      0.269      0.390    26.4630 0.0000e+00
      0.276      0.002     4.3681     53.914    115.884 119.287657     0.3321 1.0462e+03     0.6401      0.271      0.393    26.4629 0.0000e+00
      0.277      0.002     4.3752     53.657    115.899 119.301335     0.3047 9.9162e+02     0.6335      0.272      0.395    26.4627 0.0000e+00
      0.278      0.000     4.3703     53.393    115.900 119.302812     0.2939 1.0031e+03     0.6160      0.273      0.396    26.4623 0.0000e+00
      0.279     -0.004     4.3553     53.118    115.903 119.305515     0.2881 9.9757e+02     0.6000      0.274      0.397    26.4622 0.0000e+00
      0.279     -0.008     4.3380     52.863    115.931 119.334018     0.2786 9.0086e+02     0.6123      0.274      0.397    26.4619 0.0000e+00
      0.276     -0.010     4.3151     52.750    115.969 119.374680     0.2735 8.0926e+02     0.6616      0.272      0.395    26.4615 0.0000e+00
      0.270     -0.008     4.2952     52.888    115.978 119.388013     0.2782 9.8860e+02     0.6816      0.266      0.386    26.4614 0.0000e+00
      0.263     -0.004     4.2729     53.220    115.946 119.358861     0.2833 1.3831e+03     0.6476      0.256      0.372    26.4610 0.0000e+00
      0.260      0.000     4.2480     53.560    115.882 119.294974     0.3007 1.8686e+03     0.6288      0.252      0.366    26.4608 0.0000e+00
      0.265      0.004     4.2343     53.781    115.888 119.297455     0.3324 2.1586e+03     0.6256      0.258      0.375    26.4617 0.0000e+00
      0.273      0.007     4.2469     53.903    115.990 119.388854     0.3459 2.0308e+03     0.6091      0.268      0.388    26.4640 0.0000e+00
      0.278      0.009     4.2809     54.063    116.057 119.445397     0.3429 1.8619e+03     0.6007      0.274      0.398    26.4658 0.0000e+00
      0.278      0.009     4.3118     54.386    116.052 119.435572     0.3389 1.7321e+03     0.5923      0.274      0.398    26.4672 0.0000e+00
      0.275      0.009     4.3291     54.891    116.023 119.406427     0.3412 1.6711e+03     0.5760      0.269      0.390    26.4668 0.0000e+00
      0.274      0.008     4.3344     55.426    115.982 119.365770     0.3444 1.5346e+03     0.5758      0.267      0.387    26.4590 0.0000e+00
      0.278      0.007     4.3440     55.766    115.967 119.353139     0.3432 1.1776e+03     0.5903      0.272      0.394    26.4514 0.0000e+00
      0.284      0.006     4.3689     55.883    116.003 119.390087     0.3437 9.2087e+02     0.6134      0.280      0.405    26.4513 0.0000e+00
      0.289      0.005     4.4133     55.889    116.019 119.403365     0.3421 8.1365e+02     0.6499      0.285      0.414    26.4516 0.0000e+00
      0.289      0.002     4.4671     55.876    115.994 119.377298     0.3414 8.4605e+02     0.6529      0.285      0.413    26.4515 0.0000e+00
      0.287     -0.002     4.4932     55.928    115.963 119.347675     0.3433 1.0602e+03     0.6161      0.282      0.408    26.4547 0.0000e+00
      0.283     -0.005     4.4974     56.052    115.933 119.317962     0.3477 1.3621e+03     0.6164      0.277      0.402    26.4547 0.0000e+00
      0.281     -0.006     4.4973     56.152    115.908 119.290802     0.3520 1.4142e+03     0.6225      0.274      0.398    26.4517 0.0000e+00
      0.280     -0.006     4.4925     56.187    115.909 119.292030     0.3523 1.1138e+03     0.6215      0.274      0.398    26.4512 0.0000e+00
      0.279     -0.004     4.4959     56.193    115.945 119.332808     0.3511 8.5383e+02     0.6391      0.275      0.399    26.4536 0.0000e+00
      0.278     -0.001     4.5102     56.198    115.981 119.374714     0.3461 9.8153e+02     0.6294      0.274      0.396    26.4548 0.0000e+00
      0.276      0.002     4.5199     56.208    115.993 119.389590     0.3444 1.3467e+03     0.6405      0.271      0.393    26.4528 0.0000e+00
      0.276      0.004     4.5202     56.157    115.979 119.376299     0.3473 1.3187e+03     0.6710      0.269      0.391    26.4526 0.0000e+00
      0.279      0.005     4.5207     55.973    115.954 119.350388     0.3455 1.2670e+03     0.6541      0.273      0.396    26.4546 0.0000e+00
      0.284      0.006     4.5193     55.717    115.951 119.349058     0.3404 1.6404e+03     0.6424      0.279      0.405    26.4570 0.0000e+00
      0.286      0.007     4.5226     55.517    115.961 119.360218     0.3378 1.6662e+03     0.6671      0.281      0.408    26.4582 0.0000e+00
      0.286      0.007     4.5223     55.417    115.950 119.348948     0.3398 1.3345e+03     0.6785      0.280      0.406    26.4580 0.0000e+00
      0.287      0.005     4.5050     55.341    115.951 119.349172     0.3477 1.2622e+03     0.6768      0.281      0.407    26.4581 0.0000e+00
      0.289      0.000     4.4791     55.199    115.966 119.362931     0.3376 1.2122e+03     0.6813      0.282      0.411    26.4585 0.0000e+00
      0.291     -0.004     4.4617     55.017    115.983 119.378926     0.3036 9.8896e+02     0.6634      0.285      0.414    26.4590 0.0000e+00
      0.291     -0.006     4.4566     54.927    116.009 119.406182     0.2837 1.1811e+03     0.6317      0.286      0.415    26.4595 0.0000e+00
      0.287     -0.008     4.4542     55.043    116.021 119.419727     0.2794 1.5259e+03     0.6417      0.281      0.410    26.4594 0.0000e+00
      0.281     -0.009     4.4420     55.341    116.007 119.406315     0.2776 1.3290e+03     0.6821      0.275      0.399    26.4587 0.0000e+00
      0.276     -0.009     4.4227     55.645    115.983 119.380402     0.2798 1.1690e+03     0.6736      0.270      0.391    26.4577 0.0000e+00
      0.275     -0.010     4.4117     55.812    115.983 119.379172     0.2798 1.3793e+03     0.6072      0.269      0.390    26.4573 0.0000e+00
      0.276     -0.010     4.4206     55.837    115.994 119.391450     0.2781 1.5462e+03     0.5658      0.271      0.393    26.4581 0.0000e+00
      0.276     -0.009     4.4520     55.826    115.994 119.392465     0.2938 1.3760e+03     0.5855      0.272      0.395    26.4590 0.0000e+00
      0.272     -0.007     4.4808     55.941    115.991 119.391450     0.3217 1.0866e+03     0.6040      0.269      0.390    26.4587 0.0000e+00
      0.266     -0.004     4.4940     56.246    115.981 119.379173     0.3381 1.0508e+03     0.6186      0.260      0.377    26.4579 0.0000e+00
      0.262      0.000     4.4931     56.598    115.985 119.380404     0.3452 1.1260e+03     0.6586      0.254      0.369    26.4578 0.0000e+00
      0.263      0.005     4.4863     56.806    116.010 119.406329     0.3380 1.1859e+03     0.6756      0.256      0.372    26.4588 0.0000e+00
      0.269      0.010     4.4921     56.803    116.023 119.419874     0.3120 1.1892e+03     0.6536      0.263      0.382    26.4599 0.0000e+00
      0.275      0.013     4.5227     56.632    116.014 119.407792     0.2915 1.1942e+03     0.6322      0.269      0.392    26.4590 0.0000e+00
      0.280      0.013     4.5582     56.364    116.009 119.396624     0.2880 1.2348e+03     0.6231      0.275      0.399    26.4569 0.0000e+00
      0.284      0.011     4.5759     56.084    116.037 119.421218     0.2879 1.2023e+03     0.6122      0.279      0.404    26.4572 0.0000e+00
      0.285      0.008     4.5739     55.885    116.052 119.432388     0.2812 1.2109e+03     0.6376      0.280      0.406    26.4587 0.0000e+00
      0.285      0.007     4.5580     55.787    116.022 119.395287     0.2681 1.2299e+03     0.6902      0.279      0.405    26.4566 0.0000e+00
      0.285      0.007     4.5350     55.751    116.017 119.381763     0.2685 1.2364e+03     0.6988      0.278      0.404    26.4534 0.0000e+00
      0.286      0.009     4.5085     55.729    116.044 119.405248     0.2857 1.2561e+03     0.6728      0.281      0.407    26.4520 0.0000e+00
      0.289      0.011     4.4928     55.670    116.045 119.406470     0.2939 1.6781e+03     0.6507      0.284      0.412    26.4505 0.0000e+00
      0.292      0.011     4.4864     55.515    116.034 119.396532     0.2894 2.3455e+03     0.6367      0.286      0.415    26.4477 0.0000e+00
      0.297      0.008     4.4853     55.221    116.055 119.421467     0.2842 2.0361e+03     0.6414      0.290      0.421    26.4434 0.0000e+00
      0.302      0.001     4.4849     54.841    116.064 119.435216     0.2827 1.2324e+03     0.6387      0.297      0.431    26.4412 0.0000e+00
      0.305     -0.008     4.4818     54.504    116.051 119.426394     0.2793 9.5127e+02     0.6040      0.302      0.438    26.4419 0.0000e+00
      0.301     -0.014     4.4719     54.435    116.071 119.451189     0.2692 1.0118e+03     0.6001      0.299      0.433    26.4428 0.0000e+00
      0.291     -0.016     4.4455     54.829    116.074 119.462264     0.2650 1.4711e+03     0.6259      0.287      0.415    26.4438 0.0000e+00
      0.279     -0.016     4.4120     55.558    116.025 119.423934     0.2719 1.8505e+03     0.6411      0.272      0.394    26.4462 0.0000e+00
      0.272     -0.012     4.3783     56.262    115.989 119.396891     0.2746 1.5007e+03     0.6468      0.264      0.383    26.4480 0.0000e+00
      0.272     -0.006     4.3630     56.702    115.997 119.408069     0.2717 1.1674e+03     0.6603      0.266      0.386    26.4495 0.0000e+00
      0.277     -0.001     4.3994     56.847    116.016 119.422703     0.2707 1.2290e+03     0.6671      0.272      0.395    26.4530 0.0000e+00
      0.282      0.004     4.4712     56.757    116.035 119.437438     0.2720 1.2344e+03     0.6259      0.277      0.402    26.4579 0.0000e+00
      0.283      0.005     4.5343     56.551    116.049 119.449846     0.2786 1.2954e+03     0.6080      0.278      0.404    26.4646 0.0000e+00
      0.282      0.004     4.5686     56.342    116.037 119.436351     0.2902 1.3023e+03     0.6568      0.276      0.400    26.4654 0.0000e+00
      0.281      0.003     4.5792     56.122    116.014 119.410643     0.2993 1.1444e+03     0.7018      0.275      0.399    26.4612 0.0000e+00
      0.282      0.001     4.5694     55.893    116.018 119.411770     0.3111 1.4059e+03     0.7051      0.277      0.401    26.4589 0.0000e+00
      0.284      0.001     4.5466     55.714    116.052 119.449970     0.3368 1.7068e+03     0.6965      0.279      0.405    26.4584 0.0000e+00
      0.285      0.001     4.5329     55.628    116.057 119.463382     0.3587 1.3931e+03     0.6660      0.280      0.407    26.4594 0.0000e+00
      0.284      0.000     4.5155     55.671    116.024 119.437569     0.3590 1.1850e+03     0.6116      0.279      0.404    26.4573 0.0000e+00
      0.282     -0.001     4.4937     55.818    115.993 119.410640     0.3319 1.3666e+03     0.5891      0.276      0.401    26.4548 0.0000e+00
      0.282     -0.001     4.4799     55.998    115.991 119.410558     0.2906 1.3543e+03     0.5991      0.276      0.401    26.4571 0.0000e+00
      0.283     -0.001     4.4696     56.168    116.017 119.436575     0.2762 1.2098e+03     0.6292      0.277      0.402    26.4616 0.0000e+00
      0.283     -0.001     4.4741     56.279    116.035 119.452446     0.2795 1.1492e+03     0.6447      0.277      0.402    26.4652 0.0000e+00
      0.283     -0.001     4.4889     56.332    116.051 119.466073     0.2780 1.1111e+03     0.6147      0.278      0.403    26.4671 0.0000e+00
      0.283     -0.001     4.5031     56.394    116.051 119.464957     0.2837 1.2613e+03     0.5753      0.278      0.403    26.4678 0.0000e+00
      0.282     -0.001     4.5192     56.472    116.025 119.438942     0.2877 1.4672e+03     0.5804      0.276      0.401    26.4680 0.0000e+00
      0.280      0.000     4.5289     56.510    116.010 119.424289     0.2838 1.3847e+03     0.6077      0.274      0.398    26.4668 0.0000e+00
      0.280      0.001     4.5296     56.508    116.010 119.424176     0.2971 1.0623e+03     0.5972      0.275      0.399    26.4647 0.0000e+00
      0.281      0.002     4.5343     56.495    116.025 119.437580     0.3267 8.9548e+02     0.5905      0.276      0.400    26.4641 0.0000e+00
      0.283      0.004     4.5440     56.470    116.039 119.449967     0.3386 9.2941e+02     0.5954      0.277      0.402    26.4646 0.0000e+00
      0.285      0.004     4.5462     56.417    116.028 119.437558     0.3368 9.3071e+02     0.5869      0.279      0.405    26.4648 0.0000e+00
      0.286      0.003     4.5445     56.325    116.014 119.423920     0.3399 1.1071e+03     0.5911      0.280      0.406    26.4650 0.0000e+00
      0.286      0.002     4.5443     56.194    116.012 119.421458     0.3410 1.3159e+03     0.6124      0.281      0.407    26.4647 0.0000e+00
      0.287      0.001     4.5424     56.053    115.998 119.407803     0.3415 1.6951e+03     0.6384      0.282      0.409    26.4636 0.0000e+00
      0.287      0.001     4.5390     55.967    115.983 119.395191     0.3456 2.1693e+03     0.6301      0.283      0.410    26.4630 0.0000e+00
      0.286      0.001     4.5313     55.960    115.990 119.405354     0.3476 1.9686e+03     0.6156      0.281      0.407    26.4632 0.0000e+00
      0.285      0.001     4.5204     55.950    115.978 119.394308     0.3392 1.7203e+03     0.6345      0.279      0.404    26.4634 0.0000e+00
      0.286      0.001     4.5067     55.854    115.982 119.398018     0.3311 2.0132e+03     0.6176      0.280      0.406    26.4634 0.0000e+00
      0.288      0.001     4.4977     55.669    116.032 119.450204     0.3366 2.0302e+03     0.5834      0.283      0.410    26.4644 0.0000e+00
      0.289      0.000     4.5008     55.445    116.059 119.479763     0.3450 1.5160e+03     0.5987      0.285      0.413    26.4661 0.0000e+00
      0.288     -0.001     4.5031     55.219    116.059 119.482663     0.3453 1.2480e+03     0.6307      0.284      0.411    26.4668 0.0000e+00
      0.287     -0.003     4.4948     55.002    116.060 119.485264     0.3403 1.3961e+03     0.6610      0.282      0.408    26.4661 0.0000e+00
      0.286     -0.003     4.4782     54.807    116.083 119.511210     0.3372 1.5677e+03     0.6558      0.282      0.409    26.4663 0.0000e+00
      0.285     -0.003     4.4588     54.654    116.092 119.523620     0.3332 1.6776e+03     0.6031      0.280      0.406    26.4678 0.0000e+00
      0.283     -0.003     4.4408     54.543    116.067 119.498936     0.3353 1.8854e+03     0.6079      0.277      0.401    26.4688 0.0000e+00
      0.283     -0.003     4.4228     54.408    116.054 119.485523     0.3455 1.8216e+03     0.6786      0.276      0.400    26.4694 0.0000e+00
      0.285     -0.003     4.4065     54.218    116.065 119.497827     0.3443 1.2815e+03     0.7031      0.279      0.405    26.4703 0.0000e+00
      0.286     -0.003     4.3932     54.058    116.075 119.511323     0.3373 9.6030e+02     0.6976      0.282      0.408    26.4716 0.0000e+00
      0.283     -0.002     4.3868     54.001    116.072 119.512326     0.3403 1.1878e+03     0.7154      0.279      0.404    26.4723 0.0000e+00
      0.279      0.001     4.3786     54.015    116.067 119.509957     0.3446 1.5403e+03     0.7122      0.273      0.396    26.4717 0.0000e+00
      0.278      0.004     4.3588     54.037    116.039 119.482692     0.3465 1.4456e+03     0.6934      0.272      0.395    26.4721 0.0000e+00
      0.279      0.006     4.3429     54.007    116.009 119.455419     0.3465 1.2413e+03     0.7288      0.274      0.397    26.4741 0.0000e+00
      0.284      0.008     4.3404     53.902    116.003 119.452964     0.3435 1.2196e+03     0.7622      0.278      0.402    26.4757 0.0000e+00
      0.290      0.009     4.3432     53.780    116.000 119.453028     0.3459 1.1046e+03     0.7189      0.286      0.415    26.4768 0.0000e+00
      0.294      0.009     4.3463     53.685    116.001 119.456194     0.3494 9.6621e+02     0.6521      0.291      0.422    26.4778 0.0000e+00
      0.294      0.010     4.3459     53.616    116.034 119.491245     0.3416 8.6886e+02     0.6063      0.288      0.418    26.4788 0.0000e+00
      0.294      0.015     4.3342     53.705    116.073 119.535878     0.3306 8.5391e+02     0.6119      0.288      0.416    26.4806 0.0000e+00
      0.295      0.022     4.3221     54.116    116.047 119.518520     0.3283 9.1766e+02     0.6519      0.290      0.419    26.4828 0.0000e+00
      0.297      0.025     4.3174     54.785    116.010 119.485960     0.3313 9.2191e+02     0.6765      0.289      0.418    26.4835 0.0000e+00
      0.307      0.017     4.3072     55.699    116.026 119.483151     0.3496 7.8837e+02     0.6690      0.296      0.431    26.4825 0.0000e+00
      0.327     -0.004     4.3059     57.380    116.075 119.484531     0.3851 7.0856e+02     0.6646      0.322      0.467    26.4840 0.0000e+00
      0.342     -0.031     4.3428     60.622    116.136 119.502578     0.4049 8.6762e+02     0.6922      0.343      0.498    26.4895 0.0000e+00
      0.334     -0.055     4.4027     65.729    116.199 119.564905     0.3979 1.1233e+03     0.6945      0.340      0.494    26.4958 0.0000e+00
      0.299     -0.069     4.4590     72.019    116.202 119.624396     0.3699 1.5607e+03     0.6572      0.299      0.434    26.4898 0.0000e+00
      0.250     -0.070     4.5680     78.087    116.094 119.608252     0.3267 1.9068e+03     0.6532      0.239      0.346    26.4607 0.0000e+00
      0.215     -0.056     4.8189     82.712    115.987 119.574436     0.2919 1.7390e+03     0.6804      0.199      0.289    26.4360 0.0000e+00
      0.207     -0.030     5.2497     85.389    115.940 119.556605     0.2785 1.4592e+03     0.6770      0.194      0.281    26.4324 0.0000e+00
      0.220     -0.001     5.8019     86.164    115.913 119.529081     0.2773 1.2492e+03     0.6806      0.215      0.310    26.4573 0.0000e+00
      0.238      0.017     6.3210     85.264    115.909 119.514405     0.2769 1.1989e+03     0.6896      0.237      0.343    26.5116 0.0000e+00
      0.253      0.015     6.7000     83.057    115.919 119.515530     0.2825 1.3711e+03     0.6827      0.249      0.361    26.5496 0.0000e+00
      0.262     -0.003     6.9100     80.321    115.945 119.542662     0.2939 1.4255e+03     0.6667      0.261      0.377    26.5577 0.0000e+00
      0.261     -0.023     6.9644     77.946    115.951 119.569698     0.2928 1.1229e+03     0.6337      0.264      0.383    26.5544 0.0000e+00
      0.242     -0.038     6.8880     76.362    115.914 119.569691     0.2948 8.0909e+02     0.6610      0.240      0.346    26.5492 0.0000e+00
      0.216     -0.043     6.6868     75.503    115.841 119.542632     0.3188 9.6839e+02     0.7220      0.209      0.302    26.5440 0.0000e+00
      0.195     -0.039     6.4358     75.025    115.767 119.515367     0.3396 1.1793e+03     0.7197      0.189      0.274    26.5416 0.0000e+00
      0.185     -0.028     6.2345     74.551    115.727 119.512876     0.3388 1.1753e+03     0.6667      0.175      0.254    26.5508 0.0000e+00
      0.186     -0.012     6.1078     73.907    115.702 119.512566     0.3170 1.3021e+03     0.6310      0.182      0.263    26.5695 0.0000e+00
      0.192      0.001     6.0478     73.116    115.690 119.511657     0.2926 1.5047e+03     0.6303      0.191      0.277    26.5913 0.0000e+00
      0.197      0.006     6.0197     72.266    115.679 119.501904     0.2869 1.4688e+03     0.6243      0.194      0.281    26.6140 0.0000e+00
      0.201      0.005     5.9839     71.459    115.708 119.531025     0.2918 1.2485e+03     0.6275      0.198      0.287    26.6323 0.0000e+00
      0.203      0.002     5.9295     70.811    115.766 119.590988     0.2914 1.1473e+03     0.5996      0.201      0.292    26.6425 0.0000e+00
      0.201     -0.001     5.8626     70.361    115.790 119.613203     0.2816 1.1319e+03     0.4936      0.200      0.289    26.6468 0.0000e+00
      0.196     -0.002     5.7926     69.978    115.778 119.595048     0.2772 1.1044e+03     0.4099      0.191      0.276    26.6460 0.0000e+00
      0.193     -0.001     5.7239     69.475    115.764 119.576046     0.2812 1.2247e+03     0.3776      0.186      0.270    26.6445 0.0000e+00
      0.194      0.001     5.6694     68.780    115.777 119.588016     0.2961 1.3315e+03     0.4116      0.189      0.274    26.6460 0.0000e+00
      0.198      0.002     5.6383     67.910    115.795 119.603389     0.3271 1.2926e+03     0.5471      0.194      0.281    26.6454 0.0000e+00
      0.202      0.002     5.6149     66.900    115.825 119.625544     0.3438 1.2416e+03     0.6418      0.198      0.287    26.6417 0.0000e+00
      0.204      0.000     5.5763     65.893    115.857 119.651296     0.3418 1.1322e+03     0.6296      0.201      0.292    26.6391 0.0000e+00
      0.203     -0.003     5.5188     65.116    115.851 119.641981     0.3375 1.1251e+03     0.6061      0.201      0.291    26.6397 0.0000e+00
      0.198     -0.005     5.4495     64.647    115.796 119.581097     0.3355 1.3261e+03     0.6321      0.195      0.281    26.6397 0.0000e+00
      0.193     -0.005     5.3654     64.357    115.751 119.528862     0.3432 1.3447e+03     0.6688      0.187      0.272    26.6343 0.0000e+00
      0.191     -0.004     5.2760     64.078    115.781 119.555931     0.3449 1.0290e+03     0.6381      0.187      0.271    26.6295 0.0000e+00
      0.193     -0.002     5.2111     63.716    115.800 119.567432     0.3387 9.2781e+02     0.5698      0.190      0.275    26.6302 0.0000e+00
      0.194     -0.001     5.1792     63.241    115.782 119.531526     0.3372 1.1936e+03     0.5645      0.191      0.277    26.6284 0.0000e+00
      0.194     -0.004     5.1616     62.654    115.806 119.530916     0.3355 1.1747e+03     0.6084      0.190      0.276    26.6249 0.0000e+00
      0.195     -0.011     5.1414     61.973    115.851 119.560016     0.3433 9.9783e+02     0.6200      0.191      0.277    26.6246 0.0000e+00
      0.195     -0.018     5.1135     61.273    115.903 119.610580     0.3537 1.1531e+03     0.5671      0.194      0.282    26.6221 0.0000e+00
      0.190     -0.024     5.0755     60.713    115.948 119.664944     0.3497 1.3538e+03     0.4835      0.189      0.276    26.6141 0.0000e+00
      0.177     -0.026     5.0297     60.408    115.947 119.671815     0.3462 1.5412e+03     0.4330      0.174      0.252    26.6011 0.0000e+00
      0.164     -0.024     4.9745     60.323    115.898 119.625483     0.3464 1.6861e+03     0.4385      0.159      0.230    26.5912 0.0000e+00
      0.156     -0.016     4.9124     60.309    115.855 119.582088     0.3434 1.6160e+03     0.5153      0.151      0.219    26.5914 0.0000e+00
      0.152     -0.004     4.8630     60.216    115.829 119.556276     0.3449 1.5200e+03     0.6056      0.148      0.214    26.5965 0.0000e+00
      0.154      0.007     4.8395     59.996    115.791 119.517956     0.3472 1.4667e+03     0.6377      0.148      0.215    26.6010 0.0000e+00
      0.161      0.015     4.8378     59.838    116.049 119.800671     0.3445 1.5540e+03     0.6282      0.157      0.226    26.6018 0.0000e+00
      0.171      0.017     4.8415     60.904    116.592 120.451440     0.3468 1.8102e+03     0.5947      0.168      0.244    26.6021 0.0000e+00
      0.179      0.014     4.8356     65.662    116.798 120.840009     0.3573 1.8232e+03     0.5759      0.178      0.258    26.6023 0.0000e+00
      0.183      0.009     4.8149     75.180    116.675 120.884915     0.3597 1.5352e+03     0.6072      0.182      0.264    26.6041 0.0000e+00
      0.182      0.006     4.7856     87.260    116.545 120.858281     0.3493 1.3473e+03     0.6297      0.179      0.261    26.5980 0.0000e+00
      0.177      0.005     4.7730     99.030    116.493 120.859111     0.3531 1.3199e+03     0.6077      0.173      0.251    26.6283 0.0000e+00
      0.174      0.006     5.0867    108.864    116.568 120.963228     0.3800 1.3255e+03     0.5810      0.168      0.244    26.7281 0.0000e+00
      0.176      0.008     5.9408    115.952    116.683 121.094266     0.3967 1.2787e+03     0.5825      0.170      0.247    26.8112 0.0000e+00
      0.184      0.010     6.9913    119.929    116.730 121.147784     0.3989 1.1922e+03     0.6254      0.180      0.261    26.8509 0.0000e+00
      0.192      0.010     7.9622    120.677    116.648 121.064751     0.4073 1.2452e+03     0.7209      0.190      0.275    26.8721 0.0000e+00
      0.195      0.009     8.7706    118.507    116.497 120.908664     0.4118 1.5144e+03     0.8455      0.194      0.281    26.8805 0.0000e+00
      0.193      0.008     9.3414    114.542    116.419 120.829037     0.4096 1.8860e+03     0.8965      0.191      0.277    26.8850 0.0000e+00
      0.191      0.006     9.6640    110.290    116.441 120.852141     0.4149 1.9855e+03     0.8905      0.187      0.270    26.8862 0.0000e+00
      0.191      0.005     9.7199    106.735    116.436 120.847036     0.4065 1.7097e+03     0.8415      0.186      0.271    26.8869 0.0000e+00
      0.193      0.003     9.5127    104.145    116.360 120.767311     0.3690 1.4973e+03     0.7164      0.189      0.274    26.8869 0.0000e+00
      0.198     -0.001     9.1446    102.413    116.301 120.706533     0.3435 1.5079e+03     0.6477      0.194      0.282    26.8875 0.0000e+00
      0.203     -0.008     8.7783    101.263    116.319 120.725925     0.3485 1.4923e+03     0.6297      0.201      0.292    26.8880 0.0000e+00
      0.202     -0.015     8.4913    100.419    116.387 120.797188     0.3693 1.3920e+03     0.5324      0.201      0.292    26.8878 0.0000e+00
      0.193     -0.020     8.2874     99.799    116.472 120.886230     0.3951 1.3818e+03     0.3986      0.191      0.277    26.8877 0.0000e+00
      0.180     -0.022     8.1583     99.432    116.501 120.915998     0.4095 1.4478e+03     0.3515      0.176      0.255    26.8876 0.0000e+00
      0.168     -0.020     8.0758     99.223    116.405 120.816136     0.4130 1.4593e+03     0.3741      0.163      0.236    26.8877 0.0000e+00
      0.163     -0.015     8.0103     99.028    116.360 120.769925     0.4113 1.4040e+03     0.4318      0.157      0.228    26.8883 0.0000e+00
      0.164     -0.006     7.9567     98.858    116.487 120.902815     0.4060 1.3154e+03     0.5343      0.160      0.233    26.8882 0.0000e+00
      0.168      0.004     7.9311     98.777    116.637 121.059000     0.4010 1.2396e+03     0.5829      0.167      0.242    26.8883 0.0000e+00
      0.170      0.011     7.9214     98.763    116.666 121.089865     0.4032 1.2215e+03     0.5729      0.166      0.241    26.8884 0.0000e+00
      0.171      0.015     7.9036     98.802    116.582 121.003215     0.4162 1.3084e+03     0.5857      0.165      0.239    26.8884 0.0000e+00
      0.176      0.016     7.8867     98.895    116.546 120.966057     0.4197 1.4448e+03     0.6352      0.171      0.248    26.8886 0.0000e+00
      0.184      0.016     7.8824     98.974    116.627 121.049762     0.4105 1.4658e+03     0.6554      0.181      0.263    26.8890 0.0000e+00
      0.189      0.016     7.8820     98.993    116.637 121.060558     0.4085 1.3588e+03     0.6236      0.187      0.271    26.8894 0.0000e+00
      0.191      0.016     7.8827     98.953    116.540 120.960193     0.4035 1.2378e+03     0.6290      0.187      0.272    26.8898 0.0000e+00
      0.194      0.013     7.8945     98.872    116.509 120.927390     0.3770 1.1345e+03     0.6170      0.190      0.275    26.8900 0.0000e+00
      0.198      0.009     7.9014     98.792    116.519 120.936721     0.3566 1.0670e+03     0.5820      0.195      0.283    26.8902 0.0000e+00
      0.201      0.004     7.9022     98.750    116.519 120.936626     0.3557 1.0843e+03     0.6182      0.198      0.288    26.8903 0.0000e+00
      0.202     -0.001     7.8995     98.761    116.509 120.926232     0.3672 1.1857e+03     0.6417      0.199      0.289    26.8900 0.0000e+00
      0.201     -0.008     7.8910     98.807    116.464 120.879246     0.3908 1.3142e+03     0.6258      0.198      0.288    26.8896 0.0000e+00
      0.199     -0.018     7.8844     98.858    116.433 120.845885     0.4077 1.3207e+03     0.6320      0.196      0.285    26.8894 0.0000e+00
      0.194     -0.028     7.8795     98.854    116.386 120.795654     0.4147 1.2395e+03     0.6487      0.192      0.278    26.8891 0.0000e+00
      0.186     -0.035     7.8822     98.749    116.343 120.749266     0.4059 1.2654e+03     0.6563      0.184      0.266    26.8889 0.0000e+00
      0.173     -0.036     7.8856     98.621    116.356 120.762366     0.3793 1.3800e+03     0.6547      0.172      0.250    26.8890 0.0000e+00
      0.158     -0.031     7.8916     98.570    116.410 120.817647     0.3628 1.4680e+03     0.6292      0.155      0.224    26.8889 0.0000e+00
      0.144     -0.022     7.8947     98.604    116.527 120.940308     0.3619 1.5011e+03     0.5891      0.138      0.200    26.8883 0.0000e+00
      0.139     -0.012     7.8824     98.677    116.601 121.017945     0.3769 1.5086e+03     0.5817      0.132      0.192    26.8872 0.0000e+00
      0.144     -0.002     7.8689     98.764    116.589 121.006195     0.3974 1.4846e+03     0.6087      0.139      0.202    26.8867 0.0000e+00
      0.153      0.004     7.8648     98.882    116.651 121.071030     0.4017 1.4311e+03     0.6401      0.151      0.219    26.8868 0.0000e+00
      0.158      0.006     7.8696     99.019    116.696 121.119910     0.4029 1.3926e+03     0.6530      0.158      0.228    26.8872 0.0000e+00
      0.158      0.005     7.8762     99.094    116.630 121.051636     0.4024 1.4136e+03     0.6606      0.156      0.227    26.8876 0.0000e+00
      0.155      0.002     7.8820     99.044    116.641 121.063876     0.3957 1.4891e+03     0.6637      0.152      0.221    26.8878 0.0000e+00
      0.151      0.002     7.8912     98.906    116.706 121.131515     0.3998 1.5324e+03     0.6562      0.148      0.214    26.8884 0.0000e+00
      0.151      0.005     7.9048     98.761    116.628 121.051114     0.4098 1.4311e+03     0.6383      0.146      0.212    26.8889 0.0000e+00
      0.153      0.010     7.9140     98.674    116.492 120.910098     0.4031 1.3092e+03     0.6193      0.150      0.218    26.8892 0.0000e+00
      0.158      0.013     7.9075     98.690    116.442 120.858603     0.3976 1.3765e+03     0.6328      0.154      0.223    26.8896 0.0000e+00
      0.164      0.014     7.8941     98.794    116.488 120.905858     0.4116 1.6401e+03     0.6638      0.160      0.232    26.8897 0.0000e+00
      0.170      0.013     7.8811     98.901    116.583 121.004083     0.4164 1.8436e+03     0.6857      0.168      0.243    26.8896 0.0000e+00
      0.174      0.012     7.8721     98.957    116.603 121.023310     0.3860 1.7239e+03     0.6916      0.173      0.250    26.8900 0.0000e+00
      0.174      0.010     7.8740     98.992    116.583 121.001932     0.3481 1.5235e+03     0.7002      0.171      0.248    26.8904 0.0000e+00
      0.173      0.006     7.8850     99.011    116.598 121.018382     0.3400 1.4694e+03     0.6874      0.168      0.244    26.8901 0.0000e+00
      0.175      0.000     7.8966     99.011    116.531 120.949422     0.3399 1.3986e+03     0.6396      0.171      0.248    26.8892 0.0000e+00
      0.178     -0.006     7.8980     99.012    116.436 120.850099     0.3544 1.2945e+03     0.6023      0.175      0.254    26.8888 0.0000e+00
      0.180     -0.008     7.9014     98.979    116.427 120.840407     0.3953 1.3298e+03     0.6143      0.178      0.259    26.8886 0.0000e+00
      0.176     -0.007     7.9042     98.898    116.485 120.900424     0.4098 1.4013e+03     0.6474      0.176      0.254    26.8890 0.0000e+00
      0.166     -0.005     7.9010     98.823    116.544 120.962008     0.3989 1.4275e+03     0.6598      0.162      0.235    26.8896 0.0000e+00
      0.158     -0.007     7.9043     98.817    116.553 120.971265     0.3859 1.5628e+03     0.6614      0.150      0.218    26.8892 0.0000e+00
      0.162     -0.014     7.9020     98.874    116.593 121.012348     0.3644 1.6629e+03     0.6322      0.156      0.226    26.8888 0.0000e+00
      0.172     -0.024     7.8931     98.869    116.631 121.049573     0.3551 1.5375e+03     0.6153      0.170      0.247    26.8888 0.0000e+00
      0.175     -0.032     7.8858     98.713    116.598 121.012173     0.3601 1.4103e+03     0.6283      0.178      0.259    26.8890 0.0000e+00
      0.161     -0.032     7.8837     98.514    116.558 120.969311     0.3563 1.4188e+03     0.6521      0.164      0.238    26.8893 0.0000e+00
      0.132     -0.020     7.8935     98.395    116.530 120.940506     0.3438 1.4662e+03     0.6636      0.129      0.187    26.8891 0.0000e+00
      0.104     -0.002     7.8980     98.351    116.525 120.936665     0.3390 1.5097e+03     0.6296      0.094      0.137    26.8879 0.0000e+00
      0.099      0.014     7.8803     98.364    116.512 120.922870     0.3420 1.5757e+03     0.6182      0.082      0.119    26.8862 0.0000e+00
      0.128      0.024     7.8594     98.436    116.499 120.910107     0.3361 1.7835e+03     0.6295      0.119      0.171    26.8856 0.0000e+00
      0.171      0.029     7.8522     98.565    116.506 120.918742     0.3289 1.9851e+03     0.6280      0.178      0.257    26.8860 0.0000e+00
      0.192      0.029     7.8490     98.765    116.479 120.890885     0.3332 1.8740e+03     0.6345      0.202      0.293    26.8865 0.0000e+00
      0.179      0.028     7.8493     99.008    116.435 120.846078     0.3447 1.6288e+03     0.6402      0.179      0.260    26.8866 0.0000e+00
      0.155      0.031     7.8559     99.197    116.444 120.854344     0.3550 1.5515e+03     0.6279      0.144      0.209    26.8868 0.0000e+00
      0.147      0.043     7.8650     99.280    116.512 120.922626     0.3533 1.5062e+03     0.6227      0.134      0.195    26.8871 0.0000e+00
      0.163      0.064     7.8812     99.286    116.515 120.921519     0.3503 1.4477e+03     0.6470      0.153      0.222    26.8871 0.0000e+00
      0.200      0.086     7.9046     99.233    116.440 120.840940     0.3531 1.4285e+03     0.6814      0.192      0.279    26.8873 0.0000e+00
      0.244      0.100     7.9217     99.160    116.435 120.834875     0.3355 1.2711e+03     0.7636      0.243      0.353    26.8878 0.0000e+00
      0.280      0.104     7.9257     99.119    116.514 120.916387     0.3018 1.0135e+03     0.8854      0.281      0.407    26.8868 0.0000e+00
      0.301      0.099     7.9274     99.091    116.537 120.939957     0.2842 9.0667e+02     0.9519      0.299      0.432    26.8842 0.0000e+00
      0.312      0.092     7.9220     99.049    116.514 120.915269     0.2789 1.1170e+03     0.9494      0.305      0.442    26.8829 0.0000e+00
      0.325      0.084     7.9135     99.016    116.558 120.958858     0.2805 1.6563e+03     0.8555      0.314      0.456    26.8824 0.0000e+00
      0.350      0.079     7.9120     99.007    116.589 120.989622     0.2868 1.9393e+03     0.7093      0.341      0.495    26.8824 0.0000e+00
      0.381      0.077     7.9110     99.008    116.548 120.946260     0.2855 1.6783e+03     0.6574      0.375      0.544    26.8825 0.0000e+00
      0.407      0.076     7.9061     99.026    116.513 120.911931     0.2819 1.4882e+03     0.6753      0.405      0.586    26.8820 0.0000e+00
      0.422      0.073     7.9030     99.061    116.513 120.915527     0.2870 1.4914e+03     0.7201      0.417      0.604    26.8812 0.0000e+00
      0.430      0.068     7.9035     99.067    116.516 120.921554     0.3040 1.4085e+03     0.8215      0.419      0.607    26.8807 0.0000e+00
      0.444      0.063     7.9034     99.037    116.509 120.916612     0.3227 1.3443e+03     0.9048      0.434      0.629    26.8806 0.0000e+00
      0.464      0.061     7.9036     99.054    116.515 120.923964     0.3396 1.4337e+03     0.9038      0.456      0.660    26.8814 0.0000e+00
      0.482      0.063     7.9085     99.129    116.532 120.942256     0.3522 1.2817e+03     0.8091      0.473      0.686    26.8830 0.0000e+00
      0.499      0.066     7.9104     99.149    116.523 120.933193     0.3542 9.2137e+02     0.6871      0.490      0.710    26.8844 0.0000e+00
      0.514      0.067     7.9029     99.073    116.474 120.882574     0.3458 9.3150e+02     0.6300      0.504      0.730    26.8853 0.0000e+00
      0.529      0.066     7.9035     98.985    116.401 120.807589     0.3369 1.1420e+03     0.6340      0.518      0.752    26.8860 0.0000e+00
      0.546      0.063     7.9149     98.961    116.371 120.776687     0.3423 1.0570e+03     0.6316      0.534      0.776    26.8862 0.0000e+00
      0.566      0.059     7.9178     98.941    116.376 120.781724     0.3507 8.1911e+02     0.6014      0.556      0.806    26.8861 0.0000e+00
      0.584      0.055     7.9085     98.890    116.394 120.800294     0.3511 7.3765e+02     0.6127      0.576      0.835    26.8862 0.0000e+00
      0.596      0.051     7.8974     98.891    116.457 120.864831     0.3479 7.1782e+02     0.6655      0.587      0.851    26.8858 0.0000e+00
      0.603      0.049     7.8991     98.969    116.473 120.880090     0.3460 7.7975e+02     0.6903      0.591      0.857    26.8860 0.0000e+00
      0.612      0.049     7.9005     99.084    116.444 120.848382     0.3450 9.1114e+02     0.6719      0.599      0.868    26.8864 0.0000e+00
      0.624      0.050     7.8903     99.172    116.552 120.958818     0.3451 9.4535e+02     0.6491      0.613      0.888    26.8863 0.0000e+00
      0.639      0.054     7.8913     99.156    116.648 121.056048     0.3481 8.4776e+02     0.6547      0.626      0.907    26.8860 0.0000e+00
      0.656      0.058     7.8990     99.071    116.597 121.001045     0.3460 6.9849e+02     0.6709      0.643      0.933    26.8854 0.0000e+00
      0.672      0.060     7.9088     99.009    116.574 120.975735     0.3458 6.7629e+02     0.6730      0.660      0.957    26.8849 0.0000e+00
      0.687      0.063     7.9204     98.951    116.621 121.022803     0.3546 7.9161e+02     0.6470      0.674      0.976    26.8839 0.0000e+00
      0.701      0.064     7.9179     98.869    116.624 121.024573     0.3570 9.7355e+02     0.6308      0.689      0.999    26.8831 0.0000e+00
      0.716      0.064     7.9061     98.839    116.532 120.928930     0.3486 1.0059e+03     0.6481      0.701      1.018    26.8823 0.0000e+00
      0.735      0.062     7.9031     98.900    116.493 120.889312     0.3477 7.8619e+02     0.6510      0.719      1.043    26.8815 0.0000e+00
      0.756      0.059     7.9014     99.015    116.488 120.886536     0.3554 6.5925e+02     0.6314      0.743      1.078    26.8807 0.0000e+00
      0.773      0.055     7.8901     99.107    116.496 120.895367     0.3545 8.0223e+02     0.6163      0.761      1.104    26.8802 0.0000e+00
      0.784      0.051     7.8870     99.117    116.527 120.927900     0.3455 9.1967e+02     0.6058      0.769      1.116    26.8801 0.0000e+00
      0.791      0.046     7.8936     99.112    116.471 120.870713     0.3418 7.9161e+02     0.6073      0.775      1.124    26.8805 0.0000e+00
      0.800      0.043     7.9041     99.150    116.419 120.817681     0.3444 6.6396e+02     0.6348      0.783      1.136    26.8814 0.0000e+00
      0.812      0.044     7.9150     99.103    116.433 120.832251     0.3429 6.8340e+02     0.6628      0.796      1.154    26.8819 0.0000e+00
      0.825      0.049     7.9128     98.906    116.509 120.910491     0.3404 8.1733e+02     0.6718      0.811      1.176    26.8820 0.0000e+00
      0.835      0.056     7.9078     98.715    116.609 121.013523     0.3403 8.9626e+02     0.6756      0.819      1.187    26.8823 0.0000e+00
      0.847      0.063     7.9176     98.663    116.585 120.986884     0.3423 8.1732e+02     0.6751      0.828      1.200    26.8825 0.0000e+00
      0.866      0.068     7.9179     98.748    116.533 120.929371     0.3469 7.4361e+02     0.6651      0.848      1.230    26.8825 0.0000e+00
      0.887      0.071     7.8940     98.878    116.539 120.931878     0.3442 6.7169e+02     0.6579      0.870      1.261    26.8828 0.0000e+00
      0.908      0.071     7.8748     98.914    116.492 120.880803     0.3443 6.1844e+02     0.6562      0.890      1.290    26.8825 0.0000e+00
      0.928      0.069     7.8721     98.884    116.534 120.925574     0.3567 6.3422e+02     0.6449      0.910      1.321    26.8818 0.0000e+00
      0.946      0.065     7.8803     98.935    116.666 121.064033     0.3635 7.1707e+02     0.6243      0.930      1.349    26.8804 0.0000e+00
      0.960      0.062     7.8976     98.974    116.656 121.054602     0.3668 8.2472e+02     0.6123      0.943      1.367    26.8779 0.0000e+00
      0.971      0.060     7.9012     98.875    116.619 121.016137     0.3701 8.4381e+02     0.6028      0.950      1.379    26.8762 0.0000e+00
      0.984      0.059     7.8880     98.780    116.610 121.008130     0.3603 8.4708e+02     0.5791      0.964      1.398    26.8775 0.0000e+00
      1.001      0.059     7.8979     98.795    116.562 120.957785     0.3431 8.0031e+02     0.5664      0.982      1.424    26.8788 0.0000e+00
      1.020      0.061     7.9091     98.871    116.558 120.952988     0.3356 6.5473e+02     0.5863      1.001      1.452    26.8786 0.0000e+00
      1.036      0.063     7.8915     98.945    116.557 120.950121     0.3393 6.2177e+02     0.6473      1.017      1.476    26.8790 0.0000e+00
      1.049      0.064     7.8809     98.927    116.531 120.923120     0.3439 6.7293e+02     0.6860      1.028      1.491    26.8795 0.0000e+00
      1.064      0.064     7.8859     98.765    116.508 120.899298     0.3475 6.9636e+02     0.6425      1.042      1.511    26.8793 0.0000e+00
      1.082      0.064     7.8924     98.588    116.477 120.866669     0.3486 7.5952e+02     0.6023      1.060      1.538    26.8786 0.0000e+00
      1.101      0.065     7.9012     98.526    116.480 120.869571     0.3483 7.9269e+02     0.6116      1.081      1.568    26.8780 0.0000e+00
      1.117      0.066     7.9038     98.519    116.476 120.866194     0.3530 7.7678e+02     0.6173      1.097      1.592    26.8778 0.0000e+00
      1.132      0.067     7.8851     98.508    116.435 120.825835     0.3541 7.8773e+02     0.6033      1.109      1.608    26.8777 0.0000e+00
      1.147      0.066     7.8647     98.568    116.400 120.790767     0.3523 7.2882e+02     0.6134      1.124      1.630    26.8777 0.0000e+00
      1.166      0.066     7.8646     98.777    116.391 120.783165     0.3660 6.7036e+02     0.6369      1.144      1.659    26.8777 0.0000e+00
      1.185      0.067     7.8665     99.077    116.474 120.870306     0.3895 7.3147e+02     0.6462      1.163      1.687    26.8779 0.0000e+00
      1.202      0.071     7.8618     99.333    116.558 120.957851     0.4029 7.7847e+02     0.6576      1.179      1.711    26.8788 0.0000e+00
      1.217      0.073     7.8633     99.517    116.488 120.886929     0.4068 7.0776e+02     0.6712      1.193      1.730    26.8798 0.0000e+00
      1.234      0.073     7.8816     99.648    116.433 120.831144     0.4014 6.4204e+02     0.7082      1.208      1.752    26.8804 0.0000e+00
      1.256      0.070     7.9119     99.673    116.496 120.897112     0.3899 6.6097e+02     0.7967      1.229      1.784    26.8805 0.0000e+00
      1.280      0.064     7.9319     99.547    116.532 120.934398     0.3886 6.6945e+02     0.8824      1.257      1.824    26.8809 0.0000e+00
      1.300      0.057     7.9443     99.352    116.540 120.940994     0.4032 6.7315e+02     0.9202      1.277      1.854    26.8819 0.0000e+00
      1.311      0.049     7.9573     99.207    116.575 120.976859     0.4273 7.4441e+02     0.8762      1.288      1.867    26.8823 0.0000e+00
      1.317      0.042     7.9618     99.097    116.558 120.958860     0.4467 7.7337e+02     0.7285      1.292      1.873    26.8823 0.0000e+00
      1.322      0.038     7.9489     98.968    116.529 120.927950     0.4551 6.8776e+02     0.6104      1.295      1.878    26.8824 0.0000e+00
      1.331      0.039     7.9275     98.802    116.549 120.944106     0.4604 6.6381e+02     0.6163      1.305      1.893    26.8821 0.0000e+00
      1.341      0.044     7.9186     98.646    116.563 120.949610     0.4678 6.8330e+02     0.6967      1.315      1.907    26.8816 0.0000e+00
      1.354      0.049     7.9112     98.587    116.551 120.926285     0.4748 6.4857e+02     0.7923      1.326      1.923    26.8816 0.0000e+00
      1.369      0.054     7.9015     98.569    116.503 120.866651     0.4756 5.9758e+02     0.8793      1.341      1.946    26.8814 0.0000e+00
      1.385      0.058     7.8881     98.484    116.489 120.842322     0.4677 5.6955e+02     0.9244      1.358      1.970    26.8796 0.0000e+00
      1.401      0.059     7.8707     98.385    116.491 120.836697     0.4757 5.8976e+02     0.9599      1.375      1.994    26.8752 0.0000e+00
      1.415      0.056     7.8695     98.398    116.460 120.798621     0.5114 6.0443e+02     1.0683      1.386      2.011    26.8700 0.0000e+00
      1.430      0.050     7.8746     98.512    116.452 120.791104     0.5351 6.1274e+02     1.1708      1.400      2.031    26.8661 0.0000e+00
      1.447      0.041     7.8652     98.610    116.532 120.882197     0.5284 6.0429e+02     1.1691      1.421      2.061    26.8623 0.0000e+00
      1.459      0.034     7.8522     98.593    116.583 120.945302     0.5165 5.5131e+02     1.0824      1.436      2.081    26.8583 0.0000e+00
      1.463      0.029     7.8548     98.458    116.507 120.872169     0.5216 5.0979e+02     0.9809      1.436      2.083    26.8555 0.0000e+00
      1.463      0.028     7.8684     98.353    116.389 120.748108     0.5297 4.9704e+02     0.9024      1.434      2.080    26.8556 0.0000e+00
      1.464      0.031     7.8782     98.379    116.326 120.672789     0.5277 5.1143e+02     0.8553      1.434      2.080    26.8602 0.0000e+00
      1.470      0.036     7.8776     98.429    116.440 120.779808     0.5317 5.4872e+02     0.8917      1.438      2.087    26.8654 0.0000e+00
      1.485      0.043     7.8603     98.369    116.545 120.882733     0.5350 5.6430e+02     0.9652      1.455      2.111    26.8685 0.0000e+00
      1.503      0.053     7.8470     98.241    116.498 120.826129     0.5325 5.3130e+02     0.9541      1.476      2.141    26.8680 0.0000e+00
      1.517      0.061     7.8553     98.182    116.463 120.777359     0.5371 5.2416e+02     0.8942      1.490      2.160    26.8617 0.0000e+00
      1.530      0.066     7.8656     98.232    116.469 120.770389     0.5466 5.6559e+02     0.9274      1.500      2.175    26.8560 0.0000e+00
      1.546      0.069     7.8590     98.302    116.451 120.741841     0.5612 5.6273e+02     1.0466      1.513      2.195    26.8550 0.0000e+00
      1.567      0.070     7.8432     98.274    116.421 120.704948     0.5742 5.3158e+02     1.1336      1.536      2.227    26.8524 0.0000e+00
      1.589      0.074     7.8389     98.173    116.452 120.733478     0.5739 5.2508e+02     1.1557      1.560      2.262    26.8455 0.0000e+00
      1.608      0.080     7.8461     98.101    116.468 120.745806     0.5666 5.3055e+02     1.1425      1.579      2.290    26.8394 0.0000e+00
      1.624      0.085     7.8580     98.067    116.381 120.649408     0.5633 5.3218e+02     1.1460      1.593      2.310    26.8358 0.0000e+00
      1.642      0.087     7.8544     97.991    116.330 120.590841     0.5607 5.0993e+02     1.1630      1.607      2.331    26.8331 0.0000e+00
      1.667      0.086     7.8419     97.825    116.392 120.651410     0.5609 4.7660e+02     1.1427      1.631      2.365    26.8317 0.0000e+00
      1.698      0.083     7.8366     97.649    116.442 120.699796     0.5658 4.7856e+02     1.1066      1.666      2.417    26.8304 0.0000e+00
      1.726      0.079     7.8370     97.529    116.377 120.630324     0.5674 5.0659e+02     1.1037      1.698      2.462    26.8271 0.0000e+00
      1.742      0.073     7.8347     97.449    116.377 120.629743     0.5720 5.1132e+02     1.1421      1.712      2.482    26.8244 0.0000e+00
      1.752      0.062     7.8167     97.356    116.504 120.760956     0.5779 4.8933e+02     1.1937      1.717      2.491    26.8230 0.0000e+00
      1.766      0.051     7.8013     97.247    116.525 120.784734     0.5777 4.6780e+02     1.2130      1.729      2.509    26.8219 0.0000e+00
      1.782      0.043     7.7923     97.190    116.454 120.712660     0.5790 4.6236e+02     1.1693      1.751      2.538    26.8210 0.0000e+00
      1.794      0.039     7.7880     97.221    116.382 120.639656     0.5845 4.8304e+02     1.1106      1.761      2.554    26.8204 0.0000e+00
      1.799      0.039     7.7819     97.363    116.327 120.583995     0.5835 5.1282e+02     1.1211      1.764      2.559    26.8203 0.0000e+00
      1.804      0.040     7.7688     97.581    116.327 120.585229     0.5752 5.0967e+02     1.2275      1.768      2.563    26.8212 0.0000e+00
      1.813      0.043     7.7645     97.756    116.396 120.654576     0.5719 4.7872e+02     1.3332      1.775      2.574    26.8219 0.0000e+00
      1.826      0.051     7.7656     97.844    116.483 120.740512     0.5778 4.5798e+02     1.3690      1.791      2.598    26.8225 0.0000e+00
      1.840      0.061     7.7767     97.903    116.485 120.737746     0.5771 4.6388e+02     1.3856      1.805      2.617    26.8235 0.0000e+00
      1.855      0.069     7.7996     97.915    116.441 120.689309     0.5637 4.6481e+02     1.3278      1.817      2.635    26.8239 0.0000e+00
      1.874      0.071     7.8154     97.830    116.387 120.632217     0.5637 4.5881e+02     1.2197      1.837      2.663    26.8236 0.0000e+00
      1.899      0.067     7.8188     97.705    116.283 120.524806     0.5765 4.7485e+02     1.1774      1.861      2.698    26.8210 0.0000e+00
      1.924      0.060     7.8245     97.580    116.241 120.481707     0.5790 4.6348e+02     1.1596      1.891      2.742    26.8184 0.0000e+00
      1.941      0.052     7.8299     97.443    116.278 120.520279     0.5771 4.2241e+02     1.1417      1.910      2.770    26.8178 0.0000e+00
      1.946      0.044     7.8189     97.323    116.338 120.582015     0.5799 4.1476e+02     1.1329      1.910      2.770    26.8170 0.0000e+00
      1.947      0.037     7.8077     97.266    116.436 120.682609     0.5778 4.4202e+02     1.1224      1.907      2.765    26.8169 0.0000e+00
      1.953      0.032     7.7999     97.299    116.532 120.781832     0.5685 4.5495e+02     1.1516      1.914      2.775    26.8175 0.0000e+00
      1.965      0.030     7.7866     97.410    116.510 120.758792     0.5637 4.3097e+02     1.2106      1.928      2.795    26.8177 0.0000e+00
      1.978      0.031     7.7760     97.508    116.365 120.608618     0.5716 4.2587e+02     1.2183      1.940      2.814    26.8178 0.0000e+00
      1.988      0.031     7.7709     97.523    116.294 120.534550     0.5863 4.5252e+02     1.1762      1.951      2.830    26.8172 0.0000e+00
      1.993      0.031     7.7728     97.529    116.369 120.613375     0.5848 4.4622e+02     1.1482      1.955      2.836    26.8168 0.0000e+00
      1.996      0.032     7.7851     97.599    116.429 120.675165     0.5712 4.2398e+02     1.1541      1.955      2.836    26.8169 0.0000e+00
      2.002      0.036     7.7969     97.647    116.423 120.667904     0.5692 4.2123e+02     1.1440      1.961      2.845    26.8169 0.0000e+00
      2.012      0.041     7.7942     97.598    116.418 120.661965     0.5776 4.2854e+02     1.1296      1.972      2.860    26.8170 0.0000e+00
      2.025      0.047     7.7904     97.511    116.362 120.603349     0.5779 4.3684e+02     1.1523      1.984      2.877    26.8173 0.0000e+00
      2.041      0.053     7.8010     97.456    116.334 120.572930     0.5636 4.2686e+02     1.1439      2.002      2.903    26.8174 0.0000e+00
      2.055      0.059     7.8082     97.445    116.396 120.635142     0.5609 4.1453e+02     1.1305      2.018      2.926    26.8164 0.0000e+00
      2.067      0.064     7.8008     97.438    116.434 120.673601     0.5715 4.1343e+02     1.1610      2.026      2.937    26.8163 0.0000e+00
      2.081      0.067     7.7916     97.366    116.392 120.628763     0.5697 4.1491e+02     1.1702      2.039      2.958    26.8162 0.0000e+00
      2.101      0.069     7.7873     97.225    115.877 120.093005     0.5653 4.0980e+02     1.1729      2.060      2.987    26.8153 0.0000e+00
      2.124      0.071     7.7875     97.112    110.583 114.604969     0.5704 3.9638e+02     1.1930      2.083      3.021    26.8146 0.0000e+00
      2.144      0.072     7.7897     97.114     52.892  54.818962     0.5709 3.9225e+02     1.1739      2.105      3.053    26.8146 0.0000e+00
      2.161      0.072     7.7851     97.233   -582.332-603.456118     0.5710 3.9402e+02     1.1478      2.120      3.074    26.8136 0.0000e+00
      2.177      0.068     7.7697     97.412  -1164.670 -1.207e+03     0.5890 3.8673e+02     1.1515      2.135      3.096    26.8124 0.0000e+00
      2.194      0.061     7.7577     97.577   -582.317-603.160156     0.6153 3.8063e+02     1.1503      2.152      3.121    26.8123 0.0000e+00
      2.212      0.053     7.7585     97.696     52.945  54.879709     0.6291 3.8446e+02     1.1335      2.169      3.146    26.8110 0.0000e+00
      2.229      0.045     7.7700     97.754    110.704 114.727608     0.6346 3.8656e+02     1.1200      2.188      3.173    26.8105 0.0000e+00
      2.239      0.037     7.7889     97.717    115.954 120.164929     0.6207 3.7834e+02     1.1242      2.199      3.189    26.8116 0.0000e+00
      2.243      0.031     7.8008     97.609    116.395 120.621864     0.5834 3.7021e+02     1.1152      2.201      3.192    26.8122 0.0000e+00
      2.245      0.028     7.8089     97.468    116.433 120.661533     0.5649 3.7457e+02     1.1146      2.202      3.194    26.8117 0.0000e+00
      2.249      0.028     7.8174     97.343    116.419 120.644558     0.5693 3.9079e+02     1.1167      2.205      3.198    26.8100 0.0000e+00
      2.257      0.032     7.8121     97.317    116.340 120.553009     0.5678 3.9234e+02     1.1069      2.212      3.209    26.8090 0.0000e+00
      2.268      0.037     7.8028     97.386    116.312 120.509311     0.5636 3.7672e+02     1.1335      2.224      3.226    26.8091 0.0000e+00
      2.280      0.041     7.7912     97.477    116.339 120.525351     0.5709 3.7355e+02     1.1639      2.236      3.243    26.8097 0.0000e+00
      2.292      0.043     7.7765     97.532    116.294 120.474151     0.5786 3.6741e+02     1.1645      2.247      3.259    26.8098 0.0000e+00
      2.304      0.044     7.7761     97.491    116.259 120.435797     0.5876 3.6784e+02     1.1413      2.260      3.277    26.8051 0.0000e+00
      2.315      0.048     7.7854     97.280    116.292 120.470775     0.6099 3.7868e+02     1.1234      2.272      3.295    26.7970 0.0000e+00
      2.325      0.053     7.7949     96.957    116.307 120.487911     0.6224 3.7016e+02     1.1197      2.280      3.306    26.7920 0.0000e+00
      2.335      0.058     7.8002     96.673    116.323 120.506601     0.6173 3.6703e+02     1.0967      2.287      3.316    26.7904 0.0000e+00
      2.351      0.063     7.8009     96.461    116.373 120.560364     0.6176 3.6863e+02     1.1543      2.303      3.339    26.7899 0.0000e+00
      2.373      0.068     7.7832     96.323    116.403 120.592405     0.6262 3.5354e+02     1.3016      2.327      3.375    26.7901 0.0000e+00
      2.394      0.068     7.7487     96.277    116.432 120.621239     0.6259 3.4859e+02     1.3674      2.348      3.406    26.7913 0.0000e+00
      2.413      0.065     7.7280     96.287    116.447 120.636211     0.6219 3.5406e+02     1.3651      2.366      3.431    26.7921 0.0000e+00
      2.430      0.058     7.7110     96.346    116.448 120.637033     0.6300 3.4599e+02     1.3774      2.385      3.458    26.7927 0.0000e+00
      2.445      0.051     7.6974     96.413    116.443 120.631182     0.6381 3.3542e+02     1.3791      2.399      3.480    26.7931 0.0000e+00
      2.454      0.044     7.6973     96.430    116.380 120.565467     0.6421 3.3332e+02     1.3847      2.408      3.492    26.7928 0.0000e+00
      2.460      0.039     7.6965     96.421    116.340 120.524408     0.6435 3.3403e+02     1.4108      2.411      3.497    26.7925 0.0000e+00
      2.469      0.035     7.7023     96.395    116.360 120.543907     0.6379 3.3385e+02     1.3866      2.420      3.509    26.7924 0.0000e+00
      2.479      0.034     7.7116     96.360    116.345 120.528448     0.6426 3.3179e+02     1.3313      2.432      3.528    26.7924 0.0000e+00
      2.489      0.034     7.7099     96.398    116.292 120.473886     0.6662 3.3224e+02     1.3255      2.442      3.541    26.7919 0.0000e+00
      2.496      0.033     7.7097     96.546    116.248 120.429751     0.6891 3.3092e+02     1.3520      2.448      3.550    26.7914 0.0000e+00
      2.505      0.031     7.7088     96.736    116.223 120.403967     0.6941 3.2060e+02     1.3771      2.455      3.562    26.7913 0.0000e+00
      2.514      0.029     7.7018     96.868    116.253 120.434910     0.6745 3.1873e+02     1.3885      2.467      3.577    26.7916 0.0000e+00
      2.521      0.027     7.7035     96.901    116.346 120.531110     0.6430 3.2798e+02     1.3867      2.474      3.587    26.7917 0.0000e+00
      2.526      0.027     7.7180     96.892    116.425 120.612400     0.6260 3.2744e+02     1.3892      2.476      3.590    26.7920 0.0000e+00
      2.531      0.029     7.7364     96.887    116.415 120.599451     0.6243 3.1932e+02     1.3848      2.481      3.598    26.7922 0.0000e+00
      2.538      0.034     7.7491     96.843    116.331 120.510934     0.6228 3.1397e+02     1.3680      2.489      3.609    26.7923 0.0000e+00
      2.546      0.042     7.7486     96.763    116.321 120.496859     0.6248 3.1571e+02     1.3571      2.497      3.621    26.7924 0.0000e+00
      2.555      0.052     7.7454     96.748    116.392 120.565640     0.6322 3.1761e+02     1.3563      2.505      3.632    26.7919 0.0000e+00
      2.568      0.062     7.7484     96.843    116.488 120.660620     0.6333 3.1025e+02     1.3591      2.516      3.649    26.7912 0.0000e+00
      2.588      0.069     7.7453     96.966    116.584 120.758724     0.6127 3.0522e+02     1.3560      2.537      3.680    26.7907 0.0000e+00
      2.612      0.072     7.7347     97.017    116.554 120.728885     0.5820 3.0155e+02     1.3528      2.563      3.717    26.7892 0.0000e+00
      2.635      0.069     7.7318     96.976    116.467 120.640811     0.5743 2.9778e+02     1.3547      2.583      3.747    26.7861 0.0000e+00
      2.655      0.061     7.7437     96.909    116.407 120.580364     0.5804 2.9914e+02     1.3787      2.605      3.777    26.7838 0.0000e+00
      2.670      0.049     7.7564     96.834    116.368 120.543578     0.5949 2.9306e+02     1.4038      2.621      3.802    26.7836 0.0000e+00
      2.679      0.038     7.7618     96.719    116.423 120.605192     0.6197 2.8546e+02     1.4174      2.629      3.813    26.7848 0.0000e+00
      2.683      0.028     7.7546     96.590    116.456 120.643399     0.6284 2.9451e+02     1.4407      2.631      3.816    26.7855 0.0000e+00
      2.686      0.022     7.7485     96.532    116.406 120.596392     0.6229 3.0134e+02     1.4443      2.634      3.820    26.7862 0.0000e+00
      2.690      0.019     7.7450     96.587    116.389 120.582389     0.6214 2.8461e+02     1.4272      2.637      3.825    26.7878 0.0000e+00
      2.695      0.018     7.7341     96.695    116.412 120.610485     0.6280 2.7246e+02     1.4059      2.642      3.832    26.7897 0.0000e+00
      2.701      0.017     7.7210     96.781    116.462 120.663332     0.6340 2.7707e+02     1.3920      2.650      3.843    26.7914 0.0000e+00
      2.707      0.016     7.7135     96.862    116.474 120.675804     0.6334 2.7993e+02     1.3971      2.656      3.852    26.7934 0.0000e+00
      2.711      0.016     7.7207     97.015    116.424 120.624897     0.6382 2.7758e+02     1.3985      2.660      3.858    26.7954 0.0000e+00
      2.714      0.017     7.7320     97.265    116.394 120.593364     0.6401 2.7035e+02     1.3741      2.661      3.860    26.7969 0.0000e+00
      2.715      0.021     7.7379     97.483    116.369 120.567314     0.6304 2.6750e+02     1.3426      2.661      3.860    26.7978 0.0000e+00
      2.718      0.029     7.7417     97.526    116.386 120.582707     0.6244 2.7197e+02     1.3610      2.665      3.865    26.7976 0.0000e+00
      2.725      0.040     7.7519     97.451    116.447 120.643085     0.6281 2.7208e+02     1.4598      2.670      3.872    26.7975 0.0000e+00
      2.737      0.050     7.7762     97.386    116.424 120.615398     0.6319 2.6408e+02     1.5758      2.682      3.889    26.7977 0.0000e+00
      2.754      0.058     7.8009     97.322    116.337 120.520716     0.6269 2.5571e+02     1.6308      2.699      3.914    26.7977 0.0000e+00
      2.774      0.064     7.8007     97.183    116.277 120.452994     0.6288 2.5302e+02     1.6437      2.719      3.945    26.7970 0.0000e+00
      2.795      0.067     7.7896     97.012    116.309 120.478500     0.6370 2.4879e+02     1.6283      2.743      3.979    26.7950 0.0000e+00
      2.811      0.069     7.7855     96.890    116.391 120.556317     0.6311 2.4484e+02     1.6167      2.757      3.999    26.7936 0.0000e+00
      2.825      0.069     7.7849     96.808    116.416 120.575538     0.6268 2.4504e+02     1.6405      2.768      4.015    26.7920 0.0000e+00
      2.841      0.069     7.7721     96.763    116.422 120.574493     0.6285 2.4214e+02     1.6419      2.785      4.039    26.7890 0.0000e+00
      2.860      0.068     7.7543     96.741    116.399 120.543680     0.6253 2.3654e+02     1.6333      2.803      4.066    26.7858 0.0000e+00
      2.880      0.067     7.7480     96.714    116.335 120.475740     0.6231 2.3276e+02     1.6395      2.824      4.096    26.7830 0.0000e+00
      2.899      0.065     7.7403     96.682    116.293 120.434968     0.6268 2.3198e+02     1.6489      2.843      4.124    26.7802 0.0000e+00
      2.915      0.062     7.7379     96.598    116.317 120.459871     0.6352 2.2992e+02     1.6776      2.860      4.148    26.7766 0.0000e+00
      2.928      0.059     7.7384     96.393    116.364 120.504067     0.6380 2.2447e+02     1.6781      2.873      4.166    26.7729 0.0000e+00
      2.941      0.056     7.7349     96.105    116.424 120.560167     0.6352 2.2243e+02     1.6205      2.883      4.181    26.7725 0.0000e+00
      2.954      0.054     7.7335     95.816    116.462 120.592608     0.6273 2.2334e+02     1.5994      2.897      4.202    26.7749 0.0000e+00
      2.969      0.053     7.7306     95.585    116.367 120.487136     0.6204 2.2033e+02     1.6280      2.912      4.222    26.7752 0.0000e+00
      2.983      0.054     7.7123     95.467    116.265 120.375993     0.6220 2.1635e+02     1.6231      2.925      4.243    26.7727 0.0000e+00
      2.997      0.059     7.6863     95.446    116.235 120.339886     0.6291 2.1678e+02     1.6094      2.939      4.263    26.7699 0.0000e+00
      3.009      0.069     7.6636     95.463    116.226 120.323330     0.6364 2.1864e+02     1.6335      2.951      4.279    26.7668 0.0000e+00
      3.022      0.082     7.6419     95.471    116.224 120.312183     0.6414 2.1689e+02     1.6403      2.961      4.294    26.7638 0.0000e+00
      3.042      0.092     7.6346     95.448    116.260 120.341473     0.6456 2.1214e+02     1.6233      2.980      4.321    26.7619 0.0000e+00
      3.072      0.097     7.6348     95.390    116.328 120.404688     0.6438 2.0767e+02     1.6338      3.010      4.365    26.7593 0.0000e+00
      3.107      0.095     7.6383     95.363    116.321 120.394575     0.6369 2.0474e+02     1.6296      3.047      4.420    26.7565 0.0000e+00
      3.141      0.087     7.6394     95.463    116.284 120.355580     0.6319 2.0163e+02     1.6061      3.085      4.475    26.7528 0.0000e+00
      3.164      0.076     7.6389     95.663    116.271 120.342353     0.6357 1.9959e+02     1.6254      3.107      4.507    26.7481 0.0000e+00
      3.174      0.066     7.6336     95.901    116.298 120.371034     0.6389 2.0085e+02     1.6565      3.113      4.516    26.7452 0.0000e+00
      3.179      0.060     7.6256     96.112    116.356 120.429591     0.6366 2.0067e+02     1.6394      3.115      4.518    26.7441 0.0000e+00
      3.187      0.061     7.6369     96.179    116.301 120.368416     0.6418 1.9841e+02     1.6243      3.122      4.528    26.7440 0.0000e+00
      3.202      0.066     7.6545     96.044    116.186 120.245107     0.6325 1.9731e+02     1.6448      3.138      4.552    26.7442 0.0000e+00
      3.226      0.073     7.6740     95.805    116.180 120.234325     0.6028 1.9453e+02     1.6470      3.164      4.589    26.7450 0.0000e+00
      3.251      0.078     7.6957     95.610    116.252 120.306239     0.5862 1.9050e+02     1.6170      3.190      4.625    26.7445 0.0000e+00
      3.274      0.078     7.7038     95.525    116.312 120.364486     0.5789 1.8819e+02     1.5915      3.212      4.658    26.7422 0.0000e+00
      3.294      0.074     7.6896     95.539    116.344 120.393034     0.5747 1.8648e+02     1.6474      3.233      4.690    26.7401 0.0000e+00
      3.309      0.068     7.6653     95.632    116.334 120.378632     0.5797 1.8549e+02     1.7772      3.246      4.708    26.7381 0.0000e+00
      3.323      0.062     7.6484     95.791    116.286 120.326724     0.5781 1.8466e+02     1.8566      3.257      4.724    26.7370 0.0000e+00
      3.340      0.054     7.6428     95.981    116.270 120.310967     0.5726 1.8236e+02     1.8521      3.275      4.751    26.7364 0.0000e+00
      3.357      0.048     7.6447     96.129    116.282 120.324496     0.5740 1.7976e+02     1.8265      3.294      4.778    26.7338 0.0000e+00
      3.370      0.044     7.6526     96.153    116.308 120.353926     0.5774 1.7857e+02     1.8212      3.308      4.797    26.7311 0.0000e+00
      3.377      0.042     7.6662     96.024    116.346 120.394029     0.5794 1.7922e+02     1.8572      3.313      4.805    26.7306 0.0000e+00
      3.382      0.041     7.6837     95.813    116.355 120.400216     0.5721 1.7807e+02     1.8836      3.314      4.807    26.7309 0.0000e+00
      3.389      0.040     7.6979     95.641    116.385 120.428732     0.5587 1.7356e+02     1.7970      3.321      4.817    26.7319 0.0000e+00
      3.403      0.041     7.7011     95.583    116.421 120.466033     0.5558 1.7236e+02     1.6687      3.338      4.839    26.7332 0.0000e+00
      3.419      0.045     7.6885     95.656    116.400 120.442048     0.5638 1.7533e+02     1.6372      3.356      4.866    26.7335 0.0000e+00
      3.431      0.051     7.6671     95.804    116.379 120.411504     0.5678 1.7531e+02     1.6565      3.366      4.882    26.7321 0.0000e+00
      3.439      0.058     7.6521     95.919    116.353 120.369487     0.5690 1.7167e+02     1.7641      3.371      4.889    26.7310 0.0000e+00
      3.451      0.065     7.6463     95.895    116.343 120.343158     0.5699 1.6922e+02     1.9775      3.382      4.905    26.7308 0.0000e+00
      3.468      0.073     7.6544     95.753    116.378 120.365906     0.5703 1.6898e+02     2.1077      3.400      4.932    26.7303 0.0000e+00
      3.491      0.080     7.6696     95.631    116.396 120.371734     0.5741 1.6728e+02     2.1366      3.422      4.964    26.7275 0.0000e+00
      3.517      0.083     7.6838     95.597    116.448 120.413605     0.5727 1.6255e+02     2.0876      3.448      5.001    26.7198 0.0000e+00
      3.542      0.079     7.6831     95.629    116.503 120.462981     0.5709 1.5904e+02     1.9615      3.474      5.038    26.7122 0.0000e+00
      3.565      0.070     7.6659     95.712    116.469 120.423182     0.5774 1.5834e+02     1.8814      3.497      5.072    26.7066 0.0000e+00
      3.584      0.062     7.6554     95.833    116.398 120.341553     0.5823 1.5786e+02     1.8745      3.518      5.101    26.7012 0.0000e+00
      3.594      0.059     7.6552     95.926    116.244 120.157929     0.5781 1.5737e+02     1.9129      3.528      5.116    26.6963 0.0000e+00
      3.599      0.059     7.6586     95.917    116.059 119.907773     0.5786 1.5637e+02     2.0019      3.528      5.117    26.6920 0.0000e+00
      3.607      0.062     7.6648     95.838    116.017 119.771755     0.5801 1.5451e+02     2.0921      3.532      5.124    26.6916 0.0000e+00
      3.626      0.063     7.6769     95.784    116.139 119.808837     0.5698 1.5282e+02     2.1457      3.552      5.151    26.6904 0.0000e+00
      3.653      0.062     7.6888     95.760    116.307 119.946839     0.5756 1.5025e+02     2.4092      3.583      5.196    26.6817 0.0000e+00
      3.679      0.061     7.6899     95.685    116.290 119.940062     0.6061 1.4730e+02     2.9082      3.611      5.238    26.6593 0.0000e+00
      3.694      0.063     7.6859     95.551    116.086 119.726921     0.6274 1.4689e+02     3.2013      3.628      5.262    26.6120 0.0000e+00
      3.697      0.068     7.6883     95.464    115.925 119.483697     0.6332 1.4718e+02     3.3093      3.626      5.260    26.5624 0.0000e+00
      3.700      0.073     7.6920     95.422    115.911 119.317630     0.6936 1.4514e+02     4.1798      3.621      5.252    26.5500 0.0000e+00
      3.718      0.078     7.6849     95.252    116.034 119.287141     0.8112 1.4284e+02     5.8305      3.639      5.277    26.5652 0.0000e+00
      3.752      0.081     7.6673     94.811    116.228 119.387566     0.8763 1.4047e+02     6.7539      3.679      5.335    26.5751 0.0000e+00
      3.788      0.081     7.6637     94.079    116.313 119.440672     0.8827 1.3649e+02     6.8646      3.720      5.395    26.5433 0.0000e+00
      3.814      0.075     7.6794     93.185    116.253 119.383678     0.9837 1.3439e+02     7.4434      3.746      5.433    26.4631 0.0000e+00
      3.827      0.061     7.6799     92.295    116.226 119.380362     1.1875 1.3568e+02     8.4990      3.756      5.448    26.3841 0.0000e+00
      3.832      0.045     7.6517     91.499    116.215 119.400615     1.3086 1.3608e+02     9.0877      3.757      5.450    26.3429 0.0000e+00
      3.837      0.032     7.5896     90.861    116.144 119.355850     1.3476 1.3407e+02     9.3417      3.762      5.456    26.3329 0.0000e+00
      3.846      0.024     7.5106     90.479    116.159 119.384679     1.6684 1.3266e+02    11.0898      3.771      5.470    26.3375 0.0000e+00
      3.853      0.019     7.4362     90.476    116.255 119.476444     2.2827 1.3303e+02    14.2248      3.780      5.483    26.3494 0.0000e+00
      3.858      0.015     7.3678     90.835    116.305 119.510693     2.6276 1.3304e+02    15.9350      3.784      5.490    26.3644 0.0000e+00
      3.861      0.012     7.3131     91.340    116.328 119.525996     2.6828 1.3216e+02    16.1807      3.786      5.492    26.3784 0.0000e+00
      3.862      0.008     7.2755     91.802    116.323 119.525076     2.9503 1.3236e+02    17.3673      3.787      5.493    26.3864 0.0000e+00
      3.863      0.006     7.2756     92.172    116.287 119.499579     3.4251 1.3327e+02    19.5712      3.788      5.495    26.3808 0.0000e+00
      3.865      0.004     7.3147     92.463    116.262 119.490489     3.6821 1.3268e+02    20.8203      3.790      5.497    26.3689 0.0000e+00
      3.865      0.003     7.3621     92.727    116.311 119.551569     3.7250 1.3130e+02    21.0024      3.790      5.497    26.3667 0.0000e+00
      3.865      0.003     7.3985     92.968    116.377 119.624398     3.8829 1.3146e+02    21.8424      3.791      5.497    26.3689 0.0000e+00
      3.866      0.003     7.4283     93.152    116.366 119.620968     4.1609 1.3299e+02    23.4572      3.792      5.499    26.3733 0.0000e+00
      3.867      0.002     7.4477     93.317    116.313 119.578303     4.3117 1.3379e+02    24.3902      3.792      5.500    26.3834 0.0000e+00
      3.868      0.002     7.4679     93.531    116.314 119.585897     4.3281 1.3287e+02    24.5401      3.793      5.501    26.3887 0.0000e+00
      3.868      0.002     7.4906     93.768    116.374 119.644609     4.3671 1.3192e+02    24.6857      3.793      5.501    26.3872 0.0000e+00
      3.868      0.001     7.5025     93.906    116.403 119.674454     4.4366 1.3278e+02    24.8460      3.794      5.502    26.3912 0.0000e+00
      3.868      0.001     7.5122     93.837    116.393 119.673985     4.4756 1.3388e+02    24.8990      3.793      5.501    26.3989 0.0000e+00
      3.868      0.001     7.5290     93.578    116.348 119.638964     4.4738 1.3328e+02    24.8465      3.794      5.502    26.4025 0.0000e+00
      3.869      0.001     7.5540     93.280    116.301 119.591991     4.3202 1.3283e+02    24.0735      3.794      5.503    26.3983 0.0000e+00
      3.870      0.001     7.5681     93.002    116.314 119.583371     4.0235 1.3367e+02    22.6598      3.795      5.504    26.3960 0.0000e+00
      3.870     -0.001     7.5627     92.669    116.369 119.602896     3.8515 1.3396e+02    21.8983      3.795      5.504    26.4032 0.0000e+00
      3.870     -0.006     7.5339     92.313    116.399 119.623435     3.7747 1.3352e+02    21.5272      3.795      5.505    26.4086 0.0000e+00
      3.870     -0.018     7.5067     92.108    116.494 119.763494     3.1895 1.3292e+02    18.4131      3.795      5.504    26.4131 0.0000e+00
      3.869     -0.039     7.4914     92.178    116.611 120.000763     2.1252 1.3262e+02    12.8109      3.794      5.503    26.4030 0.0000e+00
      3.864     -0.066     7.4668     92.533    116.543 120.105709     1.5444 1.3429e+02     9.7536      3.791      5.498    26.3778 0.0000e+00
      3.849     -0.092     7.4322     93.162    116.373 120.078001     1.4730 1.3777e+02     9.3271      3.782      5.486    26.3713 0.0000e+00
      3.818     -0.115     7.4095     93.976    116.246 120.006946     1.2364 1.4228e+02     7.8252      3.751      5.441    26.3855 0.0000e+00
      3.771     -0.129     7.4109     94.846    116.175 119.928604     0.8160 1.4735e+02     5.1212      3.697      5.363    26.4331 0.0000e+00
      3.724     -0.131     7.4248     95.653    116.098 119.812682     0.5951 1.5065e+02     3.6189      3.648      5.291    26.5278 0.0000e+00
      3.685     -0.118     7.4687     96.241    116.055 119.696356     0.5771 1.5262e+02     3.4626      3.611      5.237    26.6035 0.0000e+00
      3.655     -0.094     7.5362     96.494    116.071 119.613054     0.5724 1.5542e+02     3.4375      3.581      5.195    26.6205 0.0000e+00
      3.636     -0.064     7.6087     96.364    116.093 119.555422     0.5896 1.5708e+02     3.2455      3.561      5.165    26.6109 0.0000e+00
      3.627     -0.036     7.6815     95.905    116.188 119.613122     0.6205 1.5625e+02     2.9275      3.554      5.154    26.5998 0.0000e+00
      3.626     -0.016     7.7352     95.273    116.283 119.696932     0.6344 1.5490e+02     2.7851      3.555      5.156    26.5693 0.0000e+00
      3.630     -0.002     7.7650     94.615    116.277 119.682260     0.6360 1.5486e+02     2.7950      3.560      5.163    26.5144 0.0000e+00
      3.634      0.006     7.7589     94.027    116.251 119.640288     0.6395 1.5567e+02     3.0125      3.565      5.169    26.4764 0.0000e+00
      3.637      0.006     7.7177     93.567    116.291 119.666757     0.6427 1.5527e+02     3.4233      3.567      5.174    26.4650 0.0000e+00
      3.637     -0.002     7.6636     93.238    116.405 119.797699     0.6397 1.5381e+02     3.6761      3.567      5.173    26.4604 0.0000e+00
      3.638     -0.018     7.6082     92.988    116.483 119.927879     0.6381 1.5342e+02     3.7345      3.567      5.174    26.4594 0.0000e+00
      3.639     -0.042     7.5600     92.822    116.367 119.877012     0.6406 1.5451e+02     3.5804      3.571      5.180    26.4535 0.0000e+00
      3.633     -0.070     7.5246     92.836    116.223 119.796508     0.6349 1.5610e+02     3.2201      3.570      5.176    26.4387 0.0000e+00
      3.612     -0.099     7.4999     93.094    116.218 119.841108     0.6300 1.5948e+02     2.9831      3.548      5.144    26.4437 0.0000e+00
      3.576     -0.126     7.4770     93.558    116.283 119.939007     0.6341 1.6528e+02     2.9476      3.509      5.089    26.4703 0.0000e+00
      3.531     -0.146     7.4550     94.142    116.346 120.025563     0.6231 1.6986e+02     3.0647      3.462      5.023    26.5021 0.0000e+00
      3.486     -0.159     7.4494     94.762    116.305 120.001183     0.5929 1.7321e+02     3.3003      3.418      4.956    26.5342 0.0000e+00
      3.442     -0.164     7.4694     95.358    116.275 119.985236     0.5719 1.7814e+02     3.4614      3.375      4.895    26.5557 0.0000e+00
      3.401     -0.163     7.5072     95.841    116.300 120.037355     0.5689 1.8308e+02     3.5026      3.335      4.838    26.5666 0.0000e+00
      3.362     -0.158     7.5564     96.138    116.298 120.085851     0.5744 1.8753e+02     3.2828      3.297      4.782    26.5745 0.0000e+00
      3.322     -0.144     7.6052     96.293    116.316 120.162524     0.5768 1.9298e+02     2.8295      3.258      4.725    26.5839 0.0000e+00
      3.280     -0.124     7.6551     96.351    116.334 120.214384     0.5722 1.9883e+02     2.5544      3.218      4.667    26.5882 0.0000e+00
      3.240     -0.100     7.6972     96.340    116.345 120.235592     0.5717 2.0374e+02     2.4627      3.173      4.603    26.5944 0.0000e+00
      3.213     -0.076     7.7137     96.275    116.388 120.282580     0.5790 2.0574e+02     2.3389      3.141      4.556    26.6209 0.0000e+00
      3.206     -0.053     7.7211     96.107    116.405 120.305157     0.5824 2.0493e+02     2.1905      3.141      4.556    26.6523 0.0000e+00
      3.209     -0.034     7.7236     95.875    116.395 120.304001     0.5775 2.0344e+02     2.1100      3.150      4.569    26.6658 0.0000e+00
      3.208     -0.021     7.7205     95.744    116.352 120.268623     0.5724 2.0163e+02     2.1207      3.148      4.566    26.6661 0.0000e+00
      3.202     -0.014     7.7191     95.815    116.296 120.218374     0.5720 2.0276e+02     2.2508      3.141      4.555    26.6661 0.0000e+00
      3.195     -0.011     7.7046     96.033    116.378 120.310186     0.5735 2.0723e+02     2.4478      3.134      4.545    26.6685 0.0000e+00
      3.188     -0.007     7.6785     96.241    116.413 120.355835     0.5726 2.0779e+02     2.5456      3.125      4.533    26.6729 0.0000e+00
      3.185     -0.002     7.6642     96.343    116.279 120.224773     0.5788 2.0452e+02     2.5743      3.120      4.526    26.6774 0.0000e+00
      3.189      0.002     7.6715     96.422    116.212 120.157592     0.5965 2.0398e+02     2.8987      3.126      4.534    26.6797 0.0000e+00
      3.196      0.005     7.6941     96.564    116.280 120.225492     0.6130 2.0514e+02     3.5488      3.136      4.548    26.6828 0.0000e+00
      3.200      0.007     7.7140     96.659    116.415 120.363811     0.6221 2.0459e+02     3.9464      3.141      4.556    26.6878 0.0000e+00
      3.200      0.007     7.7182     96.588    116.447 120.397944     0.6289 2.0360e+02     3.9974      3.139      4.553    26.6912 0.0000e+00
      3.197      0.003     7.7189     96.428    116.349 120.297239     0.6342 2.0360e+02     4.2342      3.133      4.544    26.6920 0.0000e+00
      3.198     -0.002     7.7363     96.309    116.294 120.237283     0.6344 2.0335e+02     4.7493      3.135      4.547    26.6902 0.0000e+00
      3.202     -0.005     7.7498     96.250    116.281 120.218562     0.6307 2.0199e+02     5.0763      3.142      4.556    26.6883 0.0000e+00
      3.202     -0.006     7.7393     96.137    116.276 120.207255     0.6330 2.0170e+02     5.1667      3.141      4.557    26.6902 0.0000e+00
      3.197     -0.009     7.7218     95.869    116.309 120.236951     0.6365 2.0159e+02     5.5336      3.135      4.547    26.6916 0.0000e+00
      3.191     -0.016     7.7119     95.565    116.376 120.304835     0.6304 2.0020e+02     6.1820      3.128      4.536    26.6891 0.0000e+00
      3.188     -0.031     7.7113     95.430    116.416 120.346105     0.6289 2.0039e+02     6.5170      3.125      4.532    26.6866 0.0000e+00
      3.187     -0.052     7.7083     95.482    116.398 120.326787     0.6350 2.0247e+02     6.5289      3.127      4.535    26.6842 0.0000e+00
      3.181     -0.078     7.6823     95.600    116.413 120.344046     0.6174 2.0378e+02     6.4288      3.125      4.534    26.6808 0.0000e+00
      3.161     -0.105     7.6492     95.740    116.482 120.418411     0.5809 2.0645e+02     6.1985      3.106      4.506    26.6818 0.0000e+00
      3.124     -0.124     7.6386     95.910    116.473 120.407613     0.5654 2.1397e+02     6.0447      3.068      4.450    26.6826 0.0000e+00
      3.075     -0.129     7.6490     96.062    116.422 120.349873     0.5689 2.2200e+02     6.0111      3.017      4.377    26.6806 0.0000e+00
      3.023     -0.119     7.6589     96.127    116.342 120.265814     0.5894 2.2671e+02     5.5868      2.960      4.295    26.6817 0.0000e+00
      2.983     -0.094     7.6676     96.060    116.216 120.141377     0.6221 2.3042e+02     4.7262      2.916      4.229    26.6847 0.0000e+00
      2.965     -0.061     7.6844     95.915    116.204 120.140980     0.6350 2.3117e+02     4.2223      2.900      4.206    26.6836 0.0000e+00
      2.967     -0.027     7.6981     95.755    116.239 120.192846     0.6323 2.2759e+02     4.1289      2.909      4.220    26.6798 0.0000e+00
      2.976     -0.001     7.7064     95.601    116.251 120.222975     0.6326 2.2739e+02     3.8033      2.919      4.234    26.6787 0.0000e+00
      2.983      0.014     7.6979     95.515    116.314 120.300713     0.6300 2.2928e+02     3.2732      2.924      4.243    26.6814 0.0000e+00
      2.990      0.016     7.6826     95.522    116.387 120.382673     0.6273 2.2539e+02     3.0403      2.933      4.254    26.6868 0.0000e+00
      2.995      0.011     7.6709     95.628    116.463 120.463828     0.6340 2.2247e+02     3.0476      2.938      4.262    26.6942 0.0000e+00
      2.997      0.004     7.6531     95.858    116.460 120.463636     0.6424 2.2476e+02     3.0875      2.940      4.264    26.7024 0.0000e+00
      2.996     -0.001     7.6456     96.111    116.376 120.380348     0.6414 2.2676e+02     3.1789      2.939      4.262    26.7083 0.0000e+00
      2.993     -0.008     7.6467     96.223    116.402 120.411514     0.6316 2.2657e+02     3.2249      2.935      4.257    26.7109 0.0000e+00
      2.989     -0.021     7.6522     96.180    116.418 120.431311     0.6281 2.2568e+02     3.1976      2.931      4.253    26.7110 0.0000e+00
      2.987     -0.043     7.6737     96.083    116.340 120.346946     0.6334 2.2797e+02     3.0211      2.929      4.248    26.7118 0.0000e+00
      2.984     -0.072     7.7010     96.014    116.350 120.346175     0.6346 2.3260e+02     2.7045      2.927      4.246    26.7142 0.0000e+00
      2.973     -0.104     7.7090     96.006    116.434 120.421979     0.6338 2.3542e+02     2.5280      2.924      4.242    26.7160 0.0000e+00
      2.940     -0.134     7.7012     96.016    116.462 120.445159     0.6323 2.4060e+02     2.5350      2.893      4.196    26.7183 0.0000e+00
      2.887     -0.159     7.6918     95.995    116.373 120.353663     0.6340 2.4779e+02     2.7200      2.831      4.106    26.7175 0.0000e+00
      2.829     -0.177     7.6854     95.976    116.290 120.270415     0.6367 2.5193e+02     3.0481      2.771      4.019    26.7106 0.0000e+00
      2.778     -0.188     7.6878     95.986    116.271 120.256939     0.6393 2.5918e+02     3.2408      2.722      3.948    26.7045 0.0000e+00
      2.735     -0.190     7.6910     95.989    116.261 120.258929     0.6392 2.6820e+02     3.2644      2.681      3.887    26.7032 0.0000e+00
      2.693     -0.181     7.6874     96.011    116.347 120.362689     0.6276 2.7560e+02     3.1283      2.644      3.833    26.7039 0.0000e+00
      2.647     -0.162     7.6836     96.104    116.461 120.488631     0.6204 2.8440e+02     2.8991      2.599      3.769    26.7046 0.0000e+00
      2.594     -0.136     7.6876     96.218    116.458 120.486029     0.6211 2.9540e+02     2.7931      2.543      3.689    26.7066 0.0000e+00
      2.545     -0.106     7.6858     96.327    116.440 120.467610     0.6266 3.0735e+02     2.7398      2.488      3.608    26.7125 0.0000e+00
      2.520     -0.073     7.6828     96.450    116.373 120.402310     0.6276 3.0521e+02     2.6326      2.460      3.568    26.7206 0.0000e+00
      2.520     -0.040     7.6933     96.528    116.279 120.310233     0.6246 2.9383e+02     2.5268      2.469      3.582    26.7247 0.0000e+00
      2.529     -0.014     7.7038     96.517    116.339 120.377228     0.6327 2.9409e+02     2.4905      2.481      3.599    26.7230 0.0000e+00
      2.534      0.001     7.7095     96.440    116.418 120.462214     0.6390 3.0164e+02     2.5719      2.486      3.605    26.7221 0.0000e+00
      2.537      0.003     7.7226     96.317    116.404 120.451292     0.6486 3.0090e+02     3.1333      2.489      3.611    26.7244 0.0000e+00
      2.537     -0.001     7.7302     96.199    116.338 120.381569     0.6712 3.0065e+02     4.0943      2.490      3.611    26.7281 0.0000e+00
      2.533     -0.005     7.7266     96.146    116.268 120.301128     0.6864 3.1589e+02     4.6115      2.485      3.605    26.7292 0.0000e+00
      2.528     -0.005     7.7217     96.164    116.272 120.296997     0.6941 3.2190e+02     4.7171      2.478      3.595    26.7297 0.0000e+00
      2.524     -0.003     7.7089     96.182    116.309 120.331603     0.6941 3.0803e+02     5.4748      2.474      3.586    26.7330 0.0000e+00
      2.524     -0.000     7.6976     96.147    116.287 120.310382     0.6694 3.0040e+02     6.8722      2.473      3.588    26.7329 0.0000e+00
      2.528      0.002     7.6935     96.096    116.287 120.313196     0.6382 3.0655e+02     7.6392      2.479      3.595    26.7280 0.0000e+00
      2.532     -0.001     7.6983     96.068    116.335 120.365626     0.6203 3.1070e+02     7.6757      2.483      3.602    26.7234 0.0000e+00
      2.533     -0.013     7.7026     96.034    116.365 120.398763     0.6179 3.1266e+02     7.1081      2.485      3.605    26.7223 0.0000e+00
      2.532     -0.039     7.6970     95.930    116.405 120.441090     0.6266 3.0917e+02     6.0290      2.483      3.602    26.7232 0.0000e+00
      2.529     -0.075     7.6917     95.774    116.429 120.468240     0.6297 2.9790e+02     5.4427      2.482      3.600    26.7247 0.0000e+00
      2.516     -0.115     7.6893     95.644    116.412 120.454270     0.6301 3.0382e+02     5.3411      2.476      3.591    26.7261 0.0000e+00
      2.479     -0.153     7.6905     95.586    116.366 120.408581     0.6308 3.2879e+02     4.7322      2.441      3.541    26.7267 0.0000e+00
      2.421     -0.183     7.6810     95.561    116.416 120.461384     0.6296 3.4334e+02     3.6422      2.375      3.445    26.7268 0.0000e+00
      2.356     -0.202     7.6651     95.538    116.497 120.547164     0.6327 3.4053e+02     3.0449      2.308      3.347    26.7282 0.0000e+00
      2.294     -0.208     7.6535     95.609    116.437 120.491030     0.6344 3.5739e+02     2.9689      2.249      3.261    26.7302 0.0000e+00
      2.237     -0.203     7.6490     95.781    116.404 120.464628     0.6328 3.8419e+02     2.7582      2.190      3.175    26.7308 0.0000e+00
      2.192     -0.186     7.6516     95.959    116.429 120.500733     0.6389 3.7870e+02     2.3512      2.146      3.112    26.7310 0.0000e+00
      2.152     -0.160     7.6428     96.126    116.436 120.518420     0.6471 3.8478e+02     2.0992      2.115      3.067    26.7314 0.0000e+00
      2.107     -0.127     7.6482     96.299    116.449 120.542120     0.6457 4.2550e+02     2.0466      2.068      2.999    26.7340 0.0000e+00
      2.063     -0.092     7.6671     96.444    116.411 120.514521     0.6396 4.3530e+02     1.9892      2.012      2.918    26.7382 0.0000e+00
      2.042     -0.060     7.6795     96.533    116.342 120.457518     0.6339 4.1398e+02     1.8864      1.992      2.890    26.7420 0.0000e+00
      2.043     -0.031     7.6913     96.585    116.272 120.398464     0.6382 4.0803e+02     1.8331      2.002      2.906    26.7468 0.0000e+00
      2.052     -0.007     7.7061     96.647    116.210 120.346071     0.6468 4.0559e+02     1.8598      2.012      2.918    26.7506 0.0000e+00
      2.060      0.007     7.7184     96.751    116.223 120.369607     0.6433 4.0758e+02     1.8320      2.021      2.931    26.7556 0.0000e+00
      2.065      0.008     7.7232     96.843    116.256 120.410274     0.6386 4.1824e+02     1.7378      2.027      2.939    26.7622 0.0000e+00
      2.066      0.003     7.7262     96.924    116.272 120.428626     0.6421 4.1724e+02     1.6813      2.028      2.941    26.7677 0.0000e+00
      2.063     -0.002     7.7269     97.008    116.298 120.455120     0.6436 4.2667e+02     1.6640      2.024      2.936    26.7733 0.0000e+00
      2.058     -0.005     7.7391     96.996    116.299 120.457845     0.6387 4.3470e+02     2.0092      2.017      2.926    26.7783 0.0000e+00
      2.054     -0.006     7.7455     96.881    116.297 120.461571     0.6344 4.1179e+02     2.7310      2.014      2.921    26.7809 0.0000e+00
      2.054     -0.005     7.7485     96.784    116.329 120.500175     0.6349 4.1082e+02     3.1470      2.013      2.920    26.7813 0.0000e+00
      2.055     -0.003     7.7622     96.781    116.342 120.515447     0.6365 4.2673e+02     3.1940      2.015      2.923    26.7805 0.0000e+00
      2.055     -0.001     7.7608     96.876    116.335 120.509846     0.6357 4.0151e+02     3.1963      2.016      2.925    26.7810 0.0000e+00
      2.055      0.001     7.7457     97.005    116.388 120.568836     0.6338 3.8277e+02     3.2095      2.015      2.923    26.7845 0.0000e+00
      2.055      0.003     7.7362     97.113    116.492 120.683147     0.6402 3.9073e+02     3.2158      2.015      2.922    26.7869 0.0000e+00
      2.055      0.003     7.7356     97.243    116.531 120.732689     0.6520 3.8528e+02     3.2038      2.015      2.923    26.7868 0.0000e+00
      2.056     -0.002     7.7452     97.415    116.485 120.690504     0.6467 3.8898e+02     3.0296      2.016      2.923    26.7876 0.0000e+00
      2.058     -0.017     7.7584     97.516    116.449 120.650456     0.6370 4.0179e+02     2.6892      2.017      2.925    26.7892 0.0000e+00
      2.061     -0.042     7.7639     97.482    116.003 120.180274     0.6392 3.9421e+02     2.5209      2.022      2.933    26.7917 0.0000e+00
      2.060     -0.072     7.7714     97.408    110.754 114.732797     0.6381 3.9631e+02     2.5395      2.027      2.940    26.7966 0.0000e+00
      2.040     -0.103     7.7902     97.383     53.014  54.921886     0.6235 4.2041e+02     2.6050      2.010      2.914    26.7999 0.0000e+00
      1.998     -0.131     7.8015     97.321   -582.662-603.465390     0.5935 4.1953e+02     2.6952      1.965      2.849    26.7986 0.0000e+00
      1.946     -0.154     7.7947     97.134  -1165.479 -1.207e+03     0.5695 4.0621e+02     2.7384      1.906      2.764    26.7939 0.0000e+00
      1.897     -0.172     7.7858     96.932   -582.884-603.766829     0.5588 4.3090e+02     2.7491      1.856      2.692    26.7891 0.0000e+00
      1.855     -0.183     7.7872     96.828     52.788  54.670706     0.5512 4.5886e+02     2.5842      1.821      2.641    26.7851 0.0000e+00
      1.815     -0.191     7.7895     96.830    110.611 114.571636     0.5548 4.6683e+02     2.2549      1.781      2.584    26.7828 0.0000e+00
      1.771     -0.196     7.7692     96.861    115.858 120.007920     0.5679 4.8383e+02     2.0983      1.738      2.521    26.7825 0.0000e+00
      1.719     -0.192     7.7482     96.811    116.365 120.536713     0.5794 4.9502e+02     2.0983      1.689      2.450    26.7830 0.0000e+00
      1.658     -0.174     7.7397     96.711    116.377 120.556070     0.5814 5.0522e+02     2.0829      1.627      2.359    26.7839 0.0000e+00
      1.596     -0.140     7.7412     96.688    116.323 120.514748     0.5751 5.1194e+02     2.0152      1.560      2.262    26.7843 0.0000e+00
      1.548     -0.099     7.7496     96.733    116.372 120.582643     0.5716 5.0912e+02     1.9326      1.505      2.184    26.7846 0.0000e+00
      1.533     -0.056     7.7440     96.759    116.335 120.558685     0.5738 5.1330e+02     1.9084      1.491      2.162    26.7853 0.0000e+00
      1.547     -0.019     7.7293     96.825    116.267 120.497876     0.5761 5.1071e+02     1.9283      1.515      2.198    26.7879 0.0000e+00
      1.568      0.009     7.7271     97.031    116.292 120.529368     0.5744 5.1296e+02     1.9326      1.542      2.238    26.7949 0.0000e+00
      1.578      0.021     7.7355     97.357    116.291 120.530306     0.5700 5.0206e+02     1.8920      1.550      2.248    26.8031 0.0000e+00
      1.578      0.018     7.7329     97.708    116.272 120.509222     0.5663 4.6746e+02     1.8490      1.546      2.243    26.8097 0.0000e+00
      1.577      0.006     7.7333     98.008    116.312 120.547213     0.5648 4.7300e+02     1.7222      1.545      2.242    26.8141 0.0000e+00
      1.577     -0.004     7.7510     98.202    116.346 120.580479     0.5687 4.8986e+02     1.5257      1.547      2.244    26.8162 0.0000e+00
      1.577     -0.009     7.7801     98.220    116.401 120.638669     0.5700 4.7425e+02     1.4303      1.548      2.245    26.8167 0.0000e+00
      1.574     -0.012     7.8109     98.074    116.530 120.773414     0.5639 4.7600e+02     1.3930      1.544      2.240    26.8158 0.0000e+00
      1.568     -0.013     7.8352     97.867    116.600 120.845793     0.5641 4.9811e+02     1.3494      1.537      2.230    26.8137 0.0000e+00
      1.563     -0.013     7.8546     97.659    116.521 120.763653     0.5721 5.0839e+02     1.3149      1.532      2.222    26.8128 0.0000e+00
      1.559     -0.012     7.8558     97.509    116.427 120.666791     0.5734 5.1064e+02     1.3194      1.529      2.217    26.8139 0.0000e+00
      1.556     -0.009     7.8388     97.477    116.457 120.697556     0.5715 5.2417e+02     1.3351      1.525      2.212    26.8146 0.0000e+00
      1.554     -0.003     7.8223     97.522    116.488 120.726474     0.5756 5.1095e+02     1.3322      1.524      2.210    26.8144 0.0000e+00
      1.554      0.004     7.8039     97.543    116.444 120.675462     0.5794 4.7531e+02     1.3882      1.524      2.211    26.8141 0.0000e+00
      1.554      0.009     7.7886     97.456    116.335 120.558122     0.5729 4.6814e+02     1.4968      1.522      2.209    26.8149 0.0000e+00
      1.557      0.006     7.7881     97.223    116.182 120.398829     0.5670 4.6112e+02     1.5810      1.525      2.212    26.8151 0.0000e+00
      1.565     -0.012     7.7953     96.915    116.168 120.386097     0.5687 4.5346e+02     1.6166      1.534      2.226    26.8131 0.0000e+00
      1.573     -0.046     7.7996     96.682    116.318 120.540569     0.5677 4.5661e+02     1.5500      1.545      2.241    26.8107 0.0000e+00
      1.573     -0.089     7.7947     96.621    116.405 120.629902     0.5632 4.8583e+02     1.3935      1.551      2.251    26.8085 0.0000e+00
      1.550     -0.132     7.7742     96.752    116.424 120.647905     0.5573 5.2341e+02     1.3030      1.533      2.224    26.8082 0.0000e+00
      1.495     -0.172     7.7433     97.033    116.399 120.621863     0.5579 5.0303e+02     1.3150      1.473      2.137    26.8090 0.0000e+00
      1.423     -0.204     7.7228     97.355    116.365 120.587799     0.5532 5.2212e+02     1.3321      1.392      2.018    26.8088 0.0000e+00
      1.357     -0.227     7.7175     97.620    116.418 120.645207     0.5444 5.6626e+02     1.3379      1.324      1.920    26.8080 0.0000e+00
      1.303     -0.235     7.7286     97.771    116.406 120.634048     0.5463 5.1039e+02     1.3510      1.277      1.853    26.8076 0.0000e+00
      1.252     -0.229     7.7554     97.806    116.361 120.589285     0.5408 5.0525e+02     1.3525      1.232      1.786    26.8074 0.0000e+00
      1.192     -0.209     7.7835     97.783    116.417 120.649545     0.5131 5.8201e+02     1.2879      1.171      1.698    26.8078 0.0000e+00
      1.128     -0.182     7.8063     97.771    116.441 120.680701     0.4805 6.4810e+02     1.1535      1.103      1.601    26.8090 0.0000e+00
      1.070     -0.149     7.8185     97.795    116.442 120.693224     0.4666 7.1241e+02     1.0674      1.042      1.512    26.8099 0.0000e+00
      1.030     -0.110     7.8191     97.840    116.470 120.732784     0.4576 7.3710e+02     1.0704      0.999      1.449    26.8102 0.0000e+00
      1.015     -0.070     7.8150     97.881    116.416 120.681678     0.4510 7.4939e+02     1.0526      0.990      1.436    26.8104 0.0000e+00
      1.018     -0.034     7.8128     97.917    116.291 120.552666     0.4552 7.5994e+02     0.9554      0.999      1.449    26.8129 0.0000e+00
      1.024     -0.007     7.8149     97.966    116.211 120.468594     0.4570 7.0802e+02     0.8899      1.005      1.457    26.8191 0.0000e+00
      1.027      0.008     7.8184     98.006    116.226 120.483495     0.4546 6.6427e+02     0.9129      1.008      1.461    26.8252 0.0000e+00
      1.028      0.015     7.8217     98.014    116.207 120.460058     0.4441 6.6332e+02     0.9244      1.008      1.462    26.8265 0.0000e+00
      1.029      0.016     7.8235     98.022    116.210 120.457992     0.4166 6.8732e+02     0.8923      1.009      1.463    26.8255 0.0000e+00
      1.033      0.015     7.8278     98.017    116.345 120.594876     0.4005 7.0854e+02     0.8682      1.012      1.467    26.8257 0.0000e+00
      1.040      0.013     7.8335     97.952    116.363 120.614846     0.4046 7.0354e+02     0.8736      1.021      1.480    26.8257 0.0000e+00
      1.048      0.010     7.8311     97.830    116.311 120.563069     0.4050 7.7371e+02     0.8883      1.029      1.492    26.8241 0.0000e+00
      1.051      0.007     7.8332     97.684    116.395 120.650788     0.4061 8.2965e+02     0.8746      1.032      1.498    26.8205 0.0000e+00
      1.049      0.005     7.8357     97.544    116.462 120.720737     0.4101 7.6173e+02     0.8457      1.030      1.494    26.8188 0.0000e+00
      1.045      0.004     7.8292     97.408    116.469 120.726879     0.4092 6.9240e+02     0.8474      1.024      1.484    26.8206 0.0000e+00
      1.043      0.005     7.8189     97.263    116.469 120.725052     0.4034 6.6842e+02     0.7922      1.022      1.482    26.8213 0.0000e+00
      1.046      0.007     7.8055     97.143    116.440 120.698636     0.4003 6.3378e+02     0.6589      1.025      1.487    26.8217 0.0000e+00
      1.052      0.008     7.7947     97.078    116.409 120.680267     0.3988 6.0828e+02     0.6095      1.031      1.495    26.8223 0.0000e+00
      1.057      0.005     7.7850     97.079    116.355 120.639369     0.3936 6.2623e+02     0.6415      1.038      1.505    26.8216 0.0000e+00
      1.060      0.000     7.7718     97.196    116.325 120.613331     0.3982 7.4891e+02     0.6677      1.041      1.509    26.8199 0.0000e+00
      1.061     -0.006     7.7612     97.459    116.350 120.638227     0.4115 8.3166e+02     0.6856      1.041      1.510    26.8197 0.0000e+00
      1.057     -0.012     7.7558     97.832    116.380 120.667606     0.4152 7.4061e+02     0.6856      1.038      1.506    26.8278 0.0000e+00
      1.049     -0.017     7.7518     98.143    116.409 120.695767     0.4077 7.0892e+02     0.6686      1.028      1.492    26.8376 0.0000e+00
      1.041     -0.019     7.7609     98.245    116.420 120.705944     0.3908 7.3840e+02     0.6506      1.018      1.477    26.8377 0.0000e+00
      1.036     -0.017     7.7818     98.225    116.372 120.654274     0.3670 7.1100e+02     0.6402      1.015      1.472    26.8358 0.0000e+00
      1.033     -0.010     7.8172     98.204    116.337 120.616575     0.3541 7.0142e+02     0.6459      1.014      1.470    26.8356 0.0000e+00
      1.028     -0.002     7.8500     98.183    116.372 120.659286     0.3565 7.2892e+02     0.6510      1.008      1.463    26.8346 0.0000e+00
      1.025      0.000     7.8523     98.142    116.324 120.625146     0.3524 7.7190e+02     0.6333      1.002      1.453    26.8341 0.0000e+00
      1.030     -0.011     7.8459     98.066    116.301 120.612979     0.3391 7.5370e+02     0.6370      1.007      1.459    26.8346 0.0000e+00
      1.040     -0.035     7.8469     97.991    116.403 120.716769     0.3343 6.8656e+02     0.6616      1.022      1.482    26.8319 0.0000e+00
      1.044     -0.067     7.8448     98.015    116.415 120.720775     0.3382 7.0241e+02     0.6571      1.033      1.498    26.8326 0.0000e+00
      1.027     -0.102     7.8407     98.135    116.434 120.729600     0.3420 7.6560e+02     0.6501      1.019      1.479    26.8442 0.0000e+00
      0.984     -0.135     7.8341     98.270    116.532 120.823470     0.3458 7.9394e+02     0.6465      0.970      1.407    26.8497 0.0000e+00
      0.928     -0.157     7.8229     98.374    116.545 120.832815     0.3493 7.4192e+02     0.6473      0.907      1.316    26.8473 0.0000e+00
      0.874     -0.157     7.8263     98.407    116.490 120.774397     0.3494 6.9516e+02     0.6602      0.854      1.239    26.8433 0.0000e+00
      0.826     -0.136     7.8405     98.367    116.446 120.730896     0.3465 8.5710e+02     0.6650      0.808      1.172    26.8372 0.0000e+00
      0.787     -0.104     7.8515     98.252    116.429 120.716020     0.3407 1.1315e+03     0.6707      0.764      1.109    26.8342 0.0000e+00
      0.767     -0.071     7.8622     98.068    116.439 120.730920     0.3408 1.3095e+03     0.6605      0.743      1.078    26.8330 0.0000e+00
      0.768     -0.041     7.8646     97.890    116.477 120.774665     0.3473 1.2393e+03     0.6453      0.752      1.091    26.8323 0.0000e+00
      0.773     -0.018     7.8606     97.787    116.466 120.767586     0.3499 1.0020e+03     0.6578      0.762      1.105    26.8330 0.0000e+00
      0.771     -0.004     7.8531     97.796    116.408 120.713526     0.3464 8.9133e+02     0.6748      0.756      1.097    26.8344 0.0000e+00
      0.766      0.001     7.8340     97.920    116.422 120.734792     0.3404 8.8765e+02     0.6791      0.749      1.085    26.8363 0.0000e+00
      0.766     -0.001     7.8179     98.085    116.432 120.751947     0.3379 8.3144e+02     0.6751      0.750      1.088    26.8385 0.0000e+00
      0.771     -0.003     7.8089     98.248    116.392 120.716364     0.3235 7.9700e+02     0.6615      0.757      1.098    26.8404 0.0000e+00
      0.773     -0.004     7.8078     98.410    116.452 120.781939     0.2967 9.2182e+02     0.6512      0.760      1.102    26.8424 0.0000e+00
      0.770     -0.005     7.8211     98.508    116.527 120.862862     0.2916 9.7757e+02     0.6540      0.755      1.096    26.8451 0.0000e+00
      0.765     -0.005     7.8354     98.500    116.471 120.808276     0.2966 9.1367e+02     0.6613      0.750      1.087    26.8487 0.0000e+00
      0.761     -0.003     7.8460     98.472    116.395 120.735708     0.2871 1.0693e+03     0.7057      0.745      1.081    26.8514 0.0000e+00
      0.758     -0.003     7.8613     98.471    116.393 120.735593     0.2816 1.2693e+03     0.8123      0.743      1.077    26.8533 0.0000e+00
      0.760     -0.006     7.8724     98.481    116.400 120.738691     0.2819 1.1140e+03     0.8858      0.742      1.077    26.8535 0.0000e+00
      0.766     -0.011     7.8661     98.505    116.370 120.704974     0.2819 7.9638e+02     0.8739      0.750      1.089    26.8547 0.0000e+00
      0.770     -0.015     7.8626     98.561    116.333 120.668886     0.2998 7.1536e+02     0.8053      0.761      1.105    26.8588 0.0000e+00
      0.761     -0.015     7.8638     98.687    116.303 120.643328     0.3326 8.1266e+02     0.7091      0.751      1.089    26.8603 0.0000e+00
      0.743     -0.010     7.8641     98.861    116.321 120.668742     0.3492 8.3644e+02     0.6378      0.726      1.053    26.8576 0.0000e+00
      0.729     -0.004     7.8670     98.977    116.479 120.839792     0.3531 7.8429e+02     0.5949      0.709      1.028    26.8548 0.0000e+00
      0.731      0.002     7.8686     98.988    116.637 121.006602     0.3533 8.5893e+02     0.6024      0.711      1.030    26.8563 0.0000e+00
      0.746      0.006     7.8788     98.965    116.612 120.980763     0.3433 1.0147e+03     0.6261      0.731      1.062    26.8592 0.0000e+00
      0.763      0.001     7.8962     98.918    116.572 120.936562     0.3449 1.0923e+03     0.6066      0.753      1.092    26.8626 0.0000e+00
      0.768     -0.014     7.9079     98.798    116.582 120.949542     0.3562 1.0484e+03     0.6076      0.758      1.098    26.8664 0.0000e+00
      0.760     -0.039     7.9039     98.698    116.560 120.933125     0.3409 8.6787e+02     0.6372      0.748      1.085    26.8678 0.0000e+00
      0.743     -0.066     7.9012     98.703    116.499 120.874464     0.3067 8.2117e+02     0.6556      0.731      1.060    26.8670 0.0000e+00
      0.718     -0.090     7.9034     98.771    116.409 120.785845     0.2896 8.3350e+02     0.6585      0.706      1.024    26.8650 0.0000e+00
      0.687     -0.111     7.8875     98.774    116.368 120.748177     0.2901 6.7274e+02     0.6383      0.675      0.979    26.8657 0.0000e+00
      0.655     -0.135     7.8764     98.644    116.375 120.760002     0.2872 5.5948e+02     0.6175      0.638      0.927    26.8698 0.0000e+00
      0.626     -0.165     7.8785     98.548    116.402 120.792452     0.2798 5.2135e+02     0.6120      0.614      0.891    26.8718 0.0000e+00
      0.594     -0.201     7.8866     98.597    116.467 120.867765     0.2790 4.7019e+02     0.6065      0.592      0.857    26.8729 0.0000e+00
      0.543     -0.240     7.8931     98.705    116.509 120.920483     0.2785 6.0575e+02     0.6197      0.540      0.782    26.8760 0.0000e+00
      0.471     -0.274     7.8728     98.810    116.535 120.952525     0.2904 9.0083e+02     0.6344      0.467      0.678    26.8775 0.0000e+00
      0.385     -0.294     7.8606     98.914    116.561 120.982425     0.3189 1.0295e+03     0.6125      0.383      0.555    26.8785 0.0000e+00
      0.288     -0.299     7.8704     99.026    116.585 121.009224     0.3362 1.0887e+03     0.5955      0.283      0.411    26.8826 0.0000e+00
      0.195     -0.289     7.8783     99.135    116.579 121.003776     0.3349 1.2817e+03     0.6006      0.179      0.260    26.8875 0.0000e+00
      0.126     -0.260     7.8873     99.250    116.494 120.916564     0.2173 1.4585e+03     0.7778      0.113      0.165    26.8898 0.0000e+00
      0.076     -0.221     7.8935     99.374    116.419 120.841280    -0.0105 1.5405e+03     1.1239      0.082      0.120    26.8905 0.0000e+00
      0.021     -0.183     7.9044     99.478    116.420 120.843678    -0.1310 1.5650e+03     1.2828      0.020      0.027    26.8908 0.0000e+00
     -0.027     -0.157     7.9118     99.534    116.453 120.877371    -0.1212 1.5390e+03     1.1542     -0.044     -0.064    26.8908 0.0000e+00
     -0.049     -0.149     7.9203     99.444    116.482 120.907692     0.0560 1.5410e+03    -0.3279     -0.046     -0.067    26.8913 0.0000e+00
     -0.069     -0.151     7.9328     99.084    116.510 120.937512     0.3811 1.5902e+03    -3.0760     -0.058     -0.084    26.8927 0.0000e+00
     -0.102     -0.151     7.9388     98.293    116.537 120.965160     0.5586 1.6212e+03    -4.5721     -0.101     -0.146    26.8935 0.0000e+00
     -0.146     -0.145     7.9485     96.911    116.541 120.969200     0.5631 1.6218e+03    -4.5812     -0.132     -0.191    26.8933 0.0000e+00
     -0.206     -0.138     7.9434     94.919    116.559 120.986360     0.4620 1.5843e+03    -2.9794     -0.200     -0.290    26.8933 0.0000e+00
     -0.261     -0.124     7.9194     92.465    116.609 121.036250     0.2806 1.5279e+03     0.0321     -0.276     -0.400    26.8937 0.0000e+00
     -0.283     -0.104     7.8623     89.914    116.600 121.026847     0.1734 1.4970e+03     1.7197     -0.284     -0.412    26.8936 0.0000e+00
     -0.285     -0.088     7.7522     87.937    116.583 121.009064     0.1194 1.4805e+03     2.0451     -0.272     -0.395    26.8934 0.0000e+00
     -0.295     -0.079     7.5894     87.143    116.665 121.094016    -0.2243 1.4508e+03     3.7951     -0.286     -0.414    26.8929 0.0000e+00
     -0.310     -0.079     7.3850     87.429    116.802 121.235648    -0.8350 1.4183e+03     7.0166     -0.308     -0.448    26.8920 0.0000e+00
     -0.326     -0.084     7.1620     88.278    116.920 121.357612    -1.1605 1.3709e+03     8.7573     -0.309     -0.448    26.8915 0.0000e+00
     -0.362     -0.085     6.9780     89.394    116.969 121.409337    -1.1353 1.2650e+03     8.5688     -0.347     -0.503    26.8920 0.0000e+00
     -0.406     -0.077     6.9215     90.690    116.943 121.383692    -0.5033 1.1190e+03     4.6679     -0.415     -0.601    26.8923 0.0000e+00
     -0.427     -0.062     6.9670     92.263    116.816 121.252125     0.6629 1.0030e+03    -2.5653     -0.424     -0.614    26.8912 0.0000e+00
     -0.429     -0.044     7.0381     94.108    115.631 120.023167     1.2955 9.0205e+02    -6.5135     -0.419     -0.608    26.8905 0.0000e+00
     -0.429     -0.023     7.1316     95.736    102.626 106.524475     1.3101 7.3802e+02    -6.6077     -0.423     -0.612    26.8915 0.0000e+00
     -0.429     -0.007     7.2315     96.779     69.359  71.993577     0.7794 5.5501e+02    -3.8076     -0.420     -0.610    26.8922 0.0000e+00
     -0.430     -0.001     7.3486     97.377     36.529  37.916932    -0.2134 4.0008e+02     1.3529     -0.422     -0.611    26.8928 0.0000e+00
     -0.430     -0.001     7.5190     97.723     22.467  23.319797    -0.7581 2.5223e+02     4.1504     -0.422     -0.610    26.8926 0.0000e+00
     -0.430     -0.001     7.6628     97.844     19.887  20.642074    -0.8046 1.6267e+02     4.3704     -0.422     -0.612    26.8930 0.0000e+00
     -0.430 -9.990e-29     7.7358 -9.990e-29 -9.990e-29 -9.990e-29 -9.990e-29 1.4697e+02 -9.990e-29     -0.423     -0.613    26.8926 0.0000e+00
     -0.430 -9.990e-29     7.7788 -9.990e-29 -9.990e-29 -9.990e-29 -9.990e-29 1.4630e+02 -9.990e-29     -0.422     -0.612    26.8943 0.0000e+00
     -0.430 -9.990e-29     7.8071 -9.990e-29 -9.990e-29 -9.990e-29 -9.990e-29 1.3940e+02 -9.990e-29     -0.422     -0.612    26.8923 0.0000e+00
     -0.430 -9.990e-29     7.8190 -9.990e-29 -9.990e-29 -9.990e-29 -9.990e-29 1.3540e+02 -9.990e-29     -0.422     -0.612    26.8869 0.0000e+00
