* Sea-Bird SBE19plus  Data File:
* FileName = C:\DATA\081519_fcr50_0000_0004.hex
* Software version 2.8.0.119 SB_Terminal.dll
* Temperature SN = 7809
* Conductivity SN = 7809
* System UpLoad Time = Aug 15 2019 01:07:29
* <ApplicationData>
* <Seaterm232>
* <SoftwareVersion>2.8.0.119</SoftwareVersion>
* <BuildDate>07-Nov-2018</BuildDate>
* </Seaterm232>
* </ApplicationData>
* cast   4 15 Aug 2019 00:01:10 samples 3688 to 4549, avg = 1, stop = mag switch
# nquan = 16
# nvalues = 741                         
# units = specified
# name 0 = depFM: Depth [fresh water, m]
# name 1 = dz/dtM: Descent Rate [m/s]
# name 2 = sbeox0Mg/L: Oxygen, SBE 43 [mg/l]
# name 3 = sbeox0PS: Oxygen, SBE 43 [% saturation]
# name 4 = specc: Specific Conductance [uS/cm]
# name 5 = c0uS/cm: Conductivity [uS/cm]
# name 6 = flECO-AFL: Fluorescence, WET Labs ECO-AFL/FL [mg/m^3]
# name 7 = ph: pH
# name 8 = orp: Oxidation Reduction Potential [mV]
# name 9 = par/sat/log: PAR/Logarithmic, Satlantic
# name 10 = turbWETntu0: Turbidity, WET Labs ECO [NTU]
# name 11 = prdM: Pressure, Strain Gauge [db]
# name 12 = prdE: Pressure, Strain Gauge [psi]
# name 13 = tv290C: Temperature [ITS-90, deg C]
# name 14 = density00: Density [density, kg/m^3]
# name 15 = flag:  0.000e+00
# span 0 =     -0.612,      9.513       
# span 1 =     -0.002,      0.212       
# span 2 =     0.1238,    10.9711       
# span 3 =      1.270,    134.846       
# span 4 =      0.839,     67.958       
# span 5 =   0.784811,  52.215565       
# span 6 =    -0.1383,     9.0066       
# span 7 =      6.830,      9.362       
# span 8 =   166.3495,   371.7802       
# span 9 = 1.2357e-01, 5.4079e-01       
# span 10 =    -0.5768,    61.3364      
# span 11 =     -0.600,      9.330      
# span 12 =     -0.871,     13.531      
# span 13 =    11.8031,    27.6815      
# span 14 =   996.3462,   999.5853      
# span 15 = 0.0000e+00, 0.0000e+00      
# interval = seconds: 0.25
# start_time = Aug 15 2019 00:01:10 [Instrument's time stamp, header]
# bad_flag = -9.990e-29
# <Sensors count="9" >
#   <sensor Channel="1" >
#     <!-- Count, Temperature -->
#     <TemperatureSensor SensorID="58" >
#       <SerialNumber>7809</SerialNumber>
#       <CalibrationDate>24-Mar-19</CalibrationDate>
#       <A0>1.21792325e-003</A0>
#       <A1>2.81669265e-004</A1>
#       <A2>-1.60333336e-006</A2>
#       <A3>1.98414625e-007</A3>
#       <Slope>1.00000000</Slope>
#       <Offset>0.0000</Offset>
#     </TemperatureSensor>
#   </sensor>
#   <sensor Channel="2" >
#     <!-- Frequency 0, Conductivity -->
#     <ConductivitySensor SensorID="3" >
#       <SerialNumber>7809</SerialNumber>
#       <CalibrationDate>24-Mar-19</CalibrationDate>
#       <UseG_J>1</UseG_J>
#       <!-- Cell const and series R are applicable only for wide range sensors. -->
#       <SeriesR>0.0000</SeriesR>
#       <CellConst>2000.0000</CellConst>
#       <ConductivityType>0</ConductivityType>
#       <Coefficients equation="0" >
#         <A>0.00000000e+000</A>
#         <B>0.00000000e+000</B>
#         <C>0.00000000e+000</C>
#         <D>0.00000000e+000</D>
#         <M>0.0</M>
#         <CPcor>-9.57000000e-008</CPcor>
#       </Coefficients>
#       <Coefficients equation="1" >
#         <G>-1.00589325e+000</G>
#         <H>1.26816302e-001</H>
#         <I>-1.51560448e-004</I>
#         <J>2.67137274e-005</J>
#         <CPcor>-9.57000000e-008</CPcor>
#         <CTcor>3.2500e-006</CTcor>
#         <!-- WBOTC not applicable unless ConductivityType = 1. -->
#         <WBOTC>0.00000000e+000</WBOTC>
#       </Coefficients>
#       <Slope>1.00000000</Slope>
#       <Offset>0.00000</Offset>
#     </ConductivitySensor>
#   </sensor>
#   <sensor Channel="3" >
#     <!-- Count, Pressure, Strain Gauge -->
#     <PressureSensor SensorID="46" >
#       <SerialNumber>7809</SerialNumber>
#       <CalibrationDate>11-Mar-19</CalibrationDate>
#       <PA0>4.56561833e-002</PA0>
#       <PA1>4.85095118e-004</PA1>
#       <PA2>-2.88327090e-012</PA2>
#       <PTEMPA0>-5.48784562e+001</PTEMPA0>
#       <PTEMPA1>5.53756816e+001</PTEMPA1>
#       <PTEMPA2>-5.86727098e-001</PTEMPA2>
#       <PTCA0>5.25246745e+005</PTCA0>
#       <PTCA1>1.22304214e+001</PTCA1>
#       <PTCA2>-3.56745036e-001</PTCA2>
#       <PTCB0>2.51668750e+001</PTCB0>
#       <PTCB1>3.75000000e-004</PTCB1>
#       <PTCB2>0.00000000e+000</PTCB2>
#       <Offset>0.000000</Offset>
#     </PressureSensor>
#   </sensor>
#   <sensor Channel="4" >
#     <!-- A/D voltage 0, Oxygen, SBE 43 -->
#     <OxygenSensor SensorID="38" >
#       <SerialNumber>0434</SerialNumber>
#       <CalibrationDate>13-Apr-19</CalibrationDate>
#       <Use2007Equation>1</Use2007Equation>
#       <CalibrationCoefficients equation="0" >
#         <!-- Coefficients for Owens-Millard equation. -->
#         <Boc>0.0000</Boc>
#         <Soc>0.0000e+000</Soc>
#         <offset>0.0000</offset>
#         <Pcor>0.00e+000</Pcor>
#         <Tcor>0.0000</Tcor>
#         <Tau>0.0</Tau>
#       </CalibrationCoefficients>
#       <CalibrationCoefficients equation="1" >
#         <!-- Coefficients for Sea-Bird equation - SBE calibration in 2007 and later. -->
#         <Soc>4.2007e-001</Soc>
#         <offset>-0.6109</offset>
#         <A>-4.3656e-003</A>
#         <B> 1.7017e-004</B>
#         <C>-2.5341e-006</C>
#         <D0> 2.5826e+000</D0>
#         <D1> 1.92634e-004</D1>
#         <D2>-4.64803e-002</D2>
#         <E> 3.6000e-002</E>
#         <Tau20> 1.1800</Tau20>
#         <H1>-3.3000e-002</H1>
#         <H2> 5.0000e+003</H2>
#         <H3> 1.4500e+003</H3>
#       </CalibrationCoefficients>
#     </OxygenSensor>
#   </sensor>
#   <sensor Channel="5" >
#     <!-- A/D voltage 1, PAR/Logarithmic, Satlantic -->
#     <PARLog_SatlanticSensor SensorID="76" >
#       <SerialNumber>1122</SerialNumber>
#       <CalibrationDate>08-May-2019</CalibrationDate>
#       <a0>9.7456e-001</a0>
#       <a1>8.1640e-001</a1>
#       <Im>1.3589e+000</Im>
#       <Multiplier>1.0000e+000</Multiplier>
#     </PARLog_SatlanticSensor>
#   </sensor>
#   <sensor Channel="6" >
#     <!-- A/D voltage 2, pH -->
#     <pH_Sensor SensorID="43" >
#       <SerialNumber>0363</SerialNumber>
#       <CalibrationDate>15-Apr-19</CalibrationDate>
#       <Slope>4.5952</Slope>
#       <Offset>2.5370</Offset>
#     </pH_Sensor>
#   </sensor>
#   <sensor Channel="7" >
#     <!-- A/D voltage 3, Oxidation Reduction Potential -->
#     <OxidationReductionPotentialSensor SensorID="41" >
#       <SerialNumber>0363</SerialNumber>
#       <CalibrationDate>15-Apr-19</CalibrationDate>
#       <B>2.499480</B>
#       <M>-0.496195</M>
#       <Offset>0.0</Offset>
#     </OxidationReductionPotentialSensor>
#   </sensor>
#   <sensor Channel="8" >
#     <!-- A/D voltage 4, Fluorometer, WET Labs ECO-AFL/FL -->
#     <FluoroWetlabECO_AFL_FL_Sensor SensorID="20" >
#       <SerialNumber>FLNTURT-2496</SerialNumber>
#       <CalibrationDate>08-May-2019</CalibrationDate>
#       <ScaleFactor>5.00000000e+001</ScaleFactor>
#       <!-- Dark output -->
#       <Vblank>0.0550</Vblank>
#     </FluoroWetlabECO_AFL_FL_Sensor>
#   </sensor>
#   <sensor Channel="9" >
#     <!-- A/D voltage 5, Turbidity Meter, WET Labs, ECO-NTU -->
#     <TurbidityMeter SensorID="67" >
#       <SerialNumber>FLNTURT-2496</SerialNumber>
#       <CalibrationDate>08-May-2019</CalibrationDate>
#       <ScaleFactor>189.000000</ScaleFactor>
#       <!-- Dark output -->
#       <DarkVoltage>0.071000</DarkVoltage>
#     </TurbidityMeter>
#   </sensor>
# </Sensors>
# datcnv_date = Aug 15 2019 01:14:34, 7.26.7.129 [datcnv_vars = 15]
# datcnv_in = C:\DATA\081519_fcr50_0000.hex C:\DATA\SBE19plusV2_7809.xmlcon
# datcnv_skipover = 0
# datcnv_ox_hysteresis_correction = yes
# datcnv_ox_tau_correction = yes
# filter_date = Aug 15 2019 01:15:00, 7.26.7.129
# filter_in = C:\DATA\081519_fcr50_0000.cnv
# filter_low_pass_tc_A = 0.030
# filter_low_pass_tc_B = 0.150
# filter_low_pass_A_vars = prdM prdE tv290C density00
# filter_low_pass_B_vars = depFM dz/dtM sbeox0Mg/L sbeox0PS specc c0uS/cm flECO-AFL ph orp par/sat/log turbWETntu0
# alignctd_date = Aug 15 2019 01:15:51, 7.26.7.129
# alignctd_in = C:\DATA\081519_fcr50_0000.cnv
# alignctd_adv = dz/dtM 1.000, sbeox0Mg/L 1.000, sbeox0PS 1.000, specc 1.000, c0uS/cm 1.000, flECO-AFL 1.000, ph 1.000, orp 1.000, turbWETntu0 1.000                                                                                 
# file_type = ascii
*END*
     -0.611 -4.906e-22     8.3090     94.557      1.030   0.963647    -0.1179      6.901   371.7802 2.5708e-01    -0.1946     -0.599     -0.869    21.7378   997.8364 0.0000e+00
     -0.611 -5.396e-21     8.3085     94.553      1.004   0.939280    -0.1133      6.895   362.7707 3.1446e-01    -0.2229     -0.600     -0.870    21.7380   997.8364 0.0000e+00
     -0.611 -5.936e-20     8.3080     94.547      1.001   0.935910    -0.1194      6.892   352.9557 4.0006e-01    -0.2657     -0.599     -0.869    21.7379   997.8364 0.0000e+00
     -0.612 -6.530e-19     8.3078     94.544      0.987   0.922904    -0.1315      6.891   341.2120 4.6428e-01    -0.3183     -0.600     -0.871    21.7381   997.8363 0.0000e+00
     -0.612 -7.183e-18     8.3072     94.537      0.972   0.908746    -0.1294      6.885   332.8015 4.8072e-01    -0.3022     -0.600     -0.870    21.7384   997.8363 0.0000e+00
     -0.612 -7.901e-17     8.3065     94.530      1.089   1.018168    -0.1199      6.877   330.0771 4.7760e-01    -0.2355     -0.599     -0.869    21.7384   997.8363 0.0000e+00
     -0.612 -8.691e-16     8.3062     94.526      1.182   1.105423    -0.1204      6.875   326.4264 4.8662e-01    -0.2322     -0.600     -0.870    21.7384   997.8363 0.0000e+00
     -0.611 -9.560e-15     8.3065     94.529      1.152   1.076696    -0.1272      6.876   318.4307 4.9840e-01    -0.2627     -0.599     -0.869    21.7385   997.8363 0.0000e+00
     -0.611 -1.052e-13     8.3074     94.539      1.124   1.051003    -0.1237      6.876   310.8371 5.0280e-01    -0.2432     -0.599     -0.869    21.7386   997.8362 0.0000e+00
     -0.611 -1.157e-12     8.3086     94.554      1.121   1.048216    -0.1131      6.875   306.0254 5.1599e-01    -0.2266     -0.599     -0.869    21.7386   997.8362 0.0000e+00
     -0.612 -1.272e-11     8.3083     94.551      1.116   1.042998    -0.1118      6.874   302.4127 5.3339e-01    -0.2258     -0.600     -0.870    21.7387   997.8362 0.0000e+00
     -0.612 -1.400e-10     8.3068     94.534      1.057   0.987913    -0.1163      6.874   298.6465 5.3477e-01    -0.2334     -0.600     -0.870    21.7388   997.8362 0.0000e+00
     -0.612 -1.540e-09     8.3069     94.535      0.951   0.889063    -0.1239      6.877   294.5595 5.2764e-01    -0.2855     -0.599     -0.869    21.7386   997.8362 0.0000e+00
     -0.612 -1.694e-08     8.3082     94.549      0.922   0.861576    -0.1343      6.877   291.2852 5.2633e-01    -0.2982     -0.600     -0.871    21.7388   997.8362 0.0000e+00
     -0.612 -1.863e-07     8.3087     94.556      0.972   0.909019    -0.1382      6.874   289.7733 5.2479e-01    -0.2895     -0.600     -0.871    21.7390   997.8361 0.0000e+00
     -0.612 -1.863e-07     8.3086     94.555      1.022   0.955813    -0.1363      6.874   287.9802 5.1673e-01    -0.3106     -0.600     -0.871    21.7390   997.8361 0.0000e+00
     -0.612 -1.693e-08     8.3079     94.547      1.120   1.047195    -0.1383      6.879   284.5754 5.1121e-01    -0.2921     -0.600     -0.870    21.7392   997.8360 0.0000e+00
     -0.612 -1.539e-09     8.3069     94.537      1.137   1.063494    -0.1358      6.895   274.1600 5.1386e-01    -0.2617     -0.600     -0.870    21.7393   997.8360 0.0000e+00
     -0.612 -1.400e-10     8.3065     94.532      1.030   0.962790    -0.1313      6.926   253.3371 5.1436e-01    -0.2717     -0.600     -0.870    21.7394   997.8360 0.0000e+00
     -0.612 -1.272e-11     8.3057     94.523      0.970   0.906723    -0.1288      6.945   240.5919 5.1111e-01    -0.2811     -0.600     -0.870    21.7394   997.8360 0.0000e+00
     -0.612 -1.157e-12     8.3050     94.515      0.886   0.829119    -0.1224      6.925   244.7293 5.1009e-01    -0.2444     -0.600     -0.870    21.7396   997.8360 0.0000e+00
     -0.612 -1.052e-13     8.3059     94.525      0.839   0.784811    -0.1234      6.896   247.7804 5.1109e-01    -0.2208     -0.600     -0.870    21.7397   997.8360 0.0000e+00
     -0.612 -9.560e-15     8.3070     94.538      0.939   0.877884    -0.1231      6.881   247.0251 5.1646e-01    -0.2582     -0.600     -0.870    21.7397   997.8360 0.0000e+00
     -0.612 -8.690e-16     8.3071     94.539      1.006   0.940689    -0.1187      6.865   251.5137 5.2187e-01    -0.2708     -0.600     -0.871    21.7397   997.8360 0.0000e+00
     -0.612 -7.900e-17     8.3080     94.549      0.974   0.910575    -0.1220      6.842   254.4724 5.2528e-01    -0.1762     -0.600     -0.870    21.7399   997.8359 0.0000e+00
     -0.612 -7.180e-18     8.3082     94.552      0.956   0.893946    -0.1201      6.830   252.5125 5.2913e-01    -0.0651     -0.600     -0.870    21.7400   997.8359 0.0000e+00
     -0.612 -6.530e-19     8.3059     94.527      0.927   0.866358    -0.1131      6.835   251.1332 5.3693e-01    -0.0418     -0.600     -0.870    21.7400   997.8359 0.0000e+00
     -0.612 -5.935e-20     8.3047     94.514      0.888   0.830443    -0.1153      6.847   250.5296 5.4079e-01    -0.0262     -0.600     -0.870    21.7402   997.8359 0.0000e+00
     -0.612 -5.395e-21     8.3057     94.525      0.898   0.839871    -0.1203      6.859   249.8604 5.0759e-01    -0.0394     -0.600     -0.870    21.7403   997.8358 0.0000e+00
     -0.612 -4.905e-22     8.3059     94.528      0.913   0.853630    -0.1218      6.869   250.0971 4.6990e-01    -0.1361     -0.600     -0.870    21.7405   997.8358 0.0000e+00
     -0.612 -4.459e-23     8.3050     94.518      0.931   0.870080    -0.1252      6.874   251.4993 4.7826e-01    -0.2121     -0.600     -0.870    21.7406   997.8358 0.0000e+00
     -0.612 -4.054e-24     8.3050     94.518      0.975   0.912044    -0.1180      6.874   254.3382 4.9821e-01    -0.2371     -0.600     -0.871    21.7409   997.8357 0.0000e+00
     -0.612 -3.686e-25     8.3054     94.522      1.049   0.980850    -0.1038      6.874   257.7498 5.1140e-01    -0.2419     -0.600     -0.870    21.7411   997.8357 0.0000e+00
     -0.612 -3.351e-26     8.3057     94.527      1.143   1.068415    -0.1096      6.876   259.4508 5.1706e-01    -0.2701     -0.600     -0.870    21.7412   997.8356 0.0000e+00
     -0.612 -3.046e-27     8.3066     94.537      1.295   1.210451    -0.1194      6.876   260.3644 4.7510e-01    -0.3161     -0.600     -0.871    21.7411   997.8356 0.0000e+00
     -0.612 -2.769e-28     8.3065     94.535      1.463   1.367603    -0.1181      6.876   261.6559 3.8034e-01    -0.3064     -0.600     -0.870    21.7412   997.8356 0.0000e+00
     -0.612 -2.517e-29     8.3060     94.530      1.549   1.447857    -0.1194      6.877   262.3320 2.9162e-01    -0.2841     -0.600     -0.871    21.7416   997.8355 0.0000e+00
     -0.612 -2.289e-30     8.3054     94.523      1.587   1.483815    -0.1266      6.878   262.8603 2.3251e-01    -0.3085     -0.600     -0.871    21.7417   997.8355 0.0000e+00
     -0.612 -2.080e-31     8.3045     94.513      1.656   1.548926    -0.1271      6.877   263.9988 2.0093e-01    -0.3064     -0.600     -0.870    21.7418   997.8355 0.0000e+00
     -0.612 -1.891e-32     8.3049     94.518      1.781   1.664846    -0.1161      6.877   265.3432 2.0758e-01    -0.2586     -0.600     -0.870    21.7418   997.8355 0.0000e+00
     -0.612 -1.719e-33     8.3058     94.528      1.866   1.744867    -0.1067      6.878   266.3818 2.2182e-01    -0.2544     -0.600     -0.870    21.7419   997.8355 0.0000e+00
     -0.612 -1.562e-34     8.3057     94.528      1.878   1.756111    -0.1085      6.878   266.0597 2.1236e-01    -0.2893     -0.600     -0.870    21.7421   997.8355 0.0000e+00
     -0.612 -1.338e-35     8.3054     94.525      1.858   1.737429    -0.1124      6.878   264.0297 1.9240e-01    -0.2864     -0.600     -0.870    21.7422   997.8354 0.0000e+00
     -0.612 7.8784e-36     8.3054     94.526      1.895   1.772439    -0.1107      6.877   262.0572 1.9875e-01    -0.2528     -0.600     -0.870    21.7424   997.8355 0.0000e+00
     -0.612 1.0075e-34     8.3052     94.524      1.924   1.799221    -0.1140      6.879   261.0530 2.3766e-01    -0.2430     -0.600     -0.870    21.7425   997.8354 0.0000e+00
     -0.612 1.1096e-33     8.3042     94.513      1.798   1.681070    -0.1170      6.880   261.2650 2.9068e-01    -0.2993     -0.600     -0.870    21.7424   997.8354 0.0000e+00
     -0.612 1.2205e-32     8.3018     94.487      1.656   1.547777    -0.1124      6.880   263.6750 3.5132e-01    -0.4095     -0.600     -0.870    21.7428   997.8353 0.0000e+00
     -0.612 1.3426e-31     8.2998     94.465      1.488   1.391487    -0.1109      6.878   266.4453 3.9798e-01    -0.4939     -0.600     -0.870    21.7433   997.8353 0.0000e+00
     -0.612 1.4768e-30     8.3000     94.467      1.335   1.248691    -0.1164      6.877   267.5721 4.1928e-01    -0.5327     -0.599     -0.869    21.7436   997.8352 0.0000e+00
     -0.612 1.6245e-29     8.3013     94.482      1.367   1.278569    -0.1177      6.878   269.0391 4.4738e-01    -0.5508     -0.600     -0.870    21.7439   997.8351 0.0000e+00
     -0.611 1.7870e-28     8.3022     94.492      1.400   1.309219    -0.1180      6.878   271.9651 4.8774e-01    -0.5492     -0.599     -0.870    21.7443   997.8350 0.0000e+00
     -0.611 1.9657e-27     8.3011     94.480      1.325   1.239106    -0.1282      6.878   275.6748 5.0439e-01    -0.5456     -0.599     -0.869    21.7445   997.8349 0.0000e+00
     -0.612 2.1622e-26     8.2983     94.449      1.274   1.191172    -0.1287      6.879   279.9935 5.0393e-01    -0.5401     -0.600     -0.870    21.7448   997.8348 0.0000e+00
     -0.612 2.3785e-25     8.2956     94.419      1.254   1.173187    -0.1157      6.880   284.5184 5.1171e-01    -0.5160     -0.600     -0.870    21.7449   997.8348 0.0000e+00
     -0.612 2.6163e-24     8.2926     94.386      1.228   1.148371    -0.1183      6.880   288.7419 5.2206e-01    -0.5170     -0.599     -0.869    21.7451   997.8348 0.0000e+00
     -0.612 2.8779e-23     8.2890     94.345      1.224   1.144568    -0.1257      6.880   292.5141 5.2390e-01    -0.5519     -0.600     -0.870    21.7454   997.8347 0.0000e+00
     -0.611 3.1657e-22     8.2868     94.320      1.205   1.127199    -0.1266      6.880   295.8834 4.5831e-01    -0.5766     -0.599     -0.869    21.7455   997.8347 0.0000e+00
     -0.611 3.4823e-21     8.2838     94.287      1.139   1.065084    -0.1292      6.880   298.8500 3.0166e-01    -0.5541     -0.599     -0.869    21.7457   997.8346 0.0000e+00
     -0.611 3.8305e-20     8.2785     94.226      1.099   1.027163    -0.1223      6.880   301.7107 1.7035e-01    -0.4756     -0.599     -0.869    21.7462   997.8345 0.0000e+00
     -0.611 4.2136e-19     8.2751     94.187      1.122   1.048859    -0.1127      6.879   304.5750 1.3204e-01    -0.4471     -0.599     -0.869    21.7464   997.8345 0.0000e+00
     -0.611 4.6349e-18     8.2750     94.186      1.149   1.073967    -0.1088      6.879   307.0677 1.6770e-01    -0.5050     -0.599     -0.869    21.7466   997.8344 0.0000e+00
     -0.611 5.0984e-17     8.2769     94.209      1.152   1.077298    -0.1096      6.880   309.4797 2.8678e-01    -0.5531     -0.599     -0.869    21.7468   997.8344 0.0000e+00
     -0.611 5.6083e-16     8.2798     94.242      1.165   1.089137    -0.1137      6.881   312.2277 4.2323e-01    -0.5699     -0.599     -0.869    21.7467   997.8344 0.0000e+00
     -0.611 6.1691e-15     8.2815     94.261      1.166   1.090382    -0.1157      6.882   314.9990 4.8172e-01    -0.5768     -0.600     -0.870    21.7468   997.8344 0.0000e+00
     -0.611 6.7860e-14     8.2829     94.278      1.168   1.092357    -0.1160      6.881   317.6055 4.8737e-01    -0.5704     -0.599     -0.869    21.7471   997.8343 0.0000e+00
     -0.611 7.4646e-13     8.2842     94.293      1.190   1.113008    -0.1170      6.880   320.1673 4.8051e-01    -0.5257     -0.598     -0.868    21.7472   997.8343 0.0000e+00
     -0.611 8.2111e-12     8.2835     94.285      1.162   1.086636    -0.1197      6.881   322.7424 4.4796e-01    -0.4298     -0.599     -0.868    21.7473   997.8343 0.0000e+00
     -0.611 9.0322e-11     8.2813     94.259      1.098   1.026932    -0.1229      6.881   325.2533 4.1298e-01    -0.3283     -0.599     -0.868    21.7475   997.8342 0.0000e+00
     -0.611 9.9354e-10     8.2798     94.243      1.096   1.024742    -0.1210      6.880   327.7250 4.1478e-01    -0.2818     -0.599     -0.869    21.7478   997.8342 0.0000e+00
     -0.611 1.0929e-08     8.2788     94.232      1.134   1.060160    -0.1134      6.879   330.3434 4.2933e-01    -0.2930     -0.599     -0.869    21.7479   997.8341 0.0000e+00
     -0.611 1.2022e-07     8.2773     94.215      1.150   1.075005    -0.1093      6.879   332.9932 4.2796e-01    -0.3333     -0.599     -0.868    21.7482   997.8341 0.0000e+00
     -0.611      0.000     8.2773     94.215      1.152   1.077502    -0.1142      6.881   335.3285 4.2086e-01    -0.4415     -0.599     -0.868    21.7479   997.8341 0.0000e+00
     -0.610      0.000     8.2783     94.229      1.166   1.090357    -0.1204      6.882   337.2415 4.2049e-01    -0.5528     -0.598     -0.868    21.7488   997.8339 0.0000e+00
     -0.610      0.000     8.2793     94.242      1.180   1.103706    -0.1151      6.884   336.9367 4.2038e-01    -0.5309     -0.598     -0.868    21.7479   997.8341 0.0000e+00
     -0.610      0.002     8.2768     94.240      1.320   1.238906    -0.1116      6.904   308.7572 4.0262e-01    -0.4723     -0.599     -0.869    21.7495   997.8338 0.0000e+00
     -0.610      0.009     8.2492     94.203      3.003   2.851776    -0.1214      7.053   251.8032 3.7753e-01    -0.4999     -0.598     -0.868    21.7473   997.8343 0.0000e+00
     -0.610      0.028     8.1492     94.129     11.013  10.656086    -0.1290      7.451   230.1951 3.7494e-01    -0.5039     -0.599     -0.868    21.7516   997.8333 0.0000e+00
     -0.609      0.058     7.9782     94.000     24.873  24.404137    -0.1264      7.993   251.3225 3.7889e-01    -0.3247     -0.598     -0.867    21.7451   997.8349 0.0000e+00
     -0.603      0.095     7.8131     93.834     34.777  34.575637    -0.0977      8.477   263.8476 3.6892e-01     1.1104     -0.598     -0.868    21.7559   997.8323 0.0000e+00
     -0.579      0.134     7.6957     93.690     37.471  37.728322     0.1830      8.835   262.9005 3.4719e-01    16.7817     -0.578     -0.838    21.7393   997.8362 0.0000e+00
     -0.531      0.169     7.6107     93.613     37.611  38.281221     0.7020      9.068   261.4679 2.8394e-01    45.5802     -0.526     -0.762    22.2794   997.7148 0.0000e+00
     -0.467      0.195     7.5481     93.628     37.456  38.468333     1.0008      9.204   260.2916 1.9169e-01    61.2103     -0.459     -0.666    23.6415   997.3985 0.0000e+00
     -0.401      0.210     7.5108     93.767     37.198  38.467756     1.1173      9.288   259.2616 1.3683e-01    61.3364     -0.389     -0.564    24.7292   997.1330 0.0000e+00
     -0.344      0.212     7.5014     94.065     36.897  38.338124     2.0489      9.339   258.0471 1.2520e-01    47.0065     -0.335     -0.485    25.3587   996.9707 0.0000e+00
     -0.294      0.202     7.5149     94.501     36.564  38.107298     3.7515      9.361   256.9654 1.2670e-01    20.5455     -0.289     -0.419    25.9157   996.8256 0.0000e+00
     -0.247      0.185     7.5422     95.018     36.292  37.898710     4.6845      9.362   255.5610 1.2895e-01     6.1337     -0.241     -0.350    26.3820   996.7007 0.0000e+00
     -0.199      0.165     7.5792     95.570     36.147  37.783989     4.7717      9.354   253.8864 1.2822e-01     4.8262     -0.196     -0.283    26.7447   996.6028 0.0000e+00
     -0.154      0.142     7.6223     96.086     36.050  37.672404     4.7630      9.347   253.0653 1.3232e-01     4.6702     -0.149     -0.216    26.9779   996.5390 0.0000e+00
     -0.115      0.119     7.6639     96.513     35.987  37.565129     4.7356      9.340   253.1184 1.3837e-01     4.5753     -0.108     -0.157    27.1230   996.4993 0.0000e+00
     -0.090      0.097     7.6952     96.818     35.963  37.502470     4.7257      9.333   253.1520 1.3456e-01     4.4992     -0.084     -0.121    27.2190   996.4727 0.0000e+00
     -0.075      0.076     7.7138     97.010     36.025  37.549482     4.7311      9.328   252.9550 1.2689e-01     4.4709     -0.073     -0.106    27.2883   996.4535 0.0000e+00
     -0.064      0.059     7.7222     97.129     36.214  37.752677     4.7746      9.323   252.7159 1.2399e-01     4.4622     -0.064     -0.094    27.2586   996.4617 0.0000e+00
     -0.053      0.048     7.7255     97.229     36.420  37.991553     4.8613      9.316   252.5837 1.2378e-01     4.4592     -0.051     -0.074    27.1789   996.4839 0.0000e+00
     -0.041      0.041     7.7606     97.753     36.541  38.152637     4.9037      9.308   252.3893 1.2377e-01     4.4343     -0.041     -0.059    27.1250   996.4988 0.0000e+00
     -0.030      0.036     7.8548     99.028     36.590  38.240425     4.8881      9.299   251.7417 1.2374e-01     4.4243     -0.030     -0.044    27.0974   996.5065 0.0000e+00
     -0.020      0.031     7.9510    100.330     36.604  38.291337     4.8035      9.291   251.1205 1.2370e-01     4.4038     -0.019     -0.027    27.1084   996.5036 0.0000e+00
     -0.013      0.025     7.9967    100.989     36.604  38.323927     4.6603      9.281   250.7293 1.2370e-01     4.3183     -0.011     -0.017    27.1476   996.4928 0.0000e+00
     -0.008      0.019     8.0046    101.150     36.573  38.317127     4.5784      9.272   250.1092 1.2372e-01     4.2740     -0.008     -0.011    27.1967   996.4793 0.0000e+00
     -0.004      0.014     7.9818    100.908     36.513  38.272633     4.5596      9.264   249.3014 1.2368e-01     4.2617     -0.005     -0.006    27.2482   996.4651 0.0000e+00
     -0.002      0.011     7.9243    100.214     36.460  38.230324     4.5541      9.257   248.5343 1.2366e-01     4.2350     -0.002     -0.003    27.2998   996.4508 0.0000e+00
     -0.001      0.010     7.8428     99.202     36.411  38.186456     4.5902      9.249   247.9752 1.2372e-01     4.3123     -0.001     -0.002    27.3473   996.4376 0.0000e+00
      0.000      0.010     7.7469     98.001     36.346  38.123102     4.6576      9.241   247.5314 1.2376e-01     4.4426      0.000     -0.001    27.3815   996.4281 0.0000e+00
      0.002      0.010     7.6537     96.836     36.256  38.035608     4.6841      9.233   246.9534 1.2376e-01     4.4661      0.002      0.003    27.4053   996.4213 0.0000e+00
      0.005      0.009     7.5893     96.041     36.170  37.953774     4.6684      9.226   246.3212 1.2373e-01     4.4329      0.004      0.006    27.4242   996.4161 0.0000e+00
      0.010      0.008     7.5481     95.540     36.166  37.958850     4.7452      9.218   245.8246 1.2374e-01     4.4343      0.010      0.014    27.4348   996.4133 0.0000e+00
      0.013      0.007     7.5055     95.014     36.232  38.033531     4.9195      9.210   245.5092 1.2381e-01     4.4501      0.014      0.020    27.4391   996.4121 0.0000e+00
      0.013      0.005     7.4537     94.363     36.290  38.095026     5.0150      9.203   245.1749 1.2381e-01     4.4606      0.013      0.019    27.4449   996.4103 0.0000e+00
      0.013      0.004     7.3936     93.598     36.325  38.131101     5.0239      9.196   244.7077 1.2375e-01     4.4623      0.013      0.019    27.4590   996.4064 0.0000e+00
      0.014      0.002     7.3273     92.751     36.348  38.152321     5.0188      9.190   244.3343 1.2373e-01     4.4388      0.014      0.020    27.4737   996.4022 0.0000e+00
      0.014      0.000     7.2574     91.852     36.363  38.161168     4.9965      9.183   243.9298 1.2371e-01     4.4388      0.014      0.020    27.4814   996.4001 0.0000e+00
      0.014 2.3920e-08     7.1893     90.967     36.386  38.174586     4.9797      9.177   243.4306 1.2364e-01     4.4942      0.014      0.020    27.4822   996.3999 0.0000e+00
      0.014 2.6312e-07     7.1345     90.247     36.409  38.187583     4.9721      9.171   242.9446 1.2365e-01     4.5190      0.015      0.021    27.4802   996.4005 0.0000e+00
      0.014 2.6620e-07     7.1060     89.862     36.424  38.191338     4.9134      9.166   242.2698 1.2371e-01     4.4755      0.014      0.020    27.4768   996.4015 0.0000e+00
      0.014 6.1148e-08     7.1156     89.965     36.459  38.219983     4.8163      9.162   241.6387 1.2373e-01     4.4600      0.013      0.019    27.4677   996.4040 0.0000e+00
      0.014 4.1198e-07     7.1742     90.693     36.522  38.280005     4.7776      9.157   241.3358 1.2373e-01     4.4958      0.014      0.020    27.4528   996.4082 0.0000e+00
      0.013      0.000     7.2811     92.035     36.589  38.345759     4.7922      9.152   241.1889 1.2372e-01     4.5156      0.013      0.019    27.4352   996.4131 0.0000e+00
      0.013      0.000     7.4261     93.860     36.625  38.380231     4.8363      9.147   241.0675 1.2372e-01     4.5022      0.013      0.019    27.4195   996.4175 0.0000e+00
      0.014      0.001     7.5933     95.962     36.629  38.379403     4.9125      9.143   240.9003 1.2370e-01     4.4658      0.014      0.020    27.4070   996.4210 0.0000e+00
      0.014      0.001     7.7554     98.001     36.652  38.399217     4.9591      9.138   240.5438 1.2371e-01     4.4363      0.014      0.020    27.3989   996.4233 0.0000e+00
      0.014      0.001     7.8889     99.679     36.684  38.429365     4.9581      9.133   240.0276 1.2372e-01     4.4393      0.014      0.020    27.3954   996.4243 0.0000e+00
      0.015      0.001     7.9833    100.859     36.687  38.426530     4.9601      9.129   239.5634 1.2367e-01     4.4375      0.015      0.021    27.3907   996.4256 0.0000e+00
      0.015      0.001     8.0380    101.529     36.696  38.428404     4.9840      9.126   239.1473 1.2369e-01     4.3817      0.015      0.021    27.3829   996.4278 0.0000e+00
      0.015      0.001     8.0567    101.745     36.726  38.452016     5.0039      9.121   238.6958 1.2374e-01     4.2892      0.015      0.021    27.3768   996.4295 0.0000e+00
      0.015      0.001     8.0424    101.553     36.736  38.458100     5.0109      9.116   238.3203 1.2374e-01     4.2359      0.015      0.021    27.3740   996.4302 0.0000e+00
      0.015      0.002     8.0009    101.027     36.718  38.438472     5.0076      9.112   238.0483 1.2374e-01     4.2617      0.015      0.021    27.3675   996.4320 0.0000e+00
      0.015      0.004     7.9471    100.346     36.687  38.405131     4.9726      9.108   237.8165 1.2371e-01     4.3392      0.015      0.022    27.3530   996.4361 0.0000e+00
      0.016      0.005     7.9008     99.752     36.659  38.372363     4.9169      9.104   237.5822 1.2371e-01     4.4194      0.015      0.021    27.3405   996.4396 0.0000e+00
      0.017      0.005     7.8648     99.282     36.654  38.359661     4.8896      9.102   237.2803 1.2376e-01     4.4445      0.017      0.024    27.3346   996.4412 0.0000e+00
      0.020      0.004     7.8291     98.819     36.677  38.378495     4.8931      9.101   236.8335 1.2377e-01     4.4459      0.020      0.029    27.3349   996.4412 0.0000e+00
      0.023      0.002     7.8026     98.484     36.707  38.409642     4.8896      9.100   236.3100 1.2375e-01     4.5352      0.023      0.034    27.3367   996.4407 0.0000e+00
      0.023      0.001     7.7998     98.455     36.713  38.418865     4.8646      9.096   235.9411 1.2378e-01     4.6717      0.025      0.036    27.3312   996.4422 0.0000e+00
      0.021     -0.001     7.8109     98.607     36.716  38.426535     4.8430      9.091   235.8155 1.2383e-01     4.7202      0.021      0.030    27.3197   996.4453 0.0000e+00
      0.019     -0.002     7.8158     98.684     36.721  38.438917     4.8358      9.086   235.7368 1.2381e-01     4.6943      0.017      0.025    27.3109   996.4478 0.0000e+00
      0.019     -0.002     7.8071     98.590     36.717  38.441630     4.8647      9.082   235.5058 1.2373e-01     4.6208      0.018      0.026    27.3109   996.4478 0.0000e+00
      0.019     -0.001     7.7948     98.449     36.728  38.459348     4.9325      9.078   235.0874 1.2369e-01     4.5210      0.019      0.027    27.3167   996.4462 0.0000e+00
      0.019      0.000     7.7938     98.447     36.727  38.462713     4.9703      9.076   234.6356 1.2366e-01     4.4704      0.018      0.028    27.3237   996.4442 0.0000e+00
      0.019 -3.878e-08     7.8087     98.641     36.683  38.418851     4.9662      9.073   234.3447 1.2361e-01     4.4677      0.019      0.027    27.3322   996.4419 0.0000e+00
      0.019 -4.266e-07     7.8326     98.942     36.640  38.373367     4.9791      9.069   234.2378 1.2364e-01     4.5214      0.018      0.026    27.3414   996.4393 0.0000e+00
      0.019 -4.266e-07     7.8578     99.256     36.627  38.357108     5.0301      9.064   234.2037 1.2370e-01     4.6283      0.019      0.027    27.3500   996.4369 0.0000e+00
      0.019 -3.878e-08     7.8810     99.538     36.623  38.349218     5.0715      9.060   233.9324 1.2372e-01     4.7110      0.019      0.027    27.3565   996.4351 0.0000e+00
      0.019 -3.525e-09     7.8985     99.747     36.621  38.341431     5.0809      9.056   233.4529 1.2370e-01     4.7343      0.019      0.027    27.3599   996.4343 0.0000e+00
      0.019 -3.205e-10     7.9069     99.842     36.611  38.326424     5.0832      9.053   233.1375 1.2369e-01     4.7133      0.019      0.027    27.3597   996.4342 0.0000e+00
      0.019 -2.913e-11     7.9044     99.802     36.584  38.294726     5.0649      9.049   233.0447 1.2372e-01     4.6223      0.019      0.028    27.3561   996.4352 0.0000e+00
      0.019 -2.649e-12     7.8899     99.612     36.569  38.275555     5.0327      9.046   233.0197 1.2369e-01     4.4848      0.019      0.027    27.3503   996.4368 0.0000e+00
      0.019 -2.405e-13     7.8643     99.280     36.581  38.285050     5.0236      9.043   232.9207 1.2363e-01     4.4276      0.019      0.027    27.3432   996.4388 0.0000e+00
      0.019 -1.890e-14     7.8316     98.855     36.583  38.282565     5.0237      9.040   232.6232 1.2359e-01     4.4551      0.019      0.027    27.3360   996.4408 0.0000e+00
      0.019 3.0937e-14     7.7942     98.369     36.553  38.245505     5.0172      9.037   232.2612 1.2360e-01     4.4575      0.018      0.026    27.3312   996.4421 0.0000e+00
      0.019 3.6201e-13     7.7511     97.809     36.533  38.217809     5.0141      9.034   232.0708 1.2366e-01     4.4232      0.019      0.028    27.3281   996.4430 0.0000e+00
      0.019 3.9841e-12     7.7041     97.202     36.524  38.201597     5.0208      9.032   232.0424 1.2368e-01     4.4333      0.019      0.027    27.3240   996.4442 0.0000e+00
      0.019 4.3825e-11     7.6571     96.595     36.506  38.176436     5.0283      9.029   232.0896 1.2367e-01     4.4491      0.019      0.027    27.3172   996.4460 0.0000e+00
      0.019 4.8208e-10     7.6118     96.005     36.504  38.167479     5.0273      9.026   232.0394 1.2369e-01     4.4499      0.019      0.027    27.3085   996.4484 0.0000e+00
      0.019 5.3029e-09     7.5698     95.455     36.502  38.156767     5.0260      9.024   231.8657 1.2374e-01     4.4761      0.019      0.027    27.2994   996.4510 0.0000e+00
      0.019 5.8341e-08     7.5302     94.935     36.466  38.110376     5.0210      9.022   231.7092 1.2379e-01     4.4711      0.019      0.028    27.2912   996.4533 0.0000e+00
      0.019 6.4177e-07     7.4918     94.430     36.418  38.050893     5.0108      9.019   231.5251 1.2382e-01     4.4546      0.019      0.027    27.2830   996.4555 0.0000e+00
      0.020      0.000     7.4549     93.945     36.386  38.008839     5.0240      9.016   231.2736 1.2382e-01     4.4739      0.019      0.028    27.2723   996.4585 0.0000e+00
      0.020      0.000     7.4169     93.447     36.369  37.982747     5.0589      9.014   231.1640 1.2384e-01     4.5075      0.020      0.028    27.2596   996.4620 0.0000e+00
      0.019      0.001     7.3743     92.889     36.324  37.925837     5.0769      9.012   231.1464 1.2384e-01     4.5008      0.019      0.026    27.2473   996.4654 0.0000e+00
      0.019      0.001     7.3282     92.285     36.240  37.828527     5.0779      9.010   230.9748 1.2379e-01     4.4575      0.018      0.027    27.2357   996.4685 0.0000e+00
      0.019      0.001     7.2801     91.652     36.184  37.758307     5.0704      9.008   230.7242 1.2373e-01     4.4432      0.019      0.027    27.2238   996.4718 0.0000e+00
      0.020      0.001     7.2286     90.976     36.151  37.711541     5.0563      9.005   230.5246 1.2374e-01     4.4597      0.020      0.028    27.2116   996.4753 0.0000e+00
      0.021      0.001     7.1744     90.265     36.098  37.643916     5.0459      9.001   230.4548 1.2378e-01     4.4593      0.021      0.030    27.1996   996.4786 0.0000e+00
      0.021      0.001     7.1173     89.519     36.045  37.575394     5.0305      8.998   230.6544 1.2376e-01     4.4388      0.021      0.030    27.1857   996.4824 0.0000e+00
      0.021      0.000     7.0568     88.732     36.001  37.517784     5.0177      8.995   230.9588 1.2371e-01     4.4743      0.021      0.030    27.1696   996.4869 0.0000e+00
      0.021 1.8628e-08     6.9974     87.963     35.951  37.455139     5.0306      8.990   230.9523 1.2368e-01     4.5276      0.020      0.029    27.1517   996.4918 0.0000e+00
      0.021 2.0490e-07     6.9423     87.250     35.897  37.389202     5.0553      8.985   230.7480 1.2375e-01     4.5263      0.021      0.030    27.1338   996.4967 0.0000e+00
      0.021 2.0490e-07     6.8889     86.560     35.872  37.355275     5.0648      8.981   230.6387 1.2378e-01     4.4905      0.020      0.029    27.1165   996.5014 0.0000e+00
      0.021 1.8627e-08     6.8369     85.890     35.886  37.362283     5.0603      8.979   230.8359 1.2373e-01     4.4565      0.021      0.030    27.0996   996.5061 0.0000e+00
      0.021 1.6934e-09     6.7880     85.261     35.878  37.346983     5.0179      8.976   231.1529 1.2369e-01     4.4753      0.020      0.029    27.0850   996.5101 0.0000e+00
      0.021 1.5418e-10     6.7433     84.685     35.838  37.297218     4.9422      8.974   231.0301 1.2368e-01     4.4881      0.020      0.029    27.0726   996.5135 0.0000e+00
      0.021 1.6540e-11     6.7021     84.152     35.817  37.268362     4.9072      8.972   230.7283 1.2370e-01     4.4800      0.021      0.030    27.0613   996.5166 0.0000e+00
      0.021 2.9263e-11     6.6632     83.650     35.807  37.251975     4.9068      8.971   230.4293 1.2372e-01     4.5091      0.021      0.030    27.0506   996.5196 0.0000e+00
      0.021 3.0801e-10     6.6277     83.190     35.788  37.226019     4.9028      8.971   229.9966 1.2371e-01     4.5121      0.021      0.030    27.0401   996.5225 0.0000e+00
      0.021 3.3869e-09     6.5939     82.752     35.778  37.208416     4.9018      8.971   230.0556 1.2370e-01     4.4829      0.021      0.030    27.0299   996.5253 0.0000e+00
      0.021 3.7255e-08     6.5603     82.317     35.743  37.166074     4.9036      8.970   230.5403 1.2369e-01     4.4837      0.020      0.029    27.0200   996.5280 0.0000e+00
      0.021 4.0981e-07     6.5279     81.899     35.679  37.094897     4.9078      8.969   230.6951 1.2369e-01     4.4892      0.021      0.030    27.0109   996.5305 0.0000e+00
      0.021      0.000     6.4974     81.506     35.698  37.109487     4.9352      8.968   230.4652 1.2366e-01     4.4508      0.020      0.029    27.0015   996.5330 0.0000e+00
      0.021      0.000     6.4716     81.173     36.049  37.469422     4.9835      8.967   230.0836 1.2357e-01     4.4137      0.020      0.029    26.9931   996.5353 0.0000e+00
      0.021      0.001     6.4717     81.175     36.761  38.209616     5.0053      8.965   230.0382 1.2359e-01     4.4336      0.020      0.028    26.9839   996.5378 0.0000e+00
      0.021      0.001     6.5859     82.678     37.320  38.822848     4.9997      8.963   230.3473 1.2369e-01     4.4617      0.021      0.029    26.9771   996.5397 0.0000e+00
      0.021      0.001     6.9451     87.371     37.451  39.044131     4.9417      8.961   230.4655 1.2374e-01     4.4589      0.021      0.030    26.9682   996.5421 0.0000e+00
      0.021      0.001     7.5591     95.331     37.414  39.107875     4.8341      8.959   230.2625 1.2372e-01     4.4649      0.021      0.030    26.9651   996.5430 0.0000e+00
      0.022      0.001     8.2841    104.676     37.375  39.149374     4.7818      8.956   229.9576 1.2370e-01     4.5012      0.022      0.031    26.9495   996.5476 0.0000e+00
      0.022      0.001     8.9721    113.516     37.336  39.165134     4.7860      8.953   229.8770 1.2374e-01     4.5053      0.022      0.032    26.9712   996.5419 0.0000e+00
      0.022      0.001     9.5520    120.947     37.310  39.171567     4.8240      8.950   230.0615 1.2376e-01     4.4161      0.022      0.032    27.1142   996.5025 0.0000e+00
      0.023      0.000     9.9922    126.568     37.286  39.163727     4.8947      8.948   230.2956 1.2374e-01     4.3076      0.022      0.032    27.2728   996.4587 0.0000e+00
      0.023 2.2785e-08    10.2667    130.058     37.253  39.133838     4.9386      8.947   230.3843 1.2376e-01     4.2741      0.022      0.032    27.3799   996.4289 0.0000e+00
      0.022 2.5063e-07    10.3700    131.370     37.246  39.127596     4.9563      8.947   230.1883 1.2378e-01     4.2734      0.022      0.031    27.4545   996.4080 0.0000e+00
      0.022 7.0792e-07    10.3287    130.859     37.265  39.151728     4.9701      8.949   229.8185 1.2375e-01     4.2659      0.022      0.031    27.4970   996.3961 0.0000e+00
      0.022      0.000    10.2022    129.274     37.279  39.171706     5.0008      8.951   229.6123 1.2366e-01     4.2499      0.022      0.032    27.5177   996.3904 0.0000e+00
      0.022      0.000    10.0565    127.434     37.284  39.178722     5.0593      8.952   229.5878 1.2363e-01     4.2436      0.022      0.032    27.5193   996.3899 0.0000e+00
      0.023      0.001     9.9284    125.808     37.279  39.173079     5.0959      8.953   229.2641 1.2366e-01     4.2548      0.022      0.032    27.5162   996.3908 0.0000e+00
      0.023      0.002     9.8267    124.528     37.271  39.166950     5.0966      8.954   228.3658 1.2369e-01     4.2549      0.023      0.033    27.5223   996.3891 0.0000e+00
      0.023      0.006     9.7481    123.543     37.268  39.168095     5.0770      8.954   227.3306 1.2372e-01     4.3758      0.023      0.033    27.5349   996.3855 0.0000e+00
      0.023      0.011     9.6896    122.804     37.285  39.186940     5.0491      8.954   226.4705 1.2370e-01     4.6022      0.023      0.033    27.5366   996.3851 0.0000e+00
      0.025      0.017     9.6472    122.269     37.301  39.204363     5.0289      8.955   225.8816 1.2367e-01     4.6981      0.024      0.034    27.5302   996.3869 0.0000e+00
      0.030      0.025     9.6117    121.831     37.282  39.188310     5.0055      8.956   225.6311 1.2371e-01     4.7158      0.028      0.041    27.5356   996.3854 0.0000e+00
      0.038      0.035     9.5786    121.432     37.270  39.183286     4.9398      8.954   225.4208 1.2376e-01     4.8171      0.037      0.054    27.5454   996.3827 0.0000e+00
      0.049      0.044     9.5510    121.115     37.282  39.207115     4.8418      8.947   225.2316 1.2378e-01     4.9394      0.048      0.069    27.5437   996.3832 0.0000e+00
      0.061      0.052     9.5328    120.923     37.285  39.222524     4.7915      8.939   225.1504 1.2376e-01     4.9494      0.059      0.085    27.5426   996.3836 0.0000e+00
      0.076      0.058     9.5245    120.843     37.295  39.242655     4.7906      8.929   224.7832 1.2370e-01     4.9045      0.073      0.105    27.5481   996.3821 0.0000e+00
      0.093      0.062     9.5231    120.832     37.310  39.260095     4.8216      8.919   224.2332 1.2371e-01     4.9215      0.091      0.133    27.5568   996.3797 0.0000e+00
      0.111      0.065     9.5244    120.843     37.295  39.242955     4.8810      8.908   224.1779 1.2375e-01     4.9575      0.108      0.157    27.5732   996.3753 0.0000e+00
      0.128      0.066     9.5243    120.833     37.282  39.225840     4.9105      8.894   224.5453 1.2373e-01     4.9478      0.125      0.181    27.5946   996.3693 0.0000e+00
      0.145      0.066     9.5248    120.833     37.301  39.243597     4.9096      8.878   224.8040 1.2373e-01     4.9021      0.143      0.207    27.6087   996.3654 0.0000e+00
      0.161      0.064     9.5279    120.873     37.323  39.267220     4.9220      8.867   224.4667 1.2377e-01     4.8634      0.157      0.228    27.6090   996.3654 0.0000e+00
      0.178      0.062     9.5277    120.879     37.311  39.257537     4.9475      8.862   223.8227 1.2380e-01     4.8734      0.175      0.252    27.6045   996.3667 0.0000e+00
      0.195      0.061     9.5237    120.835     37.306  39.253486     4.9580      8.860   223.6421 1.2381e-01     4.9247      0.193      0.280    27.6012   996.3678 0.0000e+00
      0.209      0.061     9.5259    120.866     37.331  39.281724     4.9536      8.855   224.0036 1.2379e-01     4.9266      0.206      0.301    27.5969   996.3691 0.0000e+00
      0.221      0.065     9.5347    120.989     37.326  39.281557     4.9470      8.850   224.5799 1.2379e-01     4.8965      0.216      0.313    27.5967   996.3692 0.0000e+00
      0.235      0.071     9.5455    121.149     37.290  39.251482     4.8775      8.846   224.8467 1.2378e-01     4.9542      0.229      0.332    27.6026   996.3675 0.0000e+00
      0.253      0.078     9.5590    121.354     37.263  39.235497     4.7468      8.846   224.9061 1.2375e-01     5.0664      0.247      0.358    27.6058   996.3666 0.0000e+00
      0.276      0.085     9.5690    121.518     37.232  39.215260     4.6748      8.846   225.2125 1.2373e-01     5.1394      0.269      0.390    27.6053   996.3669 0.0000e+00
      0.303      0.090     9.5747    121.620     37.206  39.197255     4.6751      8.843   225.6249 1.2369e-01     5.1479      0.298      0.432    27.6094   996.3660 0.0000e+00
      0.330      0.090     9.5858    121.779     37.211  39.208258     4.7586      8.839   226.1069 1.2366e-01     5.0378      0.325      0.472    27.6214   996.3627 0.0000e+00
      0.354      0.086     9.6076    122.059     37.222  39.221346     4.9138      8.834   226.7380 1.2371e-01     4.8242      0.348      0.505    27.6384   996.3579 0.0000e+00
      0.375      0.079     9.6386    122.444     37.232  39.228541     4.9992      8.829   227.0604 1.2376e-01     4.6961      0.369      0.534    27.6569   996.3529 0.0000e+00
      0.394      0.069     9.6781    122.920     37.243  39.231763     5.0106      8.827   226.8221 1.2375e-01     4.7011      0.387      0.561    27.6715   996.3488 0.0000e+00
      0.410      0.061     9.7286    123.510     37.226  39.196804     4.9906      8.829   226.5242 1.2367e-01     4.6557      0.403      0.584    27.6797   996.3467 0.0000e+00
      0.423      0.055     9.7908    124.223     37.181  39.123238     4.9321      8.833   226.6414 1.2362e-01     4.5399      0.416      0.603    27.6815   996.3462 0.0000e+00
      0.435      0.053     9.8635    125.036     37.137  39.040514     4.8918      8.834   227.1211 1.2365e-01     4.4811      0.427      0.619    27.6776   996.3473 0.0000e+00
      0.446      0.057     9.9431    125.876     37.112  38.958289     4.8943      8.831   227.5052 1.2369e-01     4.4690      0.437      0.634    27.6664   996.3505 0.0000e+00
      0.457      0.064    10.0187    126.599     37.121  38.890726     4.9614      8.826   227.5004 1.2367e-01     4.4600      0.447      0.647    27.6448   996.3566 0.0000e+00
      0.472      0.071    10.0801    127.139     37.164  38.858280     5.0790      8.824   227.3214 1.2371e-01     4.4700      0.459      0.666    27.6087   996.3668 0.0000e+00
      0.493      0.077    10.1331    127.644     37.178  38.819784     5.1371      8.825   227.3196 1.2375e-01     4.4586      0.481      0.698    27.5652   996.3791 0.0000e+00
      0.520      0.082    10.1909    128.262     37.138  38.742583     5.1263      8.826   227.4785 1.2371e-01     4.3888      0.510      0.739    27.4949   996.3989 0.0000e+00
      0.546      0.084    10.2574    128.953     37.129  38.686548     5.0878      8.824   227.6935 1.2376e-01     4.4119      0.538      0.780    27.3796   996.4312 0.0000e+00
      0.567      0.081    10.3259    129.621     37.154  38.650023     5.0354      8.817   227.8547 1.2383e-01     4.5744      0.557      0.808    27.2561   996.4655 0.0000e+00
      0.584      0.075    10.3869    130.209     37.177  38.618248     5.0125      8.813   227.7923 1.2380e-01     4.6817      0.572      0.830    27.1885   996.4844 0.0000e+00
      0.602      0.066    10.4369    130.723     37.213  38.619659     5.0107      8.816   227.6275 1.2375e-01     4.6927      0.590      0.855    27.1645   996.4911 0.0000e+00
      0.621      0.060    10.4812    131.228     37.213  38.603559     5.0055      8.819   227.4114 1.2379e-01     4.6753      0.610      0.885    27.1005   996.5088 0.0000e+00
      0.635      0.056    10.5192    131.687     37.167  38.550519     5.0093      8.822   227.2443 1.2381e-01     4.6021      0.626      0.908    27.0032   996.5357 0.0000e+00
      0.645      0.055    10.5401    131.926     37.112  38.486166     5.0218      8.826   227.5855 1.2374e-01     4.4962      0.631      0.914    26.9197   996.5587 0.0000e+00
      0.657      0.056    10.5375    131.833     37.044  38.396761     5.0278      8.828   228.1813 1.2369e-01     4.4428      0.642      0.931    26.8733   996.5715 0.0000e+00
      0.672      0.058    10.5150    131.456     37.036  38.358179     5.0293      8.828   228.1683 1.2366e-01     4.4478      0.662      0.959    26.8564   996.5762 0.0000e+00
      0.686      0.058    10.4809    130.931     37.106  38.400490     5.0665      8.828   227.7713 1.2361e-01     4.5251      0.670      0.973    26.8559   996.5763 0.0000e+00
      0.704      0.057    10.4416    130.395     37.121  38.400475     5.1391      8.829   227.5977 1.2371e-01     4.6564      0.686      0.996    26.8523   996.5774 0.0000e+00
      0.724      0.054    10.4009    129.887     37.018  38.294499     5.1872      8.831   227.9612 1.2381e-01     4.7239      0.713      1.034    26.8259   996.5847 0.0000e+00
      0.739      0.051    10.3650    129.409     36.873  38.134789     5.1977      8.830   228.5533 1.2376e-01     4.7180      0.727      1.055    26.7811   996.5970 0.0000e+00
      0.746      0.046    10.3365    128.954     36.827  38.056339     5.2224      8.826   228.5625 1.2368e-01     4.6509      0.731      1.060    26.7263   996.6119 0.0000e+00
      0.754      0.040    10.3079    128.500     36.907  38.107630     5.2781      8.823   228.3301 1.2372e-01     4.5358      0.737      1.070    26.7059   996.6175 0.0000e+00
      0.765      0.034    10.2760    128.080     36.987  38.183608     5.3161      8.822   228.2390 1.2377e-01     4.4725      0.749      1.086    26.7249   996.6124 0.0000e+00
      0.776      0.032    10.2451    127.721     37.008  38.213254     5.3265      8.822   228.1492 1.2373e-01     4.4760      0.764      1.107    26.7208   996.6135 0.0000e+00
      0.783      0.032    10.2189    127.409     37.003  38.212190     5.3768      8.822   228.3626 1.2372e-01     4.5457      0.770      1.117    26.6616   996.6297 0.0000e+00
      0.788      0.034    10.2014    127.172     36.968  38.170755     5.4742      8.819   228.8397 1.2371e-01     4.6595      0.771      1.118    26.6039   996.6453 0.0000e+00
      0.793      0.038    10.1959    127.062     36.906  38.093113     5.5335      8.813   229.1009 1.2366e-01     4.7060      0.777      1.126    26.6030   996.6457 0.0000e+00
      0.801      0.044    10.1969    127.025     36.865  38.035124     5.5561      8.805   228.9389 1.2369e-01     4.7142      0.784      1.137    26.6262   996.6394 0.0000e+00
      0.813      0.050    10.1989    126.996     36.825  37.977402     5.6435      8.797   228.6015 1.2382e-01     4.8240      0.796      1.154    26.6347   996.6371 0.0000e+00
      0.831      0.057    10.2037    126.989     36.774  37.902980     5.7838      8.790   228.8067 1.2394e-01     5.0176      0.815      1.183    26.6236   996.6402 0.0000e+00
      0.851      0.063    10.2099    126.960     36.740  37.833499     5.8474      8.783   229.5280 1.2392e-01     5.1544      0.835      1.213    26.6027   996.6459 0.0000e+00
      0.866      0.067    10.2116    126.840     36.724  37.772020     5.8414      8.775   230.0099 1.2382e-01     5.1662      0.850      1.233    26.5804   996.6520 0.0000e+00
      0.881      0.069    10.2068    126.645     36.726  37.730848     5.8491      8.769   230.1584 1.2379e-01     5.1277      0.863      1.252    26.5579   996.6582 0.0000e+00
      0.899      0.070    10.2007    126.461     36.746  37.716476     5.9497      8.764   230.2053 1.2375e-01     5.1152      0.881      1.278    26.5362   996.6641 0.0000e+00
      0.919      0.075    10.1973    126.327     36.783  37.725153     6.1211      8.759   230.3186 1.2374e-01     5.1465      0.902      1.309    26.4893   996.6769 0.0000e+00
      0.937      0.082    10.1949    126.202     36.797  37.708759     6.1965      8.753   230.6680 1.2373e-01     5.1775      0.921      1.335    26.4178   996.6963 0.0000e+00
      0.954      0.090    10.1939    126.079     36.770  37.645165     6.1925      8.747   231.1605 1.2368e-01     5.1632      0.933      1.354    26.3558   996.7131 0.0000e+00
      0.977      0.095    10.2040    126.081     36.756  37.590938     6.3158      8.738   231.4555 1.2368e-01     5.3009      0.955      1.386    26.3109   996.7252 0.0000e+00
      1.007      0.096    10.2400    126.394     36.768  37.560853     6.5609      8.729   231.4806 1.2374e-01     5.6302      0.988      1.433    26.2752   996.7349 0.0000e+00
      1.038      0.092    10.3035    127.057     36.780  37.535240     6.6935      8.724   231.4643 1.2378e-01     5.8349      1.019      1.478    26.2354   996.7458 0.0000e+00
      1.066      0.085    10.3815    127.935     36.806  37.535099     6.7051      8.723   231.5164 1.2373e-01     5.8419      1.047      1.519    26.1858   996.7591 0.0000e+00
      1.089      0.075    10.4646    128.903     36.847  37.559108     6.7882      8.722   231.5948 1.2369e-01     5.7154      1.072      1.555    26.1319   996.7737 0.0000e+00
      1.101      0.066    10.5483    129.886     36.873  37.571593     6.9532      8.720   231.6383 1.2369e-01     5.5178      1.082      1.570    26.0711   996.7899 0.0000e+00
      1.108      0.057    10.6284    130.822     36.876  37.559088     7.0432      8.718   231.6978 1.2366e-01     5.4190      1.084      1.571    26.0125   996.8055 0.0000e+00
      1.120      0.051    10.7042    131.696     36.871  37.534839     7.0447      8.716   231.7975 1.2362e-01     5.4050      1.096      1.589    25.9794   996.8144 0.0000e+00
      1.138      0.049    10.7772    132.549     36.882  37.532265     7.1098      8.714   231.6393 1.2363e-01     5.3820      1.116      1.619    25.9597   996.8197 0.0000e+00
      1.154      0.050    10.8453    133.388     36.877  37.527951     7.2497      8.713   231.3336 1.2371e-01     5.3697      1.133      1.643    25.9405   996.8249 0.0000e+00
      1.164      0.053    10.9031    134.124     36.826  37.482680     7.3312      8.711   231.3704 1.2375e-01     5.3879      1.143      1.657    25.9216   996.8299 0.0000e+00
      1.174      0.056    10.9453    134.640     36.712  37.365754     7.3409      8.706   231.6543 1.2370e-01     5.4056      1.150      1.668    25.8932   996.8375 0.0000e+00
      1.186      0.061    10.9679    134.846     36.563  37.193267     7.3244      8.699   232.0133 1.2364e-01     5.4523      1.162      1.685    25.8661   996.8447 0.0000e+00
      1.201      0.067    10.9711    134.737     36.463  37.047445     7.2960      8.694   232.3563 1.2368e-01     5.5593      1.175      1.704    25.8705   996.8436 0.0000e+00
      1.221      0.075    10.9580    134.375     36.349  36.872048     7.2834      8.687   232.3589 1.2373e-01     5.6175      1.195      1.734    25.8916   996.8381 0.0000e+00
      1.245      0.083    10.9340    133.852     36.206  36.659287     7.2850      8.679   232.1312 1.2373e-01     5.5991      1.222      1.773    25.8945   996.8375 0.0000e+00
      1.266      0.087    10.9026    133.242     36.121  36.505978     7.2887      8.673   232.0974 1.2369e-01     5.5664      1.242      1.801    25.8681   996.8444 0.0000e+00
      1.289      0.087    10.8621    132.558     36.086  36.414684     7.3287      8.668   232.2086 1.2370e-01     5.5496      1.261      1.828    25.8022   996.8619 0.0000e+00
      1.315      0.081    10.8006    131.668     36.094  36.380510     7.4039      8.664   232.4439 1.2375e-01     5.5599      1.290      1.871    25.7168   996.8844 0.0000e+00
      1.340      0.072    10.7023    130.373     36.153  36.410085     7.4437      8.660   232.7054 1.2374e-01     5.5603      1.316      1.911    25.6198   996.9100 0.0000e+00
      1.358      0.062    10.5637    128.633     36.213  36.454873     7.4467      8.657   232.5317 1.2374e-01     5.5534      1.334      1.934    25.5197   996.9363 0.0000e+00
      1.370      0.052    10.3992    126.615     36.177  36.414237     7.3790      8.655   232.2353 1.2375e-01     5.5096      1.345      1.950    25.4420   996.9566 0.0000e+00
      1.378      0.047    10.2371    124.625     36.068  36.299582     7.2404      8.651   232.3912 1.2370e-01     5.4240      1.353      1.963    25.3852   996.9714 0.0000e+00
      1.384      0.047    10.1026    122.915     36.003  36.211063     7.1585      8.642   232.8687 1.2367e-01     5.4036      1.357      1.969    25.3446   996.9820 0.0000e+00
      1.391      0.052     9.9984    121.515     36.004  36.169057     7.1607      8.631   233.3627 1.2380e-01     5.4592      1.360      1.973    25.3211   996.9882 0.0000e+00
      1.404      0.059     9.9023    120.205     36.054  36.172443     7.3443      8.618   233.5454 1.2388e-01     5.6377      1.372      1.991    25.3219   996.9880 0.0000e+00
      1.424      0.066     9.7829    118.647     36.105  36.188462     7.6798      8.605   233.5294 1.2382e-01     5.9229      1.396      2.026    25.3265   996.9868 0.0000e+00
      1.448      0.072     9.6250    116.644     36.118  36.172278     7.8609      8.593   233.7714 1.2380e-01     6.0563      1.422      2.062    25.2945   996.9952 0.0000e+00
      1.468      0.076     9.4406    114.303     36.149  36.167137     7.8871      8.580   234.4925 1.2379e-01     6.0382      1.441      2.090    25.2249   997.0132 0.0000e+00
      1.486      0.077     9.2457    111.812     36.218  36.189712     8.0059      8.562   235.5369 1.2372e-01     5.9995      1.458      2.114    25.1508   997.0325 0.0000e+00
      1.504      0.076     9.0297    109.059     36.271  36.191281     8.2216      8.543   236.2464 1.2367e-01     5.9162      1.475      2.139    25.1055   997.0442 0.0000e+00
      1.523      0.074     8.7604    105.676     36.315  36.186029     8.3442      8.528   236.6184 1.2364e-01     5.8494      1.492      2.164    25.0747   997.0523 0.0000e+00
      1.543      0.074     8.4230    101.501     36.360  36.189612     8.3708      8.515   237.7114 1.2364e-01     5.8153      1.512      2.192    25.0236   997.0655 0.0000e+00
      1.563      0.074     8.0335     96.721     36.377  36.171063     8.4999      8.501   239.5678 1.2370e-01     5.6678      1.534      2.224    24.9564   997.0828 0.0000e+00
      1.583      0.075     7.6139     91.592     36.391  36.152123     8.7437      8.485   240.7378 1.2374e-01     5.4426      1.554      2.254    24.8817   997.1019 0.0000e+00
      1.599      0.077     7.1876     86.389     36.424  36.150974     8.8738      8.468   240.9297 1.2375e-01     5.3535      1.568      2.275    24.8118   997.1199 0.0000e+00
      1.616      0.077     6.7667     81.257     36.466  36.157117     8.8766      8.453   241.0276 1.2377e-01     5.3771      1.583      2.296    24.7578   997.1337 0.0000e+00
      1.637      0.075     6.3585     76.287     36.507  36.162880     8.8815      8.438   241.4058 1.2377e-01     5.3996      1.604      2.326    24.7107   997.1457 0.0000e+00
      1.661      0.073     5.9805     71.697     36.531  36.157123     8.9153      8.425   241.9744 1.2370e-01     5.3964      1.629      2.364    24.6665   997.1571 0.0000e+00
      1.683      0.072     5.6377     67.545     36.550  36.150941     8.9726      8.412   242.4825 1.2363e-01     5.3716      1.652      2.396    24.6209   997.1687 0.0000e+00
      1.699      0.069     5.3302     63.825     36.573  36.151568     9.0029      8.399   242.9020 1.2365e-01     5.3621      1.666      2.418    24.5710   997.1814 0.0000e+00
      1.712      0.063     5.0673     60.645     36.606  36.164671     9.0037      8.387   243.3475 1.2363e-01     5.3467      1.677      2.433    24.5202   997.1942 0.0000e+00
      1.728      0.056     4.8512     58.042     36.636  36.182398     8.9993      8.375   243.8254 1.2358e-01     5.2178      1.694      2.457    24.4785   997.2048 0.0000e+00
      1.744      0.051     4.6761     55.951     36.626  36.175473     8.9940      8.365   244.2929 1.2364e-01     5.0490      1.713      2.485    24.4487   997.2124 0.0000e+00
      1.757      0.049     4.5471     54.421     36.584  36.144418     8.9995      8.355   244.6970 1.2372e-01     5.0103      1.725      2.502    24.4180   997.2202 0.0000e+00
      1.766      0.047     4.4752     53.577     36.551  36.124288     9.0052      8.345   245.0130 1.2373e-01     4.9789      1.732      2.512    24.3866   997.2280 0.0000e+00
      1.775      0.044     4.4628     53.449     36.534  36.122508     9.0032      8.333   245.1872 1.2374e-01     4.8003      1.739      2.522    24.3657   997.2333 0.0000e+00
      1.787      0.043     4.4961     53.871     36.518  36.122911     9.0003      8.323   245.4272 1.2372e-01     4.5874      1.752      2.541    24.3751   997.2310 0.0000e+00
      1.800      0.044     4.5457     54.476     36.516  36.129190     9.0048      8.313   246.0208 1.2372e-01     4.5033      1.766      2.562    24.3948   997.2261 0.0000e+00
      1.812      0.045     4.5906     55.005     36.529  36.134970     9.0066      8.304   246.6000 1.2375e-01     4.5048      1.778      2.577    24.4082   997.2228 0.0000e+00
      1.822      0.048     4.6273     55.430     36.534  36.129310     8.9172      8.295   247.0100 1.2369e-01     4.4410      1.786      2.591    24.4290   997.2177 0.0000e+00
      1.833      0.051     4.6565     55.760     36.543  36.124214     8.7481      8.285   247.6226 1.2358e-01     4.3219      1.797      2.606    24.4564   997.2108 0.0000e+00
      1.844      0.054     4.6843     56.039     36.594  36.136799     8.6519      8.273   248.4141 1.2358e-01     4.2767      1.809      2.623    24.4769   997.2057 0.0000e+00
      1.858      0.058     4.7156     56.311     36.685  36.154488     8.6295      8.260   249.3535 1.2367e-01     4.2878      1.821      2.641    24.4556   997.2111 0.0000e+00
      1.876      0.060     4.7216     56.259     36.765  36.147573     8.5044      8.248   250.2904 1.2368e-01     4.2268      1.839      2.667    24.4348   997.2165 0.0000e+00
      1.895      0.060     4.6391     55.168     36.814  36.116533     8.2659      8.238   250.7949 1.2367e-01     4.0973      1.859      2.698    24.4361   997.2162 0.0000e+00
      1.912      0.060     4.4280     52.575     36.857  36.096414     8.1302      8.228   250.9786 1.2371e-01     4.0325      1.876      2.721    24.3906   997.2277 0.0000e+00
      1.926      0.061     4.1026     48.649     36.907  36.094644     8.1207      8.216   251.1346 1.2375e-01     4.0329      1.889      2.739    24.2787   997.2558 0.0000e+00
      1.938      0.063     3.7074     43.908     36.959  36.095063     8.1339      8.202   251.3904 1.2376e-01     4.0045      1.901      2.758    24.1486   997.2882 0.0000e+00
      1.950      0.065     3.2883     38.888     37.027  36.101402     8.2633      8.188   251.9201 1.2373e-01     3.9189      1.911      2.771    24.0381   997.3155 0.0000e+00
      1.968      0.068     2.8819     34.026     37.101  36.107734     8.4975      8.175   252.5500 1.2372e-01     3.8159      1.926      2.794    23.9553   997.3361 0.0000e+00
      1.991      0.073     2.5115     29.604     37.167  36.108049     8.6163      8.162   252.9834 1.2375e-01     3.7752      1.953      2.833    23.8942   997.3513 0.0000e+00
      2.013      0.078     2.1822     25.681     37.296  36.168596     8.6157      8.148   253.3741 1.2374e-01     3.7542      1.976      2.866    23.8306   997.3670 0.0000e+00
      2.031      0.082     1.8928     22.234     37.476  36.268469     8.5337      8.134   253.8321 1.2372e-01     3.5956      1.992      2.889    23.7490   997.3871 0.0000e+00
      2.049      0.082     1.6400     19.225     37.593  36.299955     8.3787      8.121   254.2195 1.2373e-01     3.3646      2.007      2.910    23.6549   997.4100 0.0000e+00
      2.072      0.079     1.4073     16.469     37.658  36.295281     8.3022      8.109   254.6168 1.2375e-01     3.2876      2.031      2.944    23.5681   997.4311 0.0000e+00
      2.097      0.075     1.1822     13.820     37.677  36.275339     8.3113      8.097   255.0219 1.2373e-01     3.2873      2.059      2.987    23.4902   997.4502 0.0000e+00
      2.118      0.073     0.9738     11.378     37.675  36.249194     8.3337      8.087   255.3324 1.2370e-01     3.0993      2.080      3.017    23.3908   997.4745 0.0000e+00
      2.132      0.070     0.7952      9.285     37.755  36.296496     8.3561      8.078   255.5311 1.2370e-01     2.7844      2.091      3.032    23.2658   997.5045 0.0000e+00
      2.145      0.066     0.6572      7.666     37.902  36.402910     8.3564      8.068   255.5317 1.2373e-01     2.6263      2.102      3.048    23.1655   997.5285 0.0000e+00
      2.161      0.063     0.5689      6.630     37.991  36.456760     8.3458      8.058   255.5115 1.2375e-01     2.6289      2.119      3.074    23.1284   997.5374 0.0000e+00
      2.179      0.063     0.5309      6.183     38.004  36.439781     8.3830      8.048   255.7165 1.2378e-01     2.6199      2.137      3.099    23.1104   997.5417 0.0000e+00
      2.197      0.066     0.5346      6.220     38.049  36.451468     8.4603      8.038   256.2046 1.2381e-01     2.5820      2.154      3.125    23.0651   997.5526 0.0000e+00
      2.213      0.072     0.5576      6.480     38.187  36.534556     8.4993      8.026   256.8529 1.2376e-01     2.5642      2.172      3.151    23.0140   997.5649 0.0000e+00
      2.227      0.078     0.5796      6.721     38.366  36.619171     8.4918      8.013   257.3602 1.2370e-01     2.5367      2.184      3.169    22.9742   997.5744 0.0000e+00
      2.243      0.084     0.5913      6.838     38.522  36.649283     8.3780      8.000   257.6920 1.2370e-01     2.5108      2.197      3.187    22.9378   997.5831 0.0000e+00
      2.268      0.087     0.5857      6.754     38.642  36.644570     8.1728      7.990   257.8538 1.2371e-01     2.5143      2.220      3.220    22.9007   997.5920 0.0000e+00
      2.298      0.087     0.5603      6.445     38.722  36.625491     8.0648      7.980   257.9390 1.2368e-01     2.5131      2.255      3.270    22.8517   997.6038 0.0000e+00
      2.327      0.084     0.5224      5.998     38.781  36.608891     8.0516      7.971   258.2060 1.2368e-01     2.4966      2.286      3.315    22.7376   997.6307 0.0000e+00
      2.349      0.078     0.4809      5.515     38.867  36.634180     8.0306      7.962   258.5880 1.2370e-01     2.4781      2.305      3.343    22.5603   997.6722 0.0000e+00
      2.364      0.072     0.4437      5.082     39.032  36.740765     7.8548      7.954   259.1159 1.2370e-01     2.4197      2.318      3.362    22.3976   997.7100 0.0000e+00
      2.377      0.069     0.4162      4.760     39.241  36.881956     7.5296      7.944   259.5983 1.2370e-01     2.3486      2.331      3.382    22.2765   997.7380 0.0000e+00
      2.389      0.072     0.3990      4.555     39.454  37.008288     7.3501      7.930   259.7739 1.2368e-01     2.3392      2.343      3.397    22.1876   997.7584 0.0000e+00
      2.403      0.079     0.3925      4.471     39.672  37.125608     7.3228      7.918   259.9484 1.2366e-01     2.3394      2.354      3.414    22.1192   997.7741 0.0000e+00
      2.425      0.085     0.3956      4.497     39.862  37.221272     7.1742      7.908   260.2455 1.2368e-01     2.3173      2.374      3.444    22.0629   997.7871 0.0000e+00
      2.455      0.090     0.4037      4.582     39.996  37.276193     6.9053      7.899   260.5273 1.2368e-01     2.3014      2.408      3.491    22.0003   997.8015 0.0000e+00
      2.486      0.092     0.4107      4.653     40.074  37.281766     6.7675      7.890   260.7745 1.2364e-01     2.2784      2.441      3.541    21.9027   997.8238 0.0000e+00
      2.510      0.090     0.4126      4.667     40.160  37.288562     6.7485      7.881   260.9975 1.2361e-01     2.2684      2.463      3.572    21.7814   997.8513 0.0000e+00
      2.529      0.085     0.4078      4.604     40.316  37.358261     6.6147      7.872   261.1584 1.2367e-01     2.2798      2.479      3.595    21.6737   997.8756 0.0000e+00
      2.549      0.080     0.3973      4.478     40.466  37.426166     6.3812      7.864   261.2570 1.2377e-01     2.2847      2.500      3.626    21.5940   997.8935 0.0000e+00
      2.567      0.079     0.3841      4.322     40.529  37.411271     6.2575      7.856   261.4153 1.2376e-01     2.2946      2.520      3.655    21.5168   997.9106 0.0000e+00
      2.583      0.080     0.3709      4.166     40.570  37.368485     6.2375      7.848   261.7819 1.2372e-01     2.3006      2.532      3.672    21.4212   997.9320 0.0000e+00
      2.603      0.080     0.3601      4.036     40.640  37.353064     6.1126      7.839   262.0762 1.2374e-01     2.2595      2.549      3.698    21.3228   997.9539 0.0000e+00
      2.628      0.078     0.3531      3.951     40.710  37.351651     5.8753      7.830   262.0490 1.2376e-01     2.1585      2.579      3.740    21.2401   997.9721 0.0000e+00
      2.652      0.073     0.3523      3.937     40.758  37.351312     5.7352      7.821   262.0543 1.2378e-01     2.0626      2.603      3.775    21.1535   997.9913 0.0000e+00
      2.672      0.069     0.3584      4.005     40.778  37.348900     5.7106      7.814   262.3118 1.2377e-01     2.0501      2.621      3.802    21.0483   998.0143 0.0000e+00
      2.688      0.066     0.3703      4.136     40.766  37.322462     5.6463      7.806   262.6682 1.2375e-01     2.1056      2.638      3.826    20.9467   998.0363 0.0000e+00
      2.698      0.066     0.3875      4.323     40.766  37.285537     5.5216      7.797   263.0084 1.2375e-01     2.1102      2.648      3.840    20.8602   998.0551 0.0000e+00
      2.708      0.069     0.4068      4.533     40.823  37.283256     5.4416      7.787   263.3276 1.2372e-01     2.0732      2.653      3.847    20.8024   998.0675 0.0000e+00
      2.725      0.075     0.4238      4.717     40.892  37.294805     5.4339      7.778   263.6022 1.2373e-01     2.0855      2.669      3.871    20.7869   998.0709 0.0000e+00
      2.750      0.081     0.4380      4.869     40.951  37.298151     5.4552      7.771   263.8337 1.2380e-01     2.0620      2.698      3.912    20.7846   998.0716 0.0000e+00
      2.776      0.085     0.4504      5.000     41.049  37.323642     5.4822      7.763   264.0612 1.2385e-01     1.9860      2.722      3.949    20.7380   998.0816 0.0000e+00
      2.801      0.085     0.4603      5.101     41.157  37.349032     5.4914      7.756   264.2869 1.2383e-01     1.9203      2.747      3.984    20.6537   998.0997 0.0000e+00
      2.826      0.080     0.4690      5.188     41.235  37.351133     5.4880      7.749   264.4981 1.2377e-01     1.8572      2.774      4.022    20.5930   998.1128 0.0000e+00
      2.845      0.074     0.4755      5.253     41.295  37.348948     5.4855      7.743   264.7224 1.2372e-01     1.8455      2.792      4.049    20.5444   998.1233 0.0000e+00
      2.860      0.069     0.4751      5.243     41.323  37.322546     5.4605      7.737   265.0206 1.2372e-01     1.8771      2.805      4.067    20.4619   998.1407 0.0000e+00
      2.872      0.066     0.4695      5.174     41.341  37.285739     5.4120      7.731   265.3496 1.2376e-01     1.8795      2.816      4.085    20.3655   998.1612 0.0000e+00
      2.887      0.066     0.4621      5.085     41.397  37.284698     5.3839      7.724   265.6895 1.2377e-01     1.8416      2.830      4.105    20.2812   998.1790 0.0000e+00
      2.904      0.070     0.4529      4.978     41.486  37.309887     5.3642      7.717   266.0328 1.2375e-01     1.7792      2.848      4.132    20.2139   998.1931 0.0000e+00
      2.924      0.073     0.4441      4.874     41.593  37.336326     5.2084      7.710   266.3165 1.2377e-01     1.6827      2.867      4.158    20.1576   998.2049 0.0000e+00
      2.944      0.074     0.4366      4.782     41.692  37.350373     4.9306      7.703   266.6246 1.2377e-01     1.5908      2.885      4.185    20.0888   998.2192 0.0000e+00
      2.966      0.074     0.4276      4.677     41.764  37.352678     4.7794      7.697   267.0045 1.2374e-01     1.5860      2.909      4.220    20.0278   998.2321 0.0000e+00
      2.988      0.075     0.4168      4.553     41.836  37.364109     4.7589      7.690   267.2964 1.2375e-01     1.5922      2.933      4.255    19.9724   998.2435 0.0000e+00
      3.003      0.077     0.4043      4.411     41.899  37.361569     4.6566      7.682   267.4865 1.2379e-01     1.5677      2.947      4.274    19.8818   998.2622 0.0000e+00
      3.016      0.080     0.3881      4.227     41.935  37.321883     4.4701      7.674   267.8405 1.2378e-01     1.5851      2.955      4.286    19.7799   998.2833 0.0000e+00
      3.035      0.085     0.3680      4.000     41.965  37.265028     4.3771      7.666   268.3069 1.2378e-01     1.6054      2.972      4.312    19.7078   998.2980 0.0000e+00
      3.061      0.090     0.3463      3.756     41.976  37.181832     4.3720      7.658   268.5663 1.2384e-01     1.6168      3.002      4.353    19.6542   998.3090 0.0000e+00
      3.088      0.092     0.3232      3.497     41.966  37.077549     4.2615      7.652   268.7392 1.2384e-01     1.5593      3.029      4.393    19.5863   998.3229 0.0000e+00
      3.115      0.090     0.2994      3.232     42.001  37.019629     4.0379      7.647   269.0211 1.2378e-01     1.4015      3.054      4.430    19.5011   998.3402 0.0000e+00
      3.141      0.084     0.2764      2.979     42.050  36.989199     3.9142      7.642   269.2211 1.2377e-01     1.3466      3.082      4.470    19.3999   998.3605 0.0000e+00
      3.164      0.074     0.2552      2.747     42.012  36.899950     3.9099      7.638   269.4362 1.2379e-01     1.3881      3.105      4.503    19.2854   998.3836 0.0000e+00
      3.180      0.068     0.2361      2.538     41.914  36.765629     3.8997      7.633   269.8158 1.2380e-01     1.3776      3.119      4.524    19.1684   998.4068 0.0000e+00
      3.190      0.066     0.2211      2.374     41.827  36.634552     3.8683      7.627   270.1112 1.2380e-01     1.3512      3.129      4.537    19.0582   998.4284 0.0000e+00
      3.200      0.069     0.2119      2.272     41.770  36.521044     3.8426      7.620   270.4269 1.2377e-01     1.3308      3.136      4.548    18.9694   998.4460 0.0000e+00
      3.215      0.075     0.2097      2.245     41.711  36.408698     3.8401      7.613   270.8792 1.2378e-01     1.3287      3.148      4.566    18.9066   998.4582 0.0000e+00
      3.239      0.081     0.2144      2.292     41.644  36.291673     3.8565      7.608   271.2785 1.2383e-01     1.3587      3.175      4.604    18.8584   998.4677 0.0000e+00
      3.267      0.085     0.2238      2.388     41.609  36.185063     3.9369      7.604   271.5551 1.2378e-01     1.3655      3.205      4.648    18.7963   998.4798 0.0000e+00
      3.294      0.085     0.2367      2.520     41.584  36.071671     4.0658      7.600   271.7279 1.2371e-01     1.3455      3.232      4.688    18.7089   998.4968 0.0000e+00
      3.317      0.082     0.2509      2.665     41.531  35.936090     4.1233      7.595   271.9050 1.2369e-01     1.3459      3.255      4.722    18.6346   998.5112 0.0000e+00
      3.335      0.080     0.2653      2.811     41.413  35.751619     4.1213      7.592   272.1475 1.2368e-01     1.3706      3.273      4.746    18.5812   998.5214 0.0000e+00
      3.349      0.079     0.2788      2.949     41.284  35.554857     4.0406      7.588   272.4240 1.2371e-01     1.4798      3.284      4.763    18.4886   998.5391 0.0000e+00
      3.364      0.079     0.2890      3.051     41.274  35.461067     3.8759      7.583   272.7526 1.2373e-01     1.6507      3.296      4.781    18.3628   998.5630 0.0000e+00
      3.385      0.080     0.2976      3.136     41.339  35.442613     3.7867      7.575   273.0228 1.2369e-01     1.7319      3.317      4.811    18.2552   998.5833 0.0000e+00
      3.413      0.080     0.3068      3.226     41.438  35.458588     3.7853      7.568   273.1955 1.2366e-01     1.7745      3.347      4.855    18.1649   998.6004 0.0000e+00
      3.439      0.078     0.3147      3.305     41.664  35.590654     3.8931      7.563   273.3781 1.2367e-01     1.8715      3.376      4.896    18.0590   998.6201 0.0000e+00
      3.458      0.073     0.3200      3.357     42.069  35.896863     4.0932      7.561   273.5104 1.2372e-01     1.9862      3.393      4.921    17.9450   998.6412 0.0000e+00
      3.473      0.066     0.3204      3.358     42.664  36.368148     4.1933      7.559   273.5906 1.2379e-01     2.0474      3.406      4.939    17.8620   998.6566 0.0000e+00
      3.486      0.059     0.3121      3.266     43.377  36.909294     4.2193      7.558   273.7459 1.2380e-01     2.0539      3.418      4.958    17.7823   998.6712 0.0000e+00
      3.499      0.054     0.2945      3.076     44.088  37.425301     4.4682      7.556   274.0108 1.2378e-01     2.0645      3.432      4.977    17.6921   998.6877 0.0000e+00
      3.512      0.054     0.2705      2.820     44.608  37.782906     4.9228      7.551   274.2988 1.2376e-01     2.0773      3.444      4.996    17.6540   998.6948 0.0000e+00
      3.526      0.058     0.2417      2.515     44.718  37.805220     5.1731      7.547   274.5599 1.2373e-01     2.0773      3.458      5.016    17.6379   998.6980 0.0000e+00
      3.539      0.065     0.2107      2.189     44.518  37.568053     5.1962      7.544   274.7586 1.2374e-01     2.0651      3.471      5.034    17.5518   998.7139 0.0000e+00
      3.552      0.072     0.1815      1.882     44.402  37.390859     5.1938      7.539   274.8950 1.2377e-01     2.0940      3.482      5.050    17.4344   998.7352 0.0000e+00
      3.572      0.078     0.1555      1.610     44.567  37.440036     5.1870      7.533   275.0910 1.2373e-01     2.1968      3.500      5.076    17.3405   998.7522 0.0000e+00
      3.597      0.082     0.1370      1.416     44.852  37.591251     5.1929      7.528   275.3219 1.2371e-01     2.2922      3.527      5.115    17.2647   998.7658 0.0000e+00
      3.623      0.086     0.1278      1.318     45.161  37.759118     5.2035      7.522   275.4491 1.2373e-01     2.3297      3.556      5.157    17.1966   998.7778 0.0000e+00
      3.646      0.087     0.1240      1.275     45.577  38.009603     5.1859      7.517   275.5104 1.2369e-01     2.3232      3.578      5.189    17.1062   998.7937 0.0000e+00
      3.666      0.084     0.1238      1.270     46.013  38.271047     5.1440      7.512   275.3747 1.2363e-01     2.2459      3.595      5.215    16.9981   998.8127 0.0000e+00
      3.686      0.079     0.1258      1.287     46.347  38.444420     5.1046      7.506   273.2064 1.2364e-01     2.1488      3.614      5.242    16.9024   998.8294 0.0000e+00
      3.707      0.074     0.1278      1.306     46.784  38.709168     5.0827      7.500   268.4809 1.2365e-01     2.0994      3.634      5.271    16.8056   998.8462 0.0000e+00
      3.727      0.074     0.1301      1.326     47.463  39.186672     5.0614      7.494   264.5273 1.2368e-01     2.0752      3.656      5.302    16.6968   998.8651 0.0000e+00
      3.745      0.079     0.1328      1.351     48.278  39.774081     4.8734      7.488   262.9175 1.2375e-01     2.1175      3.675      5.330    16.5859   998.8842 0.0000e+00
      3.758      0.088     0.1371      1.391     49.568  40.732742     4.5259      7.485   262.2660 1.2377e-01     2.2171      3.685      5.343    16.4682   998.9042 0.0000e+00
      3.775      0.096     0.1419      1.436     51.358  42.079938     4.3355      7.482   261.9848 1.2379e-01     2.2645      3.698      5.362    16.3577   998.9228 0.0000e+00
      3.804      0.101     0.1450      1.465     52.551  42.920475     4.3322      7.472   262.1846 1.2380e-01     2.2640      3.728      5.407    16.2765   998.9367 0.0000e+00
      3.840      0.101     0.1479      1.490     52.994  43.149567     4.4332      7.460   262.2734 1.2373e-01     2.2768      3.767      5.463    16.1994   998.9498 0.0000e+00
      3.876      0.097     0.1512      1.521     53.727  43.643323     4.6122      7.455   261.5954 1.2366e-01     2.2550      3.804      5.517    16.0927   998.9678 0.0000e+00
      3.902      0.091     0.1540      1.546     54.658  44.318578     4.7110      7.448   260.3534 1.2366e-01     2.2310      3.831      5.557    15.9712   998.9885 0.0000e+00
      3.918      0.083     0.1559      1.562     55.244  44.710246     4.7166      7.428   258.9581 1.2372e-01     2.2812      3.844      5.575    15.8349   999.0109 0.0000e+00
      3.928      0.078     0.1581      1.581     55.659  44.949943     4.6803      7.413   257.5455 1.2376e-01     2.3698      3.851      5.584    15.6925   999.0336 0.0000e+00
      3.943      0.078     0.1589      1.585     56.026  45.121122     4.6096      7.408   256.1796 1.2375e-01     2.4505      3.863      5.604    15.6042   999.0481 0.0000e+00
      3.965      0.081     0.1574      1.565     56.396  45.255801     4.5650      7.404   254.2303 1.2369e-01     2.4709      3.886      5.636    15.5430   999.0581 0.0000e+00
      3.991      0.084     0.1581      1.567     56.834  45.435114     4.5740      7.398   251.4423 1.2367e-01     2.4521      3.912      5.674    15.4627   999.0709 0.0000e+00
      4.018      0.084     0.1599      1.580     57.281  45.637921     4.6838      7.391   248.4544 1.2372e-01     2.4530      3.943      5.718    15.3864   999.0832 0.0000e+00
      4.042      0.079     0.1605      1.583     57.658  45.802674     4.8691      7.384   245.0345 1.2373e-01     2.4818      3.968      5.754    15.2814   999.0996 0.0000e+00
      4.061      0.071     0.1615      1.588     57.932  45.902904     4.9592      7.375   240.6364 1.2374e-01     2.5049      3.982      5.775    15.1203   999.1245 0.0000e+00
      4.076      0.063     0.1630      1.601     58.056  45.897104     4.9497      7.369   235.1994 1.2378e-01     2.5028      3.997      5.797    14.9608   999.1488 0.0000e+00
      4.089      0.058     0.1645      1.611     58.225  45.922944     4.9363      7.363   229.9728 1.2374e-01     2.4899      4.011      5.817    14.8289   999.1687 0.0000e+00
      4.099      0.057     0.1647      1.610     58.834  46.278697     4.8412      7.356   226.6566 1.2364e-01     2.5119      4.019      5.829    14.7091   999.1866 0.0000e+00
      4.112      0.059     0.1646      1.605     59.799  46.896091     4.6669      7.349   224.8727 1.2362e-01     2.6050      4.030      5.845    14.6094   999.2014 0.0000e+00
      4.127      0.061     0.1639      1.595     60.728  47.481591     4.5797      7.342   223.4604 1.2370e-01     2.6659      4.046      5.868    14.5259   999.2137 0.0000e+00
      4.146      0.063     0.1629      1.580     61.583  48.023138     4.5757      7.336   222.1429 1.2379e-01     2.6589      4.066      5.897    14.4383   999.2264 0.0000e+00
      4.165      0.064     0.1626      1.575     62.648  48.744038     4.6101      7.329   220.0421 1.2380e-01     2.7159      4.086      5.926    14.3337   999.2417 0.0000e+00
      4.182      0.064     0.1616      1.562     63.946  49.656074     4.6832      7.323   216.3011 1.2374e-01     2.8299      4.103      5.950    14.2096   999.2599 0.0000e+00
      4.197      0.063     0.1594      1.538     65.199  50.539482     4.7228      7.317   212.2724 1.2368e-01     2.8904      4.116      5.970    14.0851   999.2778 0.0000e+00
      4.210      0.063     0.1573      1.516     66.123  51.167963     4.7252      7.312   209.6182 1.2370e-01     2.8904      4.129      5.988    13.9819   999.2924 0.0000e+00
      4.225      0.063     0.1562      1.503     66.719  51.538193     4.7381      7.305   208.2151 1.2375e-01     2.9293      4.143      6.007    13.8976   999.3045 0.0000e+00
      4.241      0.064     0.1547      1.487     67.315  51.903294     4.7571      7.297   206.8366 1.2380e-01     3.0328      4.158      6.031    13.8223   999.3154 0.0000e+00
      4.259      0.066     0.1527      1.465     67.848  52.215565     4.7650      7.288   204.3939 1.2383e-01     3.0929      4.177      6.058    13.7544   999.3252 0.0000e+00
      4.277      0.067     0.1523      1.459     67.958  52.201107     4.7729      7.280   200.7932 1.2378e-01     3.0993      4.195      6.084    13.6899   999.3343 0.0000e+00
      4.295      0.068     0.1513      1.447     67.297  51.601323     4.7916      7.272   196.6834 1.2371e-01     3.1426      4.212      6.109    13.6215   999.3437 0.0000e+00
      4.312      0.069     0.1483      1.416     65.460  50.108758     4.8174      7.263   192.6464 1.2373e-01     3.2564      4.229      6.134    13.5510   999.3535 0.0000e+00
      4.328      0.070     0.1466      1.397     62.583  47.810911     4.8254      7.254   189.4099 1.2379e-01     3.3284      4.244      6.155    13.4766   999.3637 0.0000e+00
      4.345      0.072     0.1475      1.403     59.524  45.348933     4.8182      7.247   187.3199 1.2385e-01     3.3248      4.260      6.180    13.4015   999.3738 0.0000e+00
      4.363      0.074     0.1484      1.408     57.062  43.330357     4.8166      7.240   185.7892 1.2386e-01     3.2449      4.279      6.207    13.3315   999.3828 0.0000e+00
      4.383      0.075     0.1494      1.413     54.659  41.374857     4.8057      7.227   184.4964 1.2372e-01     3.0503      4.297      6.233    13.2721   999.3900 0.0000e+00
      4.405      0.075     0.1506      1.421     52.222  39.419081     4.7908      7.217   183.1314 1.2358e-01     2.9049      4.320      6.265    13.2052   999.3978 0.0000e+00
      4.426      0.071     0.1503      1.416     50.925  38.348285     4.7754      7.212   181.6751 1.2360e-01     2.8640      4.342      6.296    13.0932   999.4110 0.0000e+00
      4.445      0.065     0.1493      1.404     50.403  37.887096     4.7241      7.210   180.4830 1.2372e-01     2.8507      4.359      6.322    12.9573   999.4276 0.0000e+00
      4.462      0.060     0.1482      1.392     49.903  37.461112     4.6384      7.208   179.2999 1.2379e-01     2.8759      4.378      6.348    12.8353   999.4422 0.0000e+00
      4.475      0.056     0.1477      1.386     49.524  37.133351     4.5799      7.207   178.2115 1.2379e-01     2.8738      4.391      6.369    12.7309   999.4540 0.0000e+00
      4.484      0.054     0.1491      1.398     49.114  36.780580     4.5635      7.207   177.4762 1.2382e-01     2.8247      4.396      6.376    12.6401   999.4649 0.0000e+00
      4.495      0.055     0.1530      1.433     48.716  36.432993     4.5520      7.208   176.5180 1.2378e-01     2.8068      4.406      6.390    12.5723   999.4732 0.0000e+00
      4.510      0.058     0.1616      1.510     48.523  36.231353     4.4591      7.210   175.1444 1.2372e-01     2.7893      4.423      6.415    12.5302   999.4780 0.0000e+00
      4.526      0.063     0.1814      1.692     48.463  36.119774     4.2896      7.213   173.9456 1.2369e-01     2.7434      4.438      6.438    12.4894   999.4830 0.0000e+00
      4.543      0.068     0.2237      2.084     48.443  36.035932     4.2016      7.218   172.8646 1.2368e-01     2.7114      4.455      6.461    12.4416   999.4887 0.0000e+00
      4.563      0.070     0.3000      2.792     48.451  35.979231     4.2011      7.222   171.6239 1.2375e-01     2.6963      4.476      6.490    12.3936   999.4943 0.0000e+00
      4.583      0.068     0.4236      3.937     48.475  35.941914     4.2407      7.224   170.5606 1.2379e-01     2.6594      4.495      6.520    12.3363   999.5012 0.0000e+00
      4.601      0.065     0.6020      5.588     48.482  35.902038     4.3242      7.225   169.8168 1.2369e-01     2.6255      4.512      6.544    12.2624   999.5099 0.0000e+00
      4.617      0.062     0.8277      7.678     48.495  35.877873     4.3788      7.226   169.0832 1.2364e-01     2.6471      4.528      6.567    12.1882   999.5187 0.0000e+00
      4.633      0.060     1.0890     10.098     48.560  35.903593     4.3720      7.228   168.2292 1.2366e-01     2.6908      4.545      6.592    12.1245   999.5262 0.0000e+00
      4.645      0.060     1.3690     12.690     48.654  35.959107     4.2594      7.230   167.1492 1.2366e-01     2.8583      4.554      6.607    12.0672   999.5328 0.0000e+00
      4.657      0.062     1.6449     15.244     48.691  35.977813     4.0664      7.232   166.3495 1.2363e-01     3.1649      4.564      6.619    12.0188   999.5384 0.0000e+00
      4.673      0.067     1.9010     17.615     48.649  35.939338     3.9636      7.232   166.9915 1.2363e-01     3.3499      4.583      6.645    11.9846   999.5424 0.0000e+00
      4.692      0.071     2.1225     19.663     48.660  35.938214     3.9359      7.232   168.4593 1.2372e-01     3.4244      4.602      6.675    11.9631   999.5449 0.0000e+00
      4.712      0.073     2.2913     21.224     48.705  35.964205     3.6961      7.232   169.4705 1.2379e-01     4.0334      4.619      6.699    11.9488   999.5467 0.0000e+00
      4.733      0.073     2.4070     22.293     48.674  35.936230     3.2489      7.232   170.2689 1.2378e-01     5.1744      4.640      6.731    11.9411   999.5476 0.0000e+00
      4.754      0.071     2.4816     22.981     48.656  35.917321     3.0032      7.232   171.4009 1.2375e-01     5.8150      4.665      6.766    11.9358   999.5483 0.0000e+00
      4.772      0.069     2.5229     23.360     48.676  35.926000     2.9792      7.232   173.0050 1.2372e-01     5.9464      4.681      6.789    11.9246   999.5497 0.0000e+00
      4.786      0.068     2.5396     23.512     48.669  35.914201     2.8629      7.231   175.0378 1.2372e-01     6.7952      4.693      6.806    11.9155   999.5509 0.0000e+00
      4.800      0.069     2.5396     23.509     48.659  35.901598     2.6380      7.229   177.1364 1.2369e-01     8.3435      4.708      6.828    11.9128   999.5512 0.0000e+00
      4.815      0.072     2.5288     23.406     48.664  35.900566     2.5145      7.228   178.7628 1.2369e-01     9.1994      4.723      6.849    11.9079   999.5518 0.0000e+00
      4.833      0.076     2.5156     23.282     48.671  35.901712     2.5053      7.227   180.0754 1.2375e-01     9.3114      4.738      6.871    11.9005   999.5527 0.0000e+00
      4.856      0.080     2.5039     23.172     48.694  35.915447     2.4835      7.226   181.3059 1.2379e-01     9.4353      4.760      6.904    11.8934   999.5536 0.0000e+00
      4.881      0.083     2.4917     23.057     48.731  35.939691     2.2157      7.225   182.5414 1.2374e-01    10.7293      4.789      6.945    11.8874   999.5544 0.0000e+00
      4.904      0.084     2.4790     22.938     48.737  35.940950     1.7117      7.224   184.0013 1.2371e-01    13.0941      4.811      6.978    11.8825   999.5551 0.0000e+00
      4.923      0.084     2.4678     22.833     48.726  35.930669     1.4184      7.223   185.3627 1.2375e-01    14.3329      4.826      7.001    11.8791   999.5556 0.0000e+00
      4.943      0.080     2.4583     22.745     48.742  35.942326     1.3838      7.221   186.5265 1.2374e-01    14.4347      4.847      7.030    11.8766   999.5559 0.0000e+00
      4.965      0.075     2.4499     22.668     48.759  35.954941     1.3793      7.219   187.5752 1.2372e-01    14.5862      4.870      7.063    11.8727   999.5565 0.0000e+00
      4.986      0.071     2.4419     22.595     48.757  35.956257     1.3563      7.217   188.4066 1.2377e-01    14.7887      4.890      7.093    11.8688   999.5570 0.0000e+00
      5.004      0.067     2.4343     22.527     48.752  35.958232     1.3306      7.214   189.3510 1.2377e-01    14.8836      4.909      7.120    11.8673   999.5573 0.0000e+00
      5.019      0.062     2.4279     22.473     48.768  35.978832     1.3287      7.212   190.5628 1.2372e-01    14.9144      4.923      7.140    11.8674   999.5574 0.0000e+00
      5.032      0.057     2.4229     22.432     48.801  36.014912     1.3676      7.211   191.7870 1.2371e-01    14.8991      4.934      7.156    11.8668   999.5575 0.0000e+00
      5.046      0.053     2.4190     22.402     48.783  36.013652     1.4286      7.208   192.9671 1.2367e-01    14.7971      4.949      7.178    11.8689   999.5573 0.0000e+00
      5.060      0.050     2.4159     22.376     48.710  35.963607     1.4513      7.206   193.9048 1.2365e-01    14.6966      4.965      7.200    11.8754   999.5566 0.0000e+00
      5.072      0.050     2.4124     22.341     48.656  35.917609     1.4424      7.205   194.6068 1.2370e-01    14.6346      4.974      7.213    11.8829   999.5558 0.0000e+00
      5.082      0.050     2.4097     22.310     48.651  35.901795     1.4421      7.203   195.4321 1.2372e-01    14.4083      4.983      7.226    11.8967   999.5543 0.0000e+00
      5.095      0.051     2.4079     22.288     48.661  35.899336     1.4556      7.201   196.3986 1.2370e-01    14.0256      4.997      7.247    11.9123   999.5526 0.0000e+00
      5.110      0.056     2.4041     22.249     48.656  35.887876     1.4675      7.199   197.3441 1.2371e-01    13.8086      5.012      7.270    11.9173   999.5521 0.0000e+00
      5.122      0.063     2.3986     22.195     48.667  35.890163     1.4640      7.197   198.1732 1.2370e-01    13.7835      5.024      7.286    11.9091   999.5531 0.0000e+00
      5.135      0.070     2.3946     22.155     48.723  35.926977     1.4057      7.195   198.8517 1.2367e-01    13.9511      5.033      7.300    11.8941   999.5548 0.0000e+00
      5.154      0.075     2.3931     22.140     48.760  35.952157     1.2910      7.192   199.1814 1.2371e-01    14.2626      5.051      7.325    11.8833   999.5561 0.0000e+00
      5.179      0.077     2.3930     22.138     48.747  35.940712     1.2220      7.190   199.4066 1.2379e-01    14.4360      5.079      7.366    11.8764   999.5571 0.0000e+00
      5.205      0.077     2.3937     22.143     48.714  35.915543     1.2120      7.188   200.1119 1.2379e-01    14.4752      5.106      7.406    11.8700   999.5579 0.0000e+00
      5.226      0.076     2.3942     22.148     48.697  35.901724     1.2054      7.186   201.2557 1.2372e-01    14.4741      5.127      7.436    11.8657   999.5585 0.0000e+00
      5.242      0.074     2.3932     22.138     48.696  35.900580     1.1946      7.185   202.4818 1.2367e-01    14.5530      5.142      7.457    11.8633   999.5588 0.0000e+00
      5.256      0.070     2.3910     22.118     48.695  35.901715     1.1767      7.183   203.4929 1.2368e-01    14.7744      5.153      7.474    11.8614   999.5591 0.0000e+00
      5.271      0.068     2.3882     22.096     48.706  35.915439     1.1618      7.181   204.0170 1.2371e-01    14.8893      5.167      7.494    11.8602   999.5593 0.0000e+00
      5.290      0.067     2.3855     22.075     48.731  35.939577     1.1619      7.180   204.3442 1.2372e-01    14.8934      5.187      7.522    11.8594   999.5595 0.0000e+00
      5.311      0.068     2.3845     22.069     48.722  35.939681     1.1788      7.178   205.0407 1.2373e-01    15.0540      5.210      7.557    11.8584   999.5597 0.0000e+00
      5.329      0.069     2.3860     22.085     48.683  35.916705     1.2003      7.176   205.8982 1.2375e-01    15.3240      5.228      7.583    11.8602   999.5596 0.0000e+00
      5.344      0.067     2.3883     22.107     48.680  35.915665     1.2139      7.173   206.8827 1.2377e-01    15.4701      5.240      7.600    11.8666   999.5589 0.0000e+00
      5.360      0.063     2.3904     22.125     48.700  35.927111     1.2141      7.169   207.9097 1.2375e-01    15.5088      5.255      7.622    11.8727   999.5583 0.0000e+00
      5.378      0.061     2.3929     22.146     48.708  35.928153     1.1501      7.167   208.3357 1.2372e-01    15.4969      5.274      7.650    11.8794   999.5577 0.0000e+00
      5.395      0.061     2.3941     22.155     48.713  35.928248     1.0296      7.165   208.4196 1.2374e-01    15.4249      5.292      7.674    11.8872   999.5568 0.0000e+00
      5.408      0.065     2.3937     22.149     48.718  35.928266     0.9621      7.163   208.8382 1.2372e-01    15.3922      5.304      7.692    11.8887   999.5567 0.0000e+00
      5.419      0.068     2.3928     22.139     48.723  35.928361     0.9669      7.160   209.6122 1.2367e-01    15.3964      5.313      7.706    11.8834   999.5574 0.0000e+00
      5.435      0.070     2.3923     22.133     48.727  35.929392     0.9749      7.158   210.3780 1.2367e-01    15.3446      5.326      7.725    11.8780   999.5581 0.0000e+00
      5.458      0.071     2.3924     22.134     48.743  35.940733     0.9720      7.156   210.6987 1.2371e-01    15.2904      5.351      7.761    11.8747   999.5585 0.0000e+00
      5.483      0.073     2.3930     22.139     48.741  35.938539     0.9760      7.154   210.8221 1.2373e-01    15.2981      5.379      7.803    11.8702   999.5592 0.0000e+00
      5.503      0.077     2.3945     22.153     48.694  35.902860     0.9705      7.152   211.1818 1.2371e-01    15.3399      5.400      7.831    11.8661   999.5598 0.0000e+00
      5.517      0.079     2.3951     22.156     48.683  35.890165     0.9494      7.149   211.6062 1.2375e-01    15.4354      5.410      7.846    11.8646   999.5600 0.0000e+00
      5.531      0.080     2.3945     22.146     48.722  35.911997     0.9279      7.147   212.1675 1.2379e-01    15.5344      5.421      7.861    11.8645   999.5600 0.0000e+00
      5.552      0.082     2.3918     22.118     48.733  35.912934     0.9103      7.146   212.8917 1.2379e-01    15.5535      5.442      7.893    11.8647   999.5601 0.0000e+00
      5.579      0.085     2.3877     22.078     48.723  35.901479     0.9014      7.144   213.3933 1.2374e-01    15.5689      5.471      7.936    11.8637   999.5604 0.0000e+00
      5.604      0.089     2.3874     22.073     48.726  35.900438     0.9069      7.142   213.6720 1.2369e-01    15.5899      5.497      7.972    11.8598   999.5609 0.0000e+00
      5.626      0.090     2.3914     22.110     48.728  35.900345     0.9424      7.140   214.0247 1.2364e-01    15.5114      5.517      8.002    11.8516   999.5620 0.0000e+00
      5.648      0.090     2.3996     22.186     48.728  35.900346     1.0012      7.138   214.5604 1.2359e-01    15.3736      5.539      8.033    11.8434   999.5630 0.0000e+00
      5.668      0.089     2.4135     22.314     48.728  35.900449     1.0280      7.136   215.2453 1.2366e-01    15.3009      5.558      8.061    11.8385   999.5636 0.0000e+00
      5.691      0.087     2.4312     22.477     48.730  35.901594     1.0242      7.133   215.8519 1.2372e-01    15.3204      5.579      8.091    11.8358   999.5640 0.0000e+00
      5.716      0.085     2.4499     22.651     48.745  35.914183     1.0153      7.131   216.4746 1.2369e-01    15.3804      5.606      8.130    11.8344   999.5643 0.0000e+00
      5.741      0.084     2.4669     22.811     48.757  35.925723     0.9903      7.129   217.1816 1.2369e-01    15.4028      5.633      8.169    11.8343   999.5644 0.0000e+00
      5.761      0.084     2.4804     22.936     48.737  35.914183     0.9653      7.127   217.5171 1.2375e-01    15.3613      5.651      8.196    11.8346   999.5645 0.0000e+00
      5.777      0.084     2.4900     23.025     48.720  35.901593     0.9549      7.125   217.6927 1.2380e-01    15.3373      5.665      8.216    11.8341   999.5646 0.0000e+00
      5.796      0.084     2.4946     23.067     48.719  35.900448     0.9427      7.123   218.0996 1.2381e-01    15.4410      5.682      8.242    11.8346   999.5646 0.0000e+00
      5.819      0.083     2.4946     23.067     48.719  35.900334     0.9218      7.121   218.8234 1.2382e-01    15.5989      5.706      8.277    11.8391   999.5643 0.0000e+00
      5.844      0.082     2.4936     23.058     48.719  35.900220     0.9099      7.118   219.6466 1.2374e-01    15.6413      5.732      8.313    11.8431   999.5639 0.0000e+00
      5.868      0.079     2.4934     23.056     48.718  35.899075     0.9122      7.117   220.0520 1.2368e-01    15.5923      5.755      8.347    11.8420   999.5641 0.0000e+00
      5.889      0.074     2.4919     23.042     48.701  35.886486     0.9142      7.119   220.3694 1.2374e-01    15.4986      5.776      8.376    11.8410   999.5644 0.0000e+00
      5.906      0.069     2.4884     23.010     48.683  35.874955     0.9090      7.122   220.7299 1.2374e-01    15.3933      5.794      8.403    11.8424   999.5643 0.0000e+00
      5.921      0.065     2.4854     22.985     48.695  35.886600     0.9090      7.124   220.7976 1.2369e-01    15.3684      5.808      8.423    11.8417   999.5644 0.0000e+00
      5.933      0.062     2.4839     22.970     48.714  35.900335     0.9231      7.126   221.2745 1.2371e-01    15.3941      5.819      8.439    11.8406   999.5646 0.0000e+00
      5.947      0.062     2.4820     22.951     48.737  35.914070     0.9412      7.127   222.3655 1.2375e-01    15.4413      5.831      8.458    11.8403   999.5647 0.0000e+00
      5.964      0.064     2.4816     22.946     48.756  35.925724     0.9544      7.125   222.9765 1.2372e-01    15.5139      5.848      8.482    11.8422   999.5645 0.0000e+00
      5.982      0.068     2.4806     22.936     48.743  35.914297     0.9702      7.122   223.0695 1.2369e-01    15.5835      5.867      8.509    11.8469   999.5642 0.0000e+00
      5.999      0.073     2.4771     22.903     48.729  35.902852     0.9842      7.121   223.2310 1.2374e-01    15.6275      5.883      8.532    11.8460   999.5643 0.0000e+00
      6.018      0.076     2.4784     22.913     48.747  35.914288     0.9856      7.119   223.3808 1.2377e-01    15.6195      5.900      8.557    11.8412   999.5649 0.0000e+00
      6.039      0.077     2.4847     22.971     48.764  35.925621     0.9959      7.108   223.9338 1.2376e-01    15.6510      5.922      8.590    11.8389   999.5653 0.0000e+00
      6.061      0.077     2.4909     23.029     48.747  35.912926     1.0134      7.082   225.1003 1.2374e-01    15.7457      5.944      8.621    11.8381   999.5655 0.0000e+00
      6.082      0.077     2.4951     23.068     48.711  35.887746     1.0232      7.058   225.9554 1.2372e-01    15.8139      5.964      8.650    11.8363   999.5658 0.0000e+00
      6.102      0.076     2.4972     23.088     48.692  35.875051     1.0370      7.062   226.0988 1.2375e-01    15.8209      5.984      8.679    11.8344   999.5661 0.0000e+00
      6.119      0.074     2.4967     23.084     48.707  35.886383     1.0329      7.080   226.0601 1.2377e-01    15.7312      6.002      8.705    11.8332   999.5663 0.0000e+00
      6.135      0.073     2.4963     23.079     48.723  35.897818     0.9997      7.093   226.4340 1.2374e-01    15.6147      6.016      8.726    11.8323   999.5665 0.0000e+00
      6.154      0.073     2.4972     23.089     48.706  35.886363     0.9741      7.099   227.2636 1.2373e-01    15.5588      6.034      8.752    11.8339   999.5664 0.0000e+00
      6.173      0.073     2.4941     23.061     48.689  35.874823     0.9832      7.102   227.9170 1.2373e-01    15.5798      6.054      8.781    11.8363   999.5662 0.0000e+00
      6.192      0.072     2.4897     23.021     48.701  35.885239     1.1697      7.102   228.1393 1.2368e-01    15.6714      6.073      8.808    11.8362   999.5663 0.0000e+00
      6.212      0.069     2.4887     23.012     48.700  35.885354     1.5036      7.101   228.3163 1.2368e-01    15.7493      6.092      8.835    11.8354   999.5665 0.0000e+00
      6.232      0.065     2.4896     23.022     48.686  35.876216     1.6739      7.099   228.5950 1.2373e-01    15.7685      6.112      8.865    11.8369   999.5664 0.0000e+00
      6.248      0.062     2.4909     23.033     48.719  35.901699     1.6680      7.098   228.9269 1.2375e-01    15.7720      6.128      8.889    11.8386   999.5663 0.0000e+00
      6.259      0.062     2.4920     23.043     48.772  35.939572     1.4671      7.094   229.4042 1.2372e-01    15.7914      6.138      8.903    11.8391   999.5663 0.0000e+00
      6.271      0.063     2.4929     23.051     48.793  35.953307     1.0917      7.074   229.8925 1.2367e-01    15.8065      6.148      8.918    11.8401   999.5662 0.0000e+00
      6.286      0.065     2.4932     23.053     48.775  35.940812     0.8835      7.039   230.2707 1.2366e-01    15.7914      6.163      8.939    11.8425   999.5660 0.0000e+00
      6.305      0.068     2.4942     23.063     48.740  35.915442     0.8660      7.023   230.6213 1.2369e-01    15.7732      6.182      8.966    11.8439   999.5659 0.0000e+00
      6.326      0.072     2.4943     23.063     48.721  35.900462     0.9486      7.033   230.6904 1.2365e-01    15.7166      6.205      8.999    11.8423   999.5663 0.0000e+00
      6.346      0.073     2.4911     23.032     48.707  35.886624     1.1116      7.047   230.5039 1.2361e-01    15.6316      6.226      9.030    11.8392   999.5667 0.0000e+00
      6.364      0.072     2.4889     23.010     48.697  35.875073     1.2064      7.055   230.7753 1.2367e-01    15.5971      6.241      9.052    11.8391   999.5668 0.0000e+00
      6.381      0.069     2.4891     23.010     48.717  35.887738     1.2192      7.058   231.5632 1.2378e-01    15.5618      6.257      9.075    11.8423   999.5665 0.0000e+00
      6.401      0.065     2.4875     22.995     48.752  35.912803     1.2310      7.059   232.2870 1.2383e-01    15.5649      6.277      9.105    11.8414   999.5667 0.0000e+00
      6.417      0.063     2.4852     22.975     48.766  35.924238     1.3842      7.059   232.7292 1.2374e-01    15.7326      6.295      9.129    11.8358   999.5674 0.0000e+00
      6.431      0.062     2.4852     22.976     48.730  35.899067     1.6672      7.058   232.6939 1.2362e-01    15.9515      6.306      9.146    11.8315   999.5678 0.0000e+00
      6.445      0.063     2.4859     22.983     48.676  35.862357     1.8173      7.058   232.3762 1.2357e-01    16.0151      6.319      9.165    11.8292   999.5682 0.0000e+00
      6.461      0.065     2.4874     22.998     48.672  35.861214     1.8029      7.058   232.5013 1.2362e-01    15.9776      6.336      9.189    11.8289   999.5684 0.0000e+00
      6.477      0.068     2.4885     23.009     48.704  35.885239     1.5719      7.057   233.0027 1.2369e-01    15.8915      6.351      9.212    11.8302   999.5683 0.0000e+00
      6.495      0.071     2.4875     22.999     48.722  35.898953     1.1578      7.056   233.5332 1.2369e-01    15.7281      6.368      9.236    11.8321   999.5682 0.0000e+00
      6.515      0.073     2.4891     23.014     48.723  35.900087     0.9312      7.054   234.0980 1.2367e-01    15.6077      6.389      9.267    11.8357   999.5678 0.0000e+00
      6.536      0.074     2.4936     23.055     48.723  35.898952     0.9117      7.052   234.1540 1.2372e-01    15.5835      6.410      9.297    11.8376   999.5677 0.0000e+00
      6.555      0.071     2.4953     23.070     48.707  35.885230     0.9134      7.049   233.6934 1.2376e-01    15.5991      6.428      9.323    11.8367   999.5679 0.0000e+00
      6.573      0.064     2.4948     23.066     48.675  35.861110     0.9170      7.047   233.6899 1.2376e-01    15.6001      6.445      9.347    11.8378   999.5679 0.0000e+00
      6.592      0.054     2.4963     23.079     48.674  35.861214     0.9205      7.046   234.1980 1.2373e-01    15.6280      6.466      9.377    11.8388   999.5678 0.0000e+00
      6.608      0.044     2.4990     23.104     48.708  35.886488     0.9126      7.045   234.7606 1.2373e-01    15.6738      6.484      9.404    11.8372   999.5681 0.0000e+00
      6.616      0.037     2.5000     23.114     48.743  35.912812     0.9002      7.043   234.9865 1.2367e-01    15.6293      6.490      9.413    11.8349   999.5684 0.0000e+00
      6.619      0.036     2.4989     23.103     48.759  35.925601     0.9001      7.041   234.7783 1.2361e-01    15.5490      6.491      9.414    11.8342   999.5685 0.0000e+00
      6.621      0.041     2.4987     23.101     48.744  35.914174     0.9116      7.039   234.7385 1.2365e-01    15.5223      6.494      9.418    11.8348   999.5684 0.0000e+00
      6.625      0.049     2.4992     23.106     48.729  35.901596     0.9268      7.037   235.0206 1.2368e-01    15.5684      6.495      9.419    11.8353   999.5684 0.0000e+00
      6.638      0.059     2.4995     23.109     48.730  35.900452     0.9271      7.035   235.5221 1.2369e-01    15.6803      6.501      9.429    11.8359   999.5684 0.0000e+00
      6.664      0.069     2.4997     23.109     48.732  35.900338     0.9159      7.034   236.1563 1.2374e-01    15.7613      6.533      9.476    11.8372   999.5684 0.0000e+00
      6.693      0.081     2.4990     23.101     48.733  35.900225     0.9129      7.032   236.5795 1.2378e-01    15.7610      6.570      9.530    11.8371   999.5685 0.0000e+00
      6.711      0.093     2.4973     23.085     48.732  35.899081     0.9170      7.031   236.6815 1.2378e-01    15.7751      6.585      9.551    11.8352   999.5688 0.0000e+00
      6.723      0.098     2.4949     23.064     48.715  35.886501     0.9135      7.030   236.7010 1.2371e-01    15.8011      6.587      9.555    11.8329   999.5691 0.0000e+00
      6.746      0.096     2.4932     23.048     48.700  35.875063     0.9051      7.028   236.8165 1.2368e-01    15.7793      6.608      9.585    11.8307   999.5695 0.0000e+00
      6.785      0.092     2.4926     23.044     48.713  35.887738     0.9109      7.025   236.9589 1.2367e-01    15.7738      6.655      9.653    11.8299   999.5698 0.0000e+00
      6.821      0.089     2.4922     23.044     48.738  35.912802     0.9232      7.023   237.2175 1.2366e-01    15.8012      6.697      9.713    11.8302   999.5699 0.0000e+00
      6.840      0.083     2.4918     23.044     48.745  35.924227     0.9235      7.022   237.7930 1.2370e-01    15.8154      6.711      9.734    11.8304   999.5700 0.0000e+00
      6.850      0.073     2.4933     23.058     48.710  35.898943     0.8876      7.021   238.3248 1.2372e-01    15.7812      6.716      9.741    11.8292   999.5701 0.0000e+00
      6.863      0.064     2.4963     23.084     48.661  35.860984     0.8196      7.020   238.3989 1.2377e-01    15.6824      6.730      9.760    11.8304   999.5700 0.0000e+00
      6.878      0.061     2.4990     23.109     48.642  35.846107     0.7776      7.018   238.4313 1.2380e-01    15.5714      6.746      9.785    11.8402   999.5690 0.0000e+00
      6.893      0.065     2.5012     23.129     48.643  35.846003     0.7867      7.016   238.7162 1.2382e-01    15.5216      6.759      9.803    11.8486   999.5681 0.0000e+00
      6.908      0.072     2.5029     23.143     48.664  35.859727     0.8343      7.015   239.2618 1.2386e-01    15.5391      6.773      9.823    11.8475   999.5683 0.0000e+00
      6.928      0.077     2.5038     23.151     48.701  35.885094     0.8941      7.014   239.8662 1.2381e-01    15.5851      6.793      9.853    11.8448   999.5687 0.0000e+00
      6.951      0.080     2.5036     23.148     48.722  35.898829     0.9201      7.014   240.0870 1.2373e-01    15.6193      6.816      9.886    11.8438   999.5689 0.0000e+00
      6.975      0.080     2.5028     23.141     48.723  35.898840     0.9141      7.013   240.1248 1.2370e-01    15.5925      6.841      9.921    11.8435   999.5691 0.0000e+00
      6.997      0.079     2.5016     23.128     48.707  35.885220     0.8993      7.012   240.1511 1.2372e-01    15.5552      6.863      9.954    11.8419   999.5694 0.0000e+00
      7.016      0.078     2.4999     23.111     48.677  35.861100     0.8793      7.011   240.1474 1.2372e-01    15.5623      6.882      9.981    11.8395   999.5697 0.0000e+00
      7.031      0.077     2.4990     23.102     48.679  35.861092     0.8641      7.009   240.6821 1.2371e-01    15.5801      6.895     10.001    11.8380   999.5700 0.0000e+00
      7.049      0.077     2.5003     23.114     48.712  35.885117     0.8546      7.007   241.7121 1.2375e-01    15.6066      6.910     10.022    11.8372   999.5702 0.0000e+00
      7.070      0.079     2.5020     23.130     48.729  35.897698     0.8771      7.005   242.3620 1.2375e-01    15.7185      6.933     10.054    11.8357   999.5704 0.0000e+00
      7.092      0.082     2.5015     23.126     48.713  35.886261     0.9358      7.005   242.4315 1.2370e-01    15.9173      6.956     10.088    11.8327   999.5708 0.0000e+00
      7.112      0.083     2.5006     23.117     48.697  35.873785     0.9752      7.004   242.2078 1.2368e-01    16.0106      6.975     10.116    11.8311   999.5711 0.0000e+00
      7.134      0.081     2.4996     23.107     48.698  35.873786     0.9806      7.003   242.1525 1.2370e-01    15.9953      6.996     10.145    11.8309   999.5713 0.0000e+00
      7.157      0.077     2.4972     23.085     48.715  35.886271     0.9755      7.001   242.7095 1.2369e-01    15.9943      7.020     10.181    11.8313   999.5713 0.0000e+00
      7.179      0.073     2.4940     23.055     48.732  35.897803     0.9562      6.998   243.6073 1.2368e-01    15.9324      7.042     10.214    11.8314   999.5714 0.0000e+00
      7.197      0.069     2.4899     23.017     48.718  35.886272     0.9296      6.997   244.2316 1.2368e-01    15.8375      7.059     10.239    11.8307   999.5716 0.0000e+00
      7.209      0.067     2.4871     22.990     48.702  35.873787     0.9229      6.996   244.4077 1.2366e-01    15.8305      7.070     10.254    11.8303   999.5717 0.0000e+00
      7.222      0.066     2.4881     22.999     48.702  35.873797     0.9179      6.994   244.3602 1.2365e-01    15.8466      7.081     10.269    11.8299   999.5718 0.0000e+00
      7.239      0.066     2.4906     23.022     48.719  35.886387     0.9039      6.992   244.4320 1.2366e-01    15.8030      7.099     10.296    11.8289   999.5720 0.0000e+00
      7.258      0.067     2.4915     23.032     48.736  35.899062     0.9015      6.990   244.7588 1.2364e-01    15.7630      7.119     10.325    11.8277   999.5722 0.0000e+00
      7.277      0.068     2.4933     23.048     48.737  35.900111     0.9060      6.989   245.2138 1.2365e-01    15.7889      7.137     10.351    11.8274   999.5723 0.0000e+00
      7.296      0.068     2.4950     23.064     48.734  35.899071     0.9059      6.988   245.7175 1.2373e-01    15.8202      7.156     10.378    11.8269   999.5724 0.0000e+00
      7.313      0.067     2.4945     23.061     48.715  35.886490     0.8920      6.987   246.1166 1.2378e-01    15.7492      7.172     10.401    11.8268   999.5725 0.0000e+00
      7.329      0.067     2.4944     23.060     48.698  35.874940     0.8680      6.986   246.2540 1.2373e-01    15.6182      7.187     10.424    11.8274   999.5725 0.0000e+00
      7.345      0.069     2.4934     23.050     48.715  35.886367     0.8502      6.985   246.0028 1.2365e-01    15.6124      7.204     10.448    11.8274   999.5726 0.0000e+00
      7.360      0.072     2.4902     23.020     48.733  35.897708     0.8409      6.984   245.8325 1.2364e-01    15.6789      7.217     10.468    11.8280   999.5726 0.0000e+00
      7.378      0.076     2.4865     22.985     48.719  35.885109     0.8512      6.983   246.2590 1.2369e-01    15.6362      7.234     10.492    11.8307   999.5724 0.0000e+00
      7.400      0.080     2.4841     22.962     48.689  35.860979     0.8794      6.982   246.6859 1.2374e-01    15.5554      7.256     10.524    11.8325   999.5723 0.0000e+00
      7.424      0.081     2.4841     22.961     48.689  35.859834     0.9045      6.981   246.9506 1.2373e-01    15.5529      7.280     10.559    11.8304   999.5727 0.0000e+00
      7.447      0.081     2.4861     22.978     48.705  35.871270     0.9207      6.979   247.3086 1.2373e-01    15.6059      7.304     10.593    11.8278   999.5730 0.0000e+00
      7.468      0.079     2.4878     22.994     48.708  35.872309     0.9102      6.978   247.2287 1.2378e-01    15.6724      7.324     10.623    11.8262   999.5734 0.0000e+00
      7.487      0.076     2.4894     23.009     48.708  35.872395     0.8723      6.977   246.8444 1.2374e-01    15.7347      7.342     10.649    11.8242   999.5736 0.0000e+00
      7.505      0.073     2.4918     23.031     48.708  35.872309     0.8439      6.976   246.9644 1.2365e-01    15.7696      7.359     10.674    11.8227   999.5739 0.0000e+00
      7.522      0.071     2.4941     23.053     48.705  35.871269     0.8359      6.975   247.5612 1.2364e-01    15.7991      7.377     10.699    11.8218   999.5741 0.0000e+00
      7.540      0.069     2.4960     23.071     48.689  35.859824     0.8366      6.974   248.1227 1.2365e-01    15.8288      7.394     10.724    11.8213   999.5742 0.0000e+00
      7.558      0.069     2.4954     23.065     48.690  35.860864     0.8610      6.972   247.9890 1.2368e-01    15.8336      7.412     10.751    11.8208   999.5744 0.0000e+00
      7.576      0.070     2.4928     23.041     48.721  35.883851     0.8969      6.970   247.4071 1.2371e-01    15.8249      7.430     10.777    11.8209   999.5744 0.0000e+00
      7.593      0.071     2.4920     23.034     48.721  35.883870     0.9064      6.969   247.3684 1.2369e-01    15.7892      7.446     10.799    11.8223   999.5744 0.0000e+00
      7.610      0.074     2.4919     23.032     48.690  35.861093     0.9074      6.969   247.6934 1.2369e-01    15.7619      7.462     10.823    11.8238   999.5742 0.0000e+00
      7.628      0.075     2.4885     23.000     48.693  35.862342     0.9172      6.968   248.0677 1.2371e-01    15.7902      7.481     10.850    11.8231   999.5744 0.0000e+00
      7.648      0.075     2.4840     22.958     48.744  35.898958     0.9207      6.965   248.5387 1.2368e-01    15.8029      7.499     10.877    11.8221   999.5746 0.0000e+00
      7.670      0.073     2.4823     22.942     48.777  35.922984     0.9148      6.963   248.6550 1.2367e-01    15.7527      7.522     10.909    11.8229   999.5746 0.0000e+00
      7.692      0.070     2.4814     22.935     48.744  35.898948     0.9066      6.962   248.3550 1.2375e-01    15.7070      7.545     10.943    11.8233   999.5747 0.0000e+00
      7.710      0.066     2.4803     22.926     48.691  35.862237     0.8991      6.961   248.1815 1.2377e-01    15.6760      7.563     10.970    11.8222   999.5749 0.0000e+00
      7.723      0.063     2.4785     22.911     48.683  35.859948     0.9035      6.961   248.3642 1.2371e-01    15.6404      7.575     10.986    11.8208   999.5752 0.0000e+00
      7.735      0.062     2.4758     22.888     48.695  35.871271     0.9157      6.960   248.6706 1.2371e-01    15.6366      7.584     11.000    11.8204   999.5753 0.0000e+00
      7.750      0.062     2.4747     22.877     48.698  35.872196     0.9167      6.959   248.8749 1.2380e-01    15.6301      7.599     11.022    11.8207   999.5752 0.0000e+00
      7.766      0.065     2.4758     22.886     48.699  35.871136     0.9422      6.958   249.1134 1.2382e-01    15.5951      7.616     11.045    11.8225   999.5750 0.0000e+00
      7.783      0.070     2.4768     22.894     48.684  35.858450     0.9987      6.956   249.3172 1.2378e-01    15.5732      7.631     11.068    11.8282   999.5745 0.0000e+00
      7.802      0.073     2.4767     22.892     48.669  35.845758     1.0269      6.955   249.2741 1.2377e-01    15.5625      7.651     11.097    11.8314   999.5743 0.0000e+00
      7.823      0.074     2.4758     22.882     48.670  35.844614     1.0309      6.953   249.2814 1.2377e-01    15.5320      7.672     11.128    11.8286   999.5747 0.0000e+00
      7.844      0.073     2.4753     22.876     48.673  35.844623     1.0917      6.952   249.5774 1.2372e-01    15.5313      7.693     11.157    11.8259   999.5751 0.0000e+00
      7.863      0.071     2.4769     22.890     48.678  35.845863     1.2070      6.950   250.1856 1.2363e-01    15.5875      7.712     11.185    11.8252   999.5753 0.0000e+00
      7.881      0.066     2.4755     22.877     48.698  35.859606     1.2716      6.948   250.7848 1.2363e-01    15.6215      7.729     11.210    11.8238   999.5755 0.0000e+00
      7.897      0.061     2.4695     22.821     48.732  35.883842     1.2833      6.948   251.0573 1.2368e-01    15.6146      7.746     11.234    11.8214   999.5758 0.0000e+00
      7.911      0.057     2.4646     22.776     48.735  35.885007     1.2786      6.948   251.2433 1.2371e-01    15.6018      7.759     11.254    11.8190   999.5762 0.0000e+00
      7.924      0.056     2.4624     22.755     48.720  35.873685     1.2070      6.946   251.2266 1.2377e-01    15.5984      7.770     11.269    11.8166   999.5765 0.0000e+00
      7.937      0.057     2.4617     22.749     48.720  35.873885     1.0938      6.944   251.0285 1.2378e-01    15.6062      7.783     11.289    11.8154   999.5767 0.0000e+00
      7.949      0.060     2.4630     22.761     48.738  35.887429     1.0363      6.943   251.4295 1.2368e-01    15.6303      7.795     11.306    11.8152   999.5768 0.0000e+00
      7.964      0.065     2.4649     22.779     48.768  35.910500     1.0326      6.942   252.2891 1.2358e-01    15.6598      7.808     11.324    11.8143   999.5770 0.0000e+00
      7.982      0.069     2.4632     22.764     48.751  35.898950     1.0224      6.940   252.7321 1.2359e-01    15.6683      7.826     11.351    11.8129   999.5772 0.0000e+00
      8.002      0.072     2.4617     22.750     48.716  35.874724     0.9910      6.939   252.7413 1.2367e-01    15.7012      7.847     11.381    11.8129   999.5773 0.0000e+00
      8.023      0.072     2.4632     22.764     48.711  35.871481     0.9738      6.938   252.6578 1.2368e-01    15.7618      7.869     11.412    11.8140   999.5772 0.0000e+00
      8.044      0.070     2.4615     22.748     48.695  35.859731     0.9792      6.936   252.6691 1.2366e-01    15.7783      7.889     11.443    11.8144   999.5773 0.0000e+00
      8.061      0.066     2.4568     22.705     48.695  35.859609     0.9956      6.936   253.1358 1.2367e-01    15.7043      7.907     11.468    11.8164   999.5772 0.0000e+00
      8.076      0.063     2.4550     22.689     48.710  35.869994     1.0157      6.935   253.9996 1.2368e-01    15.5888      7.921     11.488    11.8179   999.5771 0.0000e+00
      8.090      0.062     2.4560     22.697     48.695  35.858358     1.0230      6.933   254.5089 1.2368e-01    15.5608      7.935     11.507    11.8173   999.5772 0.0000e+00
      8.103      0.064     2.4566     22.702     48.680  35.845863     1.0235      6.933   254.4759 1.2364e-01    15.5952      7.946     11.525    11.8176   999.5772 0.0000e+00
      8.117      0.069     2.4575     22.710     48.680  35.845863     0.9961      6.932   254.3749 1.2363e-01    15.6451      7.959     11.543    11.8182   999.5772 0.0000e+00
      8.135      0.075     2.4584     22.719     48.697  35.858348     0.9424      6.931   254.5783 1.2367e-01    15.7378      7.976     11.569    11.8180   999.5773 0.0000e+00
      8.158      0.080     2.4592     22.726     48.713  35.869879     0.9122      6.930   255.0417 1.2373e-01    15.7983      7.999     11.603    11.8165   999.5776 0.0000e+00
      8.182      0.084     2.4611     22.743     48.697  35.858339     0.9080      6.929   255.4174 1.2376e-01    15.8193      8.025     11.639    11.8148   999.5779 0.0000e+00
      8.205      0.085     2.4648     22.777     48.680  35.845769     0.9268      6.928   255.5931 1.2380e-01    15.8271      8.048     11.672    11.8148   999.5780 0.0000e+00
      8.227      0.084     2.4687     22.813     48.679  35.844834     0.9573      6.927   255.7046 1.2383e-01    15.7949      8.068     11.702    11.8148   999.5781 0.0000e+00
      8.248      0.080     2.4688     22.814     48.683  35.847029     0.9648      6.926   255.8183 1.2381e-01    15.7575      8.090     11.733    11.8149   999.5782 0.0000e+00
      8.268      0.075     2.4679     22.806     48.718  35.872302     0.9573      6.925   255.7636 1.2375e-01    15.7686      8.109     11.761    11.8147   999.5783 0.0000e+00
      8.287      0.070     2.4707     22.831     48.751  35.896527     0.9439      6.923   255.7318 1.2373e-01    15.8635      8.126     11.786    11.8144   999.5784 0.0000e+00
      8.305      0.067     2.4743     22.864     48.737  35.886037     0.9243      6.922   256.0356 1.2370e-01    15.9871      8.145     11.813    11.8144   999.5785 0.0000e+00
      8.321      0.066     2.4741     22.863     48.717  35.872408     0.9111      6.921   256.4254 1.2367e-01    16.0180      8.161     11.837    11.8139   999.5787 0.0000e+00
      8.335      0.067     2.4741     22.865     48.696  35.858683     0.9058      6.920   256.7457 1.2367e-01    15.9740      8.173     11.855    11.8137   999.5787 0.0000e+00
      8.349      0.069     2.4770     22.893     48.676  35.847039     0.9115      6.919   256.9830 1.2366e-01    15.9801      8.187     11.874    11.8135   999.5788 0.0000e+00
      8.367      0.072     2.4769     22.892     48.691  35.858569     0.9191      6.919   256.8856 1.2368e-01    16.0261      8.204     11.899    11.8132   999.5789 0.0000e+00
      8.388      0.076     2.4715     22.842     48.708  35.871159     0.9206      6.918   256.5997 1.2375e-01    16.0385      8.225     11.930    11.8136   999.5790 0.0000e+00
      8.409      0.078     2.4654     22.786     48.710  35.872313     0.9206      6.916   256.5382 1.2378e-01    16.0319      8.246     11.960    11.8162   999.5788 0.0000e+00
      8.430      0.078     2.4642     22.774     48.713  35.872511     0.9186      6.915   256.8299 1.2378e-01    16.0118      8.266     11.989    11.8193   999.5785 0.0000e+00
      8.451      0.076     2.4681     22.809     48.716  35.873561     0.9315      6.914   257.2873 1.2377e-01    15.9590      8.289     12.022    11.8204   999.5785 0.0000e+00
      8.471      0.074     2.4726     22.850     48.733  35.884996     0.9555      6.914   257.0790 1.2376e-01    15.8854      8.309     12.051    11.8202   999.5787 0.0000e+00
      8.488      0.073     2.4741     22.863     48.733  35.883832     0.9658      6.913   256.3757 1.2376e-01    15.8096      8.324     12.074    11.8195   999.5788 0.0000e+00
      8.503      0.074     2.4748     22.869     48.702  35.859485     0.9610      6.913   256.2697 1.2370e-01    15.7637      8.339     12.094    11.8176   999.5791 0.0000e+00
      8.519      0.075     2.4788     22.906     48.682  35.844503     0.9402      6.912   256.5708 1.2367e-01    15.8220      8.355     12.117    11.8159   999.5793 0.0000e+00
      8.539      0.078     2.4823     22.938     48.662  35.829624     0.9145      6.909   256.9189 1.2372e-01    15.9583      8.372     12.143    11.8149   999.5796 0.0000e+00
      8.561      0.079     2.4813     22.929     48.630  35.806534     0.9097      6.908   257.3817 1.2372e-01    16.0351      8.395     12.177    11.8135   999.5798 0.0000e+00
      8.585      0.078     2.4786     22.905     48.646  35.819217     0.9173      6.908   257.4332 1.2366e-01    16.0291      8.420     12.212    11.8120   999.5801 0.0000e+00
      8.608      0.076     2.4780     22.899     48.695  35.856031     0.9282      6.906   257.0257 1.2364e-01    15.9514      8.443     12.245    11.8115   999.5803 0.0000e+00
      8.627      0.072     2.4787     22.906     48.713  35.870815     0.9545      6.904   256.9288 1.2365e-01    15.8498      8.462     12.274    11.8118   999.5803 0.0000e+00
      8.642      0.066     2.4811     22.929     48.713  35.871024     0.9760      6.904   257.2948 1.2362e-01    15.8164      8.475     12.293    11.8125   999.5803 0.0000e+00
      8.657      0.061     2.4868     22.981     48.696  35.858558     0.9799      6.904   257.7512 1.2361e-01    15.8090      8.489     12.312    11.8131   999.5803 0.0000e+00
      8.672      0.057     2.4889     23.001     48.679  35.847030     0.9759      6.903   258.0590 1.2370e-01    15.7606      8.505     12.335    11.8145   999.5802 0.0000e+00
      8.687      0.054     2.4866     22.981     48.694  35.858580     0.9792      6.901   258.1772 1.2379e-01    15.7228      8.518     12.356    11.8156   999.5801 0.0000e+00
      8.701      0.054     2.4850     22.966     48.712  35.871265     1.0032      6.899   258.0622 1.2382e-01    15.7451      8.532     12.375    11.8151   999.5803 0.0000e+00
      8.713      0.056     2.4813     22.932     48.715  35.873459     1.0228      6.898   257.8727 1.2380e-01    15.7686      8.544     12.393    11.8158   999.5803 0.0000e+00
      8.723      0.060     2.4745     22.869     48.731  35.885112     1.0258      6.897   257.9507 1.2374e-01    15.7769      8.554     12.408    11.8172   999.5802 0.0000e+00
      8.736      0.066     2.4680     22.809     48.731  35.885217     0.9868      6.896   258.2315 1.2369e-01    15.7802      8.566     12.423    11.8172   999.5802 0.0000e+00
      8.755      0.072     2.4645     22.776     48.717  35.874718     0.8973      6.895   258.6862 1.2373e-01    15.7753      8.584     12.450    11.8166   999.5804 0.0000e+00
      8.777      0.076     2.4618     22.751     48.731  35.885114     0.8374      6.895   259.1464 1.2378e-01    15.7831      8.608     12.485    11.8171   999.5804 0.0000e+00
      8.801      0.079     2.4606     22.740     48.730  35.883969     0.8352      6.894   259.2361 1.2371e-01    15.8094      8.631     12.518    11.8178   999.5805 0.0000e+00
      8.823      0.079     2.4639     22.770     48.699  35.860879     0.8790      6.892   259.1684 1.2365e-01    15.8314      8.654     12.552    11.8168   999.5807 0.0000e+00
      8.843      0.078     2.4674     22.801     48.699  35.859829     0.9420      6.890   259.1021 1.2371e-01    15.8199      8.673     12.580    11.8165   999.5808 0.0000e+00
      8.859      0.075     2.4700     22.825     48.715  35.871266     0.9630      6.890   259.0366 1.2374e-01    15.8006      8.687     12.600    11.8165   999.5809 0.0000e+00
      8.876      0.074     2.4744     22.866     48.717  35.872211     0.9595      6.889   259.4955 1.2372e-01    15.7948      8.703     12.623    11.8164   999.5810 0.0000e+00
      8.895      0.074     2.4777     22.896     48.715  35.871255     0.9440      6.889   260.3484 1.2374e-01    15.7836      8.723     12.652    11.8163   999.5810 0.0000e+00
      8.915      0.075     2.4782     22.901     48.699  35.859715     0.8974      6.888   260.7446 1.2376e-01    15.7628      8.743     12.681    11.8153   999.5812 0.0000e+00
      8.935      0.077     2.4787     22.906     48.699  35.859621     0.8564      6.887   260.7583 1.2377e-01    15.7398      8.761     12.707    11.8146   999.5814 0.0000e+00
      8.955      0.078     2.4816     22.934     48.714  35.870121     0.8459      6.885   260.5996 1.2378e-01    15.7352      8.782     12.737    11.8145   999.5815 0.0000e+00
      8.975      0.078     2.4840     22.956     48.699  35.859724     0.8921      6.883   260.3746 1.2380e-01    15.7726      8.802     12.767    11.8143   999.5817 0.0000e+00
      8.994      0.078     2.4827     22.944     48.700  35.860850     0.9816      6.883   260.8775 1.2382e-01    15.7996      8.821     12.793    11.8146   999.5817 0.0000e+00
      9.014      0.076     2.4836     22.952     48.730  35.883741     1.0343      6.883   261.9480 1.2383e-01    15.7986      8.839     12.820    11.8144   999.5818 0.0000e+00
      9.035      0.072     2.4879     22.992     48.729  35.882607     1.0355      6.883   262.4778 1.2383e-01    15.7930      8.860     12.851    11.8143   999.5819 0.0000e+00
      9.056      0.066     2.4911     23.021     48.681  35.847135     1.0045      6.882   262.2922 1.2380e-01    15.7325      8.882     12.884    11.8147   999.5820 0.0000e+00
      9.073      0.061     2.4903     23.014     48.666  35.835687     0.9555      6.880   261.9412 1.2380e-01    15.6563      8.900     12.908    11.8152   999.5820 0.0000e+00
      9.086      0.058     2.4847     22.962     48.715  35.871141     0.9190      6.879   262.1913 1.2386e-01    15.6257      8.911     12.924    11.8160   999.5820 0.0000e+00
      9.096      0.058     2.4795     22.914     48.748  35.894969     0.9099      6.879   262.9934 1.2387e-01    15.5912      8.920     12.937    11.8163   999.5820 0.0000e+00
      9.107      0.063     2.4795     22.913     48.714  35.869893     0.9150      6.879   263.4659 1.2378e-01    15.5676      8.930     12.952    11.8156   999.5821 0.0000e+00
      9.121      0.071     2.4798     22.916     48.649  35.821840     0.9023      6.878   263.4305 1.2368e-01    15.5700      8.942     12.970    11.8147   999.5822 0.0000e+00
      9.142      0.080     2.4758     22.879     48.649  35.821745     0.8781      6.877   263.2532 1.2368e-01    15.5550      8.962     12.998    11.8140   999.5824 0.0000e+00
      9.168      0.088     2.4728     22.850     48.715  35.868749     0.8648      6.877   263.2149 1.2372e-01    15.5498      8.990     13.038    11.8139   999.5826 0.0000e+00
      9.195      0.092     2.4722     22.843     48.737  35.882369     0.8535      6.876   263.3109 1.2372e-01    15.5723      9.019     13.080    11.8138   999.5827 0.0000e+00
      9.221      0.092     2.4712     22.832     48.709  35.859477     0.8637      6.874   263.4683 1.2372e-01    15.5978      9.044     13.117    11.8140   999.5828 0.0000e+00
      9.245      0.087     2.4712     22.832     48.691  35.845857     0.8929      6.871   263.6550 1.2372e-01    15.6285      9.066     13.149    11.8151   999.5828 0.0000e+00
      9.266      0.081     2.4684     22.806     48.689  35.844630     0.9033      6.869   263.8478 1.2371e-01    15.6486      9.088     13.180    11.8129   999.5832 0.0000e+00
      9.286      0.075     2.4601     22.730     48.688  35.844631     0.9030      6.869   263.9933 1.2371e-01    15.6446      9.107     13.209    11.8090   999.5837 0.0000e+00
      9.302      0.073     2.4512     22.649     48.688  35.845879     0.9062      6.869   263.9506 1.2368e-01    15.6782      9.123     13.233    11.8067   999.5840 0.0000e+00
      9.317      0.073     2.4419     22.564     48.706  35.859717     0.9070      6.869   263.5901 1.2368e-01    15.7606      9.136     13.252    11.8057   999.5842 0.0000e+00
      9.334      0.074     2.4317     22.469     48.741  35.885001     0.9044      6.868   263.1616 1.2372e-01    15.8209      9.151     13.273    11.8062   999.5842 0.0000e+00
      9.354      0.075     2.4206     22.366     48.760  35.897695     0.9007      6.866   263.1580 1.2376e-01    15.8503      9.172     13.302    11.8074   999.5842 0.0000e+00
      9.377      0.076     2.4104     22.272     48.745  35.886260     0.8710      6.865   263.6331 1.2377e-01    15.7892      9.196     13.337    11.8089   999.5841 0.0000e+00
      9.398      0.075     2.4053     22.224     48.729  35.873679     0.8141      6.865   264.0873 1.2377e-01    15.6386      9.218     13.369    11.8100   999.5841 0.0000e+00
      9.418      0.073     2.4053     22.223     48.729  35.872527     0.7848      6.864   263.6594 1.2380e-01    15.5692      9.237     13.397    11.8087   999.5844 0.0000e+00
      9.435      0.068     2.4058     22.228     48.730  35.872329     0.7858      6.863   262.7612 1.2380e-01    15.5736      9.253     13.420    11.8072   999.5846 0.0000e+00
      9.452      0.061     2.4033     22.204     48.729  35.871280     0.8171      6.862   262.5188 1.2376e-01    15.5603      9.269     13.443    11.8074   999.5847 0.0000e+00
      9.467      0.053     2.4011     22.183     48.714  35.859843     0.8766      6.860   262.6214 1.2376e-01    15.5401      9.284     13.465    11.8069   999.5848 0.0000e+00
      9.482      0.044     2.4016     22.188     48.716  35.860988     0.9078      6.858   262.7980 1.2375e-01    15.5255      9.299     13.487    11.8055   999.5850 0.0000e+00
      9.494      0.035     2.4030     22.202     48.748  35.885118     0.9087      6.856   263.1055 1.2370e-01    15.5471      9.312     13.507    11.8041   999.5852 0.0000e+00
      9.500      0.026     2.4035     22.207     48.763  35.897717     0.9037      6.854   262.8111 1.2365e-01    15.6048      9.318     13.515    11.8034   999.5853 0.0000e+00
      9.503      0.017     2.4020     22.193     48.746  35.886377     0.8907      6.851   261.9919 1.2365e-01    15.6334      9.319     13.515    11.8031   999.5853 0.0000e+00
      9.504      0.011     2.4015     22.190     48.728  35.874950     0.8649      6.848   261.6325 1.2372e-01    15.5975      9.321     13.518    11.8034   999.5853 0.0000e+00
      9.506      0.006     2.4044     22.219     48.738  35.886500     0.8424      6.846   261.9071 1.2373e-01    15.5316      9.322     13.520    11.8043   999.5853 0.0000e+00
      9.507      0.004     2.4072     22.248     48.746  35.899090     0.8360      6.846   262.3866 1.2372e-01    15.5250      9.324     13.522    11.8048   999.5852 0.0000e+00
      9.507      0.004     2.4086     22.266     48.736  35.900235     0.8227      6.844   262.6991 1.2372e-01    15.5501      9.324     13.523    11.8060   999.5851 0.0000e+00
      9.508      0.004     2.4100     22.281     48.728  35.900347     0.8030      6.842   262.5011 1.2371e-01    15.4745      9.324     13.523    11.8095   999.5847 0.0000e+00
      9.509      0.003     2.4119     22.299     48.728  35.900462     0.7888      6.841   261.8853 1.2370e-01    15.3654      9.325     13.525    11.8116   999.5844 0.0000e+00
      9.510      0.003     2.4133     22.310     48.733  35.901617     0.7803      6.840   261.5351 1.2370e-01    15.3447      9.326     13.527    11.8172   999.5838 0.0000e+00
      9.511      0.003     2.4133     22.310     48.750  35.914312     0.7948      6.839   261.7084 1.2374e-01    15.4865      9.328     13.529    11.8302   999.5824 0.0000e+00
      9.512      0.003     2.4123     22.304     48.761  35.927006     0.8258      6.837   262.0877 1.2373e-01    15.7358      9.329     13.530    11.8376   999.5816 0.0000e+00
      9.513      0.002     2.4120     22.306     48.751  35.928157     0.8428      6.835   262.3358 1.2367e-01    15.8686      9.329     13.530    11.8362   999.5817 0.0000e+00
      9.513      0.002     2.4124     22.312     48.744  35.928252     0.8449      6.834   262.3848 1.2362e-01    15.8796      9.329     13.530    11.8305   999.5824 0.0000e+00
      9.513 -9.990e-29 -9.990e-29 -9.990e-29 -9.990e-29 -9.990e-29 -9.990e-29 -9.990e-29 -9.990e-29 1.2361e-01 -9.990e-29      9.329     13.530    11.8313   999.5823 0.0000e+00
      9.513 -9.990e-29 -9.990e-29 -9.990e-29 -9.990e-29 -9.990e-29 -9.990e-29 -9.990e-29 -9.990e-29 1.2362e-01 -9.990e-29      9.329     13.530    11.8352   999.5818 0.0000e+00
      9.513 -9.990e-29 -9.990e-29 -9.990e-29 -9.990e-29 -9.990e-29 -9.990e-29 -9.990e-29 -9.990e-29 1.2363e-01 -9.990e-29      9.329     13.531    11.8459   999.5807 0.0000e+00
      9.513 -9.990e-29 -9.990e-29 -9.990e-29 -9.990e-29 -9.990e-29 -9.990e-29 -9.990e-29 -9.990e-29 1.2362e-01 -9.990e-29      9.330     13.531    11.8573   999.5793 0.0000e+00
