* Sea-Bird SBE19plus  Data File:
* FileName = C:\R\Reservoirs\Data\DataNotYetUploadedToEDI\Raw_CTD\RawDownloads\081424_ccr50_S8188_0007.hex
* Software version 2.8.0.119
* Temperature SN = 8188
* Conductivity SN = 8188
* System UpLoad Time = Aug 16 2024 10:38:25
* <ApplicationData>
* <Seaterm232>
* <SoftwareVersion>2.8.0.119</SoftwareVersion>
* <BuildDate>07-Nov-2018</BuildDate>
* </Seaterm232>
* </ApplicationData>
* <InstrumentState>
* <HardwareData DeviceType='SBE19plus' SerialNumber='01908188'>
*
*    <Manufacturer>Sea-Bird Electronics, Inc.</Manufacturer>
*
*    <FirmwareVersion>3.1.8</FirmwareVersion>
*
*    <FirmwareDate>Mar  9 2016 16:22:29</FirmwareDate>
*
*    <CommandSetVersion>1.4</CommandSetVersion>
*
*    <PCBAssembly PCBSerialNum='260079' AssemblyNum='41054K'/>
*
*    <PCBAssembly PCBSerialNum='260083' AssemblyNum='41059E'/>
*
*    <PCBAssembly PCBSerialNum='260085' AssemblyNum='41606B'/>
*
*    <PCBAssembly PCBSerialNum='260081' AssemblyNum='41967C'/>
*
*    <MfgDate>30 Mar 2022</MfgDate>
*
*    <InternalSensors>
*
*       <Sensor id='Main Temperature'>
*
*          <type>temperature0</type>
*
*          <SerialNumber>01908188</SerialNumber>
*
*       </Sensor>
*
*       <Sensor id='Main Conductivity'>
*
*          <type>conductivity-0</type>
*
*          <SerialNumber>01908188</SerialNumber>
*
*       </Sensor>
*
*       <Sensor id='Main Pressure'>
*
*          <type>strain-0</type>
*
*          <SerialNumber>12220741</SerialNumber>
*
*       </Sensor>
*
*    </InternalSensors>
*
*    <ExternalSensors>
*
*       <Sensor id='volt 0'>
*
*          <type>CHL</type>
*
*          <SerialNumber>FLNTURT-7096</SerialNumber>
*
*       </Sensor>
*
*       <Sensor id='volt 1'>
*
*          <type>NTU</type>
*
*          <SerialNumber>FLNTURT-7096</SerialNumber>
*
*       </Sensor>
*
*       <Sensor id='volt 2'>
*
*          <type>OXY</type>
*
*          <SerialNumber>43-4269</SerialNumber>
*
*       </Sensor>
*
*       <Sensor id='volt 3'>
*
*          <type>not assigned</type>
*
*          <SerialNumber>not assigned</SerialNumber>
*
*       </Sensor>
*
*       <Sensor id='volt 4'>
*
*          <type>PAR</type>
*
*          <SerialNumber>PARLOGICSW-2209</SerialNumber>
*
*       </Sensor>
*
*       <Sensor id='volt 5'>
*
*          <type>not assigned</type>
*
*          <SerialNumber>not assigned</SerialNumber>
*
*       </Sensor>
*
*       <Sensor id='serial'>
*
*          <type>WETLABS</type>
*
*          <SerialNumber>FL3-7350</SerialNumber>
*
*       </Sensor>
*
*    </ExternalSensors>
*
* </HardwareData>
* <StatusData DeviceType='SBE19plus' SerialNumber='01908188'>
*
*    <DateTime>2024-08-16T10:35:18</DateTime>
*
*    <LoggingState>not logging</LoggingState>
*
*    <EventSummary numEvents='0'/>
*
*    <Power>
*
*       <vMain>12.4</vMain>
*
*       <vLith>8.6</vLith>
*
*       <iMain>61.7</iMain>
*
*       <iPump>49.8</iPump>
*
*       <iExt01>21.9</iExt01>
*
*       <iExt2345>21.1</iExt2345>
*
*       <iSerial>55.5</iSerial>
*
*    </Power>
*
*    <MemorySummary>
*
*       <Bytes>279875</Bytes>
*
*       <Samples>11195</Samples>
*
*       <SamplesFree>2620730</SamplesFree>
*
*       <SampleLength>25</SampleLength>
*
*       <Profiles>7</Profiles>
*
*    </MemorySummary>
*
* </StatusData>
* <ConfigurationData DeviceType='SBE19plus' SerialNumber='01908188'>
*
*    <ProfileMode>
*
*       <ScansToAverage>1</ScansToAverage>
*
*       <MinimumCondFreq>2</MinimumCondFreq>
*
*       <PumpDelay>90</PumpDelay>
*
*       <AutoRun>no</AutoRun>
*
*       <IgnoreSwitch>no</IgnoreSwitch>
*
*    </ProfileMode>
*
*    <Battery>
*
*       <Type>alkaline</Type>
*
*       <CutOff>7.5</CutOff>
*
*    </Battery>
*
*    <DataChannels>
*
*       <ExtVolt0>yes</ExtVolt0>
*
*       <ExtVolt1>yes</ExtVolt1>
*
*       <ExtVolt2>yes</ExtVolt2>
*
*       <ExtVolt3>no</ExtVolt3>
*
*       <ExtVolt4>yes</ExtVolt4>
*
*       <ExtVolt5>no</ExtVolt5>
*
*       <SBE38>no</SBE38>
*
*       <WETLABS>yes</WETLABS>
*
*       <OPTODE>no</OPTODE>
*
*       <SBE63>no</SBE63>
*
*       <SeaFET>no</SeaFET>
*
*       <GTD>no</GTD>
*
*    </DataChannels>
*
*    <EchoCharacters>yes</EchoCharacters>
*
*    <OutputExecutedTag>yes</OutputExecutedTag>
*
*    <OutputFormat>raw HEX</OutputFormat>
*
* </ConfigurationData>
* <CalibrationCoefficients DeviceType='SBE19plus' SerialNumber='01908188'>
*
*    <Calibration format='TEMP1' id='Main Temperature'>
*
*       <SerialNum>01908188</SerialNum>
*
*       <CalDate>07-May-24</CalDate>
*
*       <TA0>1.249325e-03</TA0>
*
*       <TA1>2.751683e-04</TA1>
*
*       <TA2>-1.314205e-06</TA2>
*
*       <TA3>1.914222e-07</TA3>
*
*       <TOFFSET>0.000000e+00</TOFFSET>
*
*    </Calibration>
*
*    <Calibration format='WBCOND0' id='Main Conductivity'>
*
*       <SerialNum>01908188</SerialNum>
*
*       <CalDate>07-May-24</CalDate>
*
*       <G>-1.014855e+00</G>
*
*       <H>1.444624e-01</H>
*
*       <I>-3.430060e-04</I>
*
*       <J>4.842261e-05</J>
*
*       <CPCOR>-9.570000e-08</CPCOR>
*
*       <CTCOR>3.250000e-06</CTCOR>
*
*       <CSLOPE>1.000000e+00</CSLOPE>
*
*    </Calibration>
*
*    <Calibration format='STRAIN0' id='Main Pressure'>
*
*       <SerialNum>12220741</SerialNum>
*
*       <CalDate>03-Apr-24</CalDate>
*
*       <PA0>7.209200e-02</PA0>
*
*       <PA1>4.836684e-04</PA1>
*
*       <PA2>-3.501227e-12</PA2>
*
*       <PTCA0>5.244614e+05</PTCA0>
*
*       <PTCA1>2.020364e+01</PTCA1>
*
*       <PTCA2>-6.074616e-01</PTCA2>
*
*       <PTCB0>2.522087e+01</PTCB0>
*
*       <PTCB1>5.750000e-04</PTCB1>
*
*       <PTCB2>0.000000e+00</PTCB2>
*
*       <PTEMPA0>-5.770713e+01</PTEMPA0>
*
*       <PTEMPA1>5.343973e+01</PTEMPA1>
*
*       <PTEMPA2>-5.775530e-01</PTEMPA2>
*
*       <POFFSET>7.020000e-01</POFFSET>
*
*       <PRANGE>1.600000e+02</PRANGE>
*
*    </Calibration>
*
*    <Calibration format='VOLT0' id='Volt 0'>
*
*       <OFFSET>-4.657200e-02</OFFSET>
*
*       <SLOPE>1.248989e+00</SLOPE>
*
*    </Calibration>
*
*    <Calibration format='VOLT0' id='Volt 1'>
*
*       <OFFSET>-4.600800e-02</OFFSET>
*
*       <SLOPE>1.249849e+00</SLOPE>
*
*    </Calibration>
*
*    <Calibration format='VOLT0' id='Volt 2'>
*
*       <OFFSET>-4.668000e-02</OFFSET>
*
*       <SLOPE>1.250379e+00</SLOPE>
*
*    </Calibration>
*
*    <Calibration format='VOLT0' id='Volt 3'>
*
*       <OFFSET>-4.643200e-02</OFFSET>
*
*       <SLOPE>1.251002e+00</SLOPE>
*
*    </Calibration>
*
*    <Calibration format='VOLT0' id='Volt 4'>
*
*       <OFFSET>-4.606100e-02</OFFSET>
*
*       <SLOPE>1.249962e+00</SLOPE>
*
*    </Calibration>
*
*    <Calibration format='VOLT0' id='Volt 5'>
*
*       <OFFSET>-4.642700e-02</OFFSET>
*
*       <SLOPE>1.248530e+00</SLOPE>
*
*    </Calibration>
*
*    <Calibration format='FREQ0' id='external frequency channel'>
*
*       <EXTFREQSF>1.000018e+00</EXTFREQSF>
*
*    </Calibration>
*
* </CalibrationCoefficients>
* <EventCounters DeviceType='SBE19plus' SerialNumber='01908188'>
*
*    <EventSummary numEvents='0'/>
*
* </EventCounters></InstrumentState>
* <Headers>
*
* cast   7 15 Aug 2024 15:58:47 samples 10154 to 11195, avg = 1, stop = mag switch
*
# nquan = 13
# nvalues = 1042                        
# units = specified
# name 0 = depFM: Depth [fresh water, m]
# name 1 = dz/dtM: Descent Rate [m/s]
# name 2 = sbeox0Mg/L: Oxygen, SBE 43 [mg/l]
# name 3 = sbeox0PS: Oxygen, SBE 43 [% saturation]
# name 4 = specc: Specific Conductance [uS/cm]
# name 5 = c0uS/cm: Conductivity [uS/cm]
# name 6 = flECO-AFL: Fluorescence, WET Labs ECO-AFL/FL [mg/m^3]
# name 7 = par/sat/log: PAR/Logarithmic, Satlantic
# name 8 = turbWETntu0: Turbidity, WET Labs ECO [NTU]
# name 9 = prdM: Pressure, Strain Gauge [db]
# name 10 = prdE: Pressure, Strain Gauge [psi]
# name 11 = tv290C: Temperature [ITS-90, deg C]
# name 12 = flag:  0.000e+00
# span 0 =     -0.455,      3.946       
# span 1 =     -0.523,      0.234       
# span 2 =     4.0653,    10.4980       
# span 3 =     51.975,    130.970       
# span 4 =  -1151.711,    117.494       
# span 5 = -1.206e+03, 125.623078       
# span 6 =    -0.4335,     3.1448       
# span 7 = 1.3848e-01, 1.8930e+03       
# span 8 =   -10.6177,   170.1386       
# span 9 =     -0.447,      3.873       
# span 10 =     -0.648,      5.617      
# span 11 =    25.6219,    28.6744      
# span 12 = 0.0000e+00, 0.0000e+00      
# interval = seconds: 0.25
# start_time = Aug 15 2024 15:58:47 [Instrument's time stamp, header]
# bad_flag = -9.990e-29
# <Sensors count="10" >
#   <sensor Channel="1" >
#     <!-- Count, Temperature -->
#     <TemperatureSensor SensorID="58" >
#       <SerialNumber>8188</SerialNumber>
#       <CalibrationDate>07-May-24</CalibrationDate>
#       <A0>1.24932504e-003</A0>
#       <A1>2.75168293e-004</A1>
#       <A2>-1.31420465e-006</A2>
#       <A3>1.91422179e-007</A3>
#       <Slope>1.00000000</Slope>
#       <Offset>0.0000</Offset>
#     </TemperatureSensor>
#   </sensor>
#   <sensor Channel="2" >
#     <!-- Frequency 0, Conductivity -->
#     <ConductivitySensor SensorID="3" >
#       <SerialNumber>8188</SerialNumber>
#       <CalibrationDate>07-May-24</CalibrationDate>
#       <UseG_J>1</UseG_J>
#       <!-- Cell const and series R are applicable only for wide range sensors. -->
#       <SeriesR>0.0000</SeriesR>
#       <CellConst>2000.0000</CellConst>
#       <ConductivityType>0</ConductivityType>
#       <Coefficients equation="0" >
#         <A>0.00000000e+000</A>
#         <B>0.00000000e+000</B>
#         <C>0.00000000e+000</C>
#         <D>0.00000000e+000</D>
#         <M>0.0</M>
#         <CPcor>-9.57000000e-008</CPcor>
#       </Coefficients>
#       <Coefficients equation="1" >
#         <G>-1.01485473e+000</G>
#         <H>1.44462400e-001</H>
#         <I>-3.43006030e-004</I>
#         <J>4.84226116e-005</J>
#         <CPcor>-9.57000000e-008</CPcor>
#         <CTcor>3.2500e-006</CTcor>
#         <!-- WBOTC not applicable unless ConductivityType = 1. -->
#         <WBOTC>0.00000000e+000</WBOTC>
#       </Coefficients>
#       <Slope>1.00000000</Slope>
#       <Offset>0.00000</Offset>
#     </ConductivitySensor>
#   </sensor>
#   <sensor Channel="3" >
#     <!-- Count, Pressure, Strain Gauge -->
#     <PressureSensor SensorID="46" >
#       <SerialNumber>8188</SerialNumber>
#       <CalibrationDate>03-Apr-24</CalibrationDate>
#       <PA0>7.20920045e-002</PA0>
#       <PA1>4.83668449e-004</PA1>
#       <PA2>-3.50122678e-012</PA2>
#       <PTEMPA0>-5.77071299e+001</PTEMPA0>
#       <PTEMPA1>5.34397285e+001</PTEMPA1>
#       <PTEMPA2>-5.77553003e-001</PTEMPA2>
#       <PTCA0>5.24461366e+005</PTCA0>
#       <PTCA1>2.02036405e+001</PTCA1>
#       <PTCA2>-6.07461634e-001</PTCA2>
#       <PTCB0>2.52208750e+001</PTCB0>
#       <PTCB1>5.75000000e-004</PTCB1>
#       <PTCB2>0.00000000e+000</PTCB2>
#       <Offset>0.000000</Offset>
#     </PressureSensor>
#   </sensor>
#   <sensor Channel="4" >
#     <!-- A/D voltage 0, Fluorometer, WET Labs ECO-AFL/FL -->
#     <FluoroWetlabECO_AFL_FL_Sensor SensorID="20" >
#       <SerialNumber>FLNTURT-7096</SerialNumber>
#       <CalibrationDate>21-Mar-2024</CalibrationDate>
#       <ScaleFactor>5.00000000e+001</ScaleFactor>
#       <!-- Dark output -->
#       <Vblank>0.0710</Vblank>
#     </FluoroWetlabECO_AFL_FL_Sensor>
#   </sensor>
#   <sensor Channel="5" >
#     <!-- A/D voltage 1, Turbidity Meter, WET Labs, ECO-NTU -->
#     <TurbidityMeter SensorID="67" >
#       <SerialNumber>FLNTURT-7096</SerialNumber>
#       <CalibrationDate>21-Mar-2024</CalibrationDate>
#       <ScaleFactor>198.000000</ScaleFactor>
#       <!-- Dark output -->
#       <DarkVoltage>0.070000</DarkVoltage>
#     </TurbidityMeter>
#   </sensor>
#   <sensor Channel="6" >
#     <!-- A/D voltage 2, Oxygen, SBE 43 -->
#     <OxygenSensor SensorID="38" >
#       <SerialNumber>4269</SerialNumber>
#       <CalibrationDate>08-May-24</CalibrationDate>
#       <Use2007Equation>1</Use2007Equation>
#       <CalibrationCoefficients equation="0" >
#         <!-- Coefficients for Owens-Millard equation. -->
#         <Boc>0.0000</Boc>
#         <Soc>0.0000e+000</Soc>
#         <offset>0.0000</offset>
#         <Pcor>0.00e+000</Pcor>
#         <Tcor>0.0000</Tcor>
#         <Tau>0.0</Tau>
#       </CalibrationCoefficients>
#       <CalibrationCoefficients equation="1" >
#         <!-- Coefficients for Sea-Bird equation - SBE calibration in 2007 and later. -->
#         <Soc>4.3983e-001</Soc>
#         <offset>-0.4978</offset>
#         <A>-4.5504e-003</A>
#         <B> 2.4929e-004</B>
#         <C>-4.1306e-006</C>
#         <D0> 2.5826e+000</D0>
#         <D1> 1.92634e-004</D1>
#         <D2>-4.64803e-002</D2>
#         <E> 3.6000e-002</E>
#         <Tau20> 1.9700</Tau20>
#         <H1>-3.3000e-002</H1>
#         <H2> 5.0000e+003</H2>
#         <H3> 1.4500e+003</H3>
#       </CalibrationCoefficients>
#     </OxygenSensor>
#   </sensor>
#   <sensor Channel="7" >
#     <!-- A/D voltage 3, PAR/Logarithmic, Satlantic -->
#     <PARLog_SatlanticSensor SensorID="76" >
#       <SerialNumber>2209</SerialNumber>
#       <CalibrationDate>14-Jan-2022</CalibrationDate>
#       <a0>9.8861e-001</a0>
#       <a1>8.0845e-001</a1>
#       <Im>1.3589e+000</Im>
#       <Multiplier>1.0000e+000</Multiplier>
#     </PARLog_SatlanticSensor>
#   </sensor>
#   <sensor Channel="8" >
#     <!-- Serial RS-232, Fluorometer, WET Labs ECO-AFL/FL, 2 -->
#     <FluoroWetlabECO_AFL_FL_Sensor SensorID="20" >
#       <SerialNumber>FL3-7350</SerialNumber>
#       <CalibrationDate>10-Mar-2022</CalibrationDate>
#       <ScaleFactor>4.26000000e-002</ScaleFactor>
#       <!-- Dark output -->
#       <Vblank>50.0000</Vblank>
#     </FluoroWetlabECO_AFL_FL_Sensor>
#   </sensor>
#   <sensor Channel="9" >
#     <!-- Serial RS-232, Fluorometer, WET Labs ECO-AFL/FL, 3 -->
#     <FluoroWetlabECO_AFL_FL_Sensor SensorID="20" >
#       <SerialNumber>FL3-7350</SerialNumber>
#       <CalibrationDate>10-Mar-2022</CalibrationDate>
#       <ScaleFactor>4.23000000e-002</ScaleFactor>
#       <!-- Dark output -->
#       <Vblank>48.0000</Vblank>
#     </FluoroWetlabECO_AFL_FL_Sensor>
#   </sensor>
#   <sensor Channel="10" >
#     <!-- Serial RS-232, Fluorometer, WET Labs ECO CDOM -->
#     <FluoroWetlabCDOM_Sensor SensorID="19" >
#       <SerialNumber>FL3-7350</SerialNumber>
#       <CalibrationDate>10-Mar-2022</CalibrationDate>
#       <ScaleFactor>0.090</ScaleFactor>
#       <!-- Dark output -->
#       <Vblank>50.000</Vblank>
#     </FluoroWetlabCDOM_Sensor>
#   </sensor>
# </Sensors>
# datcnv_date = Aug 16 2024 10:56:16, 7.26.7.129 [datcnv_vars = 12]
# datcnv_in = C:\R\Reservoirs\Data\DataNotYetUploadedToEDI\Raw_CTD\RawDownloads\081524_ccr90_S8188007.hex C:\R\Reservoirs\Data\DataNotYetUploadedToEDI\Raw_CTD\RawDownloads\SBE19plusV2_8188_start20240601.xmlcon
# datcnv_skipover = 0
# datcnv_ox_hysteresis_correction = yes
# datcnv_ox_tau_correction = yes
# filter_date = Aug 16 2024 10:58:05, 7.26.7.129
# filter_in = C:\R\Reservoirs\Data\DataNotYetUploadedToEDI\Raw_CTD\RawDownloads\081524_ccr90_S8188007.cnv
# filter_low_pass_tc_A = 0.030
# filter_low_pass_tc_B = 0.150
# filter_low_pass_A_vars = sbeox0Mg/L prdM prdE tv290C
# filter_low_pass_B_vars = depFM dz/dtM sbeox0PS specc c0uS/cm flECO-AFL par/sat/log turbWETntu0
# alignctd_date = Aug 16 2024 10:59:29, 7.26.7.129
# alignctd_in = C:\R\Reservoirs\Data\DataNotYetUploadedToEDI\Raw_CTD\RawDownloads\081524_ccr90_S8188007.cnv
# alignctd_adv = dz/dtM 1.000, sbeox0PS 1.000, specc 1.000, c0uS/cm 1.000, flECO-AFL 1.000, turbWETntu0 1.000                                                                                                                        
# file_type = ascii
*END*
     -0.453 -2.632e-15     8.4527    103.489      2.987   3.025606     0.1011 1.3111e+03    -1.0862     -0.444     -0.644    25.6451 0.0000e+00
     -0.453 -2.898e-14     8.4595    103.415      3.569   3.615577     0.1053 1.2979e+03    -1.0846     -0.444     -0.644    25.6450 0.0000e+00
     -0.453 -3.188e-13     8.4596    103.333      3.889   3.939188     0.0129 1.2574e+03    -1.0906     -0.444     -0.644    25.6448 0.0000e+00
     -0.453 -5.845e-13     8.4558    103.260      4.172   4.226167    -0.1582 1.1406e+03    -1.0559     -0.444     -0.644    25.6446 0.0000e+00
     -0.453 -3.180e-13     8.4509    103.219      4.183   4.237567    -0.2555 9.3343e+02    -1.0087     -0.444     -0.644    25.6443 0.0000e+00
     -0.453 -1.936e-14     8.4446    103.204      3.890   3.941427    -0.2696 8.2448e+02    -1.0347     -0.444     -0.644    25.6441 0.0000e+00
     -0.453 1.0324e-13     8.4380    103.213      3.649   3.696812    -0.2690 9.7431e+02    -1.0960     -0.444     -0.644    25.6438 0.0000e+00
     -0.453 1.1644e-12     8.4303    103.251      3.539   3.585340    -0.2738 1.2037e+03    -1.0969     -0.444     -0.645    25.6437 0.0000e+00
     -0.453 1.2811e-11     8.4284    103.296      3.364   3.407280    -0.2844 1.3283e+03    -1.0796     -0.444     -0.644    25.6435 0.0000e+00
     -0.453 1.4092e-10     8.4268    103.321      3.265   3.306790    -0.2848 1.3798e+03    -1.0929     -0.444     -0.644    25.6431 0.0000e+00
     -0.453 1.5501e-09     8.4271    103.331      3.478   3.522969    -0.2877 1.3968e+03    -1.0519     -0.443     -0.643    25.6428 0.0000e+00
     -0.453 1.7051e-08     8.4312    103.347      3.736   3.783565    -0.3106 1.3796e+03    -0.9269     -0.444     -0.644    25.6426 0.0000e+00
     -0.452 1.8756e-07     8.4359    103.376      3.832   3.881088    -0.3274 1.3114e+03    -0.8519     -0.444     -0.644    25.6419 0.0000e+00
     -0.452 2.0045e-07     8.4378    103.396      3.839   3.888444    -0.3254 1.1746e+03    -0.8319     -0.442     -0.642    25.6420 0.0000e+00
     -0.453 1.7288e-07     8.4376    103.387      3.823   3.872513    -0.3481 9.9972e+02    -0.5826     -0.444     -0.644    25.6412 0.0000e+00
     -0.453      0.000     8.4389    103.370      3.776   3.824087    -0.4022 8.9645e+02    -0.1382     -0.445     -0.645    25.6415 0.0000e+00
     -0.453      0.000     8.4420    103.370      3.663   3.709751    -0.4335 9.2245e+02     0.1130     -0.444     -0.644    25.6397 0.0000e+00
     -0.453      0.000     8.4448    103.377      3.728   3.778368    -0.4231 9.7695e+02     0.1882     -0.444     -0.645    25.6412 0.0000e+00
     -0.453      0.002     8.4436    103.374      5.909   6.009822    -0.3290 9.9618e+02     0.5997     -0.444     -0.644    25.6372 0.0000e+00
     -0.453      0.010     8.4400    103.361     21.460  22.010275    -0.1706 9.9173e+02     1.3810     -0.444     -0.644    25.6419 0.0000e+00
     -0.453      0.026     8.4425    103.344     50.425  52.141418    -0.0861 9.9110e+02     1.8063     -0.444     -0.644    25.6323 0.0000e+00
     -0.452      0.049     8.4415    103.336     79.762  83.377046    -0.0697 1.0432e+03     1.7938     -0.444     -0.644    25.6462 0.0000e+00
     -0.446      0.074     8.4448    103.333    104.517 110.218981    -0.0166 1.1472e+03     1.5048     -0.443     -0.643    25.6219 0.0000e+00
     -0.421      0.099     8.4361    103.319    116.220 123.239186     0.0707 1.2532e+03     0.9558     -0.423     -0.613    25.6705 0.0000e+00
     -0.379      0.119     8.3333    103.306    117.030 124.653851     0.1195 1.3344e+03     0.6483     -0.370     -0.537    26.3280 0.0000e+00
     -0.336      0.134     8.2008    103.309    116.960 125.005409     0.1216 1.4032e+03     0.6366     -0.326     -0.473    27.2113 0.0000e+00
     -0.300      0.144     8.1270    103.363    116.827 125.171448     0.1137 1.4564e+03     0.5739     -0.294     -0.426    27.7196 0.0000e+00
     -0.266      0.152     8.0795    103.548    116.587 125.093106     0.1110 1.4864e+03     0.4399     -0.260     -0.378    28.0351 0.0000e+00
     -0.234      0.162     8.0451    103.949    116.275 124.808743     0.1059 1.4926e+03     0.3895     -0.230     -0.333    28.2709 0.0000e+00
     -0.199      0.177     8.0194    104.588    116.108 124.598030     0.0959 1.4481e+03     0.4113     -0.199     -0.288    28.4477 0.0000e+00
     -0.154      0.196     8.0019    105.400    116.106 124.523348     0.0934 1.3450e+03     0.3598     -0.156     -0.226    28.5850 0.0000e+00
     -0.097      0.213     8.0024    106.278    116.197 124.519504     0.0944 1.2490e+03     0.2473     -0.097     -0.141    28.6627 0.0000e+00
     -0.032      0.227     8.0311    107.122    116.395 124.619589     0.0985 1.1881e+03     0.1842     -0.033     -0.049    28.6744 0.0000e+00
      0.034      0.234     8.0858    107.884    116.576 124.710182     0.1080 1.0375e+03     0.1804      0.039      0.056    28.6527 0.0000e+00
      0.095      0.234     8.1557    108.574    116.684 124.728010     0.1227 7.4042e+02     0.1666      0.094      0.136    28.6240 0.0000e+00
      0.153      0.223     8.2338    109.194    116.746 124.698564     0.1461 4.5564e+02     0.1552      0.149      0.216    28.5757 0.0000e+00
      0.213      0.201     8.3081    109.695    116.760 124.626822     0.1659 3.0646e+02     0.1799      0.213      0.308    28.5236 0.0000e+00
      0.268      0.173     8.3725    110.020    116.745 124.542520     0.1709 2.5738e+02     0.1913      0.262      0.379    28.4812 0.0000e+00
      0.317      0.142     8.4315    110.153    116.755 124.497653     0.1902 2.4762e+02     0.1893      0.318      0.461    28.4406 0.0000e+00
      0.349      0.110     8.4879    110.157    116.791 124.493491     0.2253 2.5472e+02     0.1904      0.350      0.508    28.3973 0.0000e+00
      0.363      0.080     8.5345    110.086    116.817 124.492121     0.2402 2.7187e+02     0.1701      0.357      0.517    28.3592 0.0000e+00
      0.371      0.056     8.5650    109.911    116.819 124.481041     0.2398 2.9858e+02     0.1493      0.364      0.529    28.3304 0.0000e+00
      0.379      0.040     8.5766    109.568    116.836 124.495921     0.2211 3.3006e+02     0.1450      0.372      0.539    28.3078 0.0000e+00
      0.386      0.033     8.5766    108.947    116.873 124.535606     0.1866 3.5408e+02     0.1526      0.380      0.551    28.2885 0.0000e+00
      0.393      0.032     8.5764    108.012    116.889 124.551635     0.1692 3.7070e+02     0.1727      0.385      0.559    28.2758 0.0000e+00
      0.402      0.034     8.5625    106.589    116.889 124.553306     0.1676 3.8048e+02     0.1824      0.393      0.571    28.2707 0.0000e+00
      0.411      0.035     8.5418    104.288    116.888 124.555815     0.1674 3.6470e+02     0.1669      0.404      0.585    28.2714 0.0000e+00
      0.420      0.035     8.4929    101.129    116.909 124.581977     0.1665 3.5663e+02     0.1563      0.412      0.596    28.2723 0.0000e+00
      0.430      0.032     8.4196     97.499    116.924 124.596816     0.1660 3.6435e+02     0.1576      0.421      0.610    28.2707 0.0000e+00
      0.441      0.026     8.3305     93.703    116.929 124.598815     0.1693 3.3886e+02     0.1481      0.433      0.629    28.2710 0.0000e+00
      0.449      0.020     8.1471     90.011    116.940 124.606136     0.1884 3.2250e+02     0.1437      0.443      0.643    28.2734 0.0000e+00
      0.452      0.011     7.8855     86.847    116.892 124.548907     0.2235 3.5354e+02     0.1732      0.445      0.646    28.2753 0.0000e+00
      0.452     -0.001     7.5970     84.597    116.812 124.452513     0.2472 4.0343e+02     0.1965      0.443      0.643    28.2746 0.0000e+00
      0.451     -0.014     7.2959     83.198    116.773 124.395522     0.2506 4.4279e+02     0.1851      0.442      0.641    28.2732 0.0000e+00
      0.449     -0.023     6.9963     82.224    116.790 124.405455     0.2470 4.5412e+02     0.1726      0.441      0.640    28.2713 0.0000e+00
      0.442     -0.022     6.7347     81.402    116.813 124.436194     0.2377 5.2483e+02     0.1476      0.437      0.633    28.2693 0.0000e+00
      0.427     -0.012     6.5629     80.847    116.725 124.357946     0.2250 6.2909e+02     0.1243      0.421      0.610    28.2647 0.0000e+00
      0.412      0.000     6.4713     80.818    116.571 124.209652     0.2235 6.1545e+02     0.1651      0.399      0.577    28.2558 0.0000e+00
      0.408      0.008     6.4050     81.363    116.514 124.143743     0.2280 5.5395e+02     0.2287      0.390      0.566    28.2504 0.0000e+00
      0.427      0.010     6.3351     82.272    116.569 124.174888     0.2281 5.7781e+02     0.2073      0.415      0.602    28.2548 0.0000e+00
      0.452      0.006     6.2810     83.398    116.714 124.313363     0.2333 6.5901e+02     0.1458      0.452      0.656    28.2628 0.0000e+00
      0.461     -0.002     6.2758     84.821    116.893 124.522087     0.2385 6.4280e+02     0.1382      0.460      0.668    28.2723 0.0000e+00
      0.449     -0.011     6.3267     86.613    116.978 124.652393     0.2308 5.5007e+02     0.1493      0.443      0.643    28.2734 0.0000e+00
      0.428     -0.016     6.4066     88.811    116.888 124.593035     0.2266 5.1212e+02     0.1426      0.419      0.607    28.2535 0.0000e+00
      0.410     -0.013     6.4885     91.253    116.706 124.418314     0.2316 4.9727e+02     0.1258      0.397      0.575    28.2413 0.0000e+00
      0.405     -0.003     6.5981     93.379    116.604 124.313244     0.2299 5.0447e+02     0.1183      0.390      0.566    28.2535 0.0000e+00
      0.415      0.009     6.7340     94.730    116.638 124.345740     0.2326 5.1545e+02     0.1208      0.403      0.585    28.2746 0.0000e+00
      0.433      0.019     6.9013     95.184    116.754 124.470184     0.2382 4.7000e+02     0.1560      0.429      0.622    28.2923 0.0000e+00
      0.445      0.025     7.1141     94.744    116.861 124.590174     0.2278 4.3190e+02     0.2008      0.442      0.642    28.2998 0.0000e+00
      0.446      0.026     7.2920     93.443    116.901 124.637024     0.2203 4.2801e+02     0.1816      0.438      0.635    28.2996 0.0000e+00
      0.444      0.023     7.3984     91.345    116.898 124.627411     0.2160 4.2751e+02     0.1291      0.432      0.627    28.2968 0.0000e+00
      0.447      0.022     7.4337     88.625    116.891 124.610347     0.1847 4.5839e+02     0.1158      0.435      0.631    28.2959 0.0000e+00
      0.456      0.023     7.3978     85.680    116.856 124.567103     0.1547 5.0247e+02     0.1579      0.448      0.649    28.3011 0.0000e+00
      0.466      0.024     7.2947     83.075    116.811 124.513782     0.1650 5.3116e+02     0.1919      0.458      0.665    28.3044 0.0000e+00
      0.474      0.022     7.1286     81.300    116.814 124.511293     0.1970 5.5593e+02     0.1836      0.465      0.674    28.2998 0.0000e+00
      0.480      0.014     6.9067     80.572    116.843 124.537007     0.2210 5.3981e+02     0.1608      0.472      0.684    28.2949 0.0000e+00
      0.485      0.002     6.6603     80.852    116.859 124.551857     0.2380 4.8152e+02     0.1568      0.477      0.692    28.2921 0.0000e+00
      0.486     -0.009     6.4430     81.898    116.862 124.554424     0.2450 4.4216e+02     0.1691      0.479      0.694    28.2903 0.0000e+00
      0.480     -0.016     6.2996     83.238    116.881 124.568045     0.2280 4.2872e+02     0.1711      0.474      0.687    28.2881 0.0000e+00
      0.469     -0.021     6.2451     84.233    116.904 124.580124     0.2149 4.1204e+02     0.1821      0.460      0.668    28.2854 0.0000e+00
      0.458     -0.023     6.2727     84.443    116.904 124.564028     0.2244 3.8929e+02     0.1990      0.446      0.647    28.2845 0.0000e+00
      0.451     -0.021     6.3669     83.915    116.867 124.509824     0.2304 3.8338e+02     0.1690      0.440      0.638    28.2853 0.0000e+00
      0.450     -0.018     6.4912     83.000    116.838 124.470376     0.2276 3.8762e+02     0.1293      0.441      0.639    28.2831 0.0000e+00
      0.449     -0.013     6.5856     82.190    116.863 124.496286     0.2337 3.7675e+02     0.1645      0.441      0.640    28.2761 0.0000e+00
      0.447     -0.010     6.5968     81.825    116.911 124.550276     0.2442 3.6292e+02     0.1830      0.438      0.635    28.2689 0.0000e+00
      0.442     -0.008     6.5482     81.835    116.935 124.577523     0.2412 3.5624e+02     0.1472      0.433      0.629    28.2627 0.0000e+00
      0.438     -0.005     6.4615     81.892    116.915 124.552906     0.2313 3.4818e+02     0.1439      0.429      0.622    28.2582 0.0000e+00
      0.437      0.000     6.3865     81.700    116.898 124.525451     0.2292 3.4943e+02     0.1427      0.427      0.620    28.2581 0.0000e+00
      0.438      0.006     6.3619     81.135    116.905 124.518373     0.2332 3.5288e+02     0.1327      0.428      0.621    28.2600 0.0000e+00
      0.440      0.013     6.3730     80.224    116.870 124.467307     0.2360 3.4101e+02     0.1599      0.431      0.624    28.2622 0.0000e+00
      0.445      0.019     6.3874     79.138    116.808 124.385431     0.2375 3.2518e+02     0.1974      0.436      0.633    28.2609 0.0000e+00
      0.452      0.021     6.3742     78.106    116.788 124.346876     0.2340 3.2123e+02     0.1734      0.444      0.644    28.2561 0.0000e+00
      0.460      0.019     6.3321     77.381    116.798 124.342143     0.2285 3.2682e+02     0.1451      0.451      0.653    28.2495 0.0000e+00
      0.467      0.015     6.2552     77.145    116.794 124.328173     0.2311 3.2185e+02     0.1981      0.460      0.666    28.2433 0.0000e+00
      0.472      0.009     6.1656     77.347    116.787 124.314368     0.2310 3.1024e+02     0.2310      0.465      0.674    28.2380 0.0000e+00
      0.472      0.003     6.0788     77.756    116.789 124.311638     0.2270 3.0622e+02     0.1995      0.463      0.671    28.2290 0.0000e+00
      0.470     -0.002     6.0162     78.096    116.778 124.295158     0.2267 3.0722e+02     0.1945      0.461      0.669    28.2216 0.0000e+00
      0.467     -0.005     6.0004     78.147    116.742 124.251508     0.2272 3.0962e+02     0.2055      0.458      0.665    28.2180 0.0000e+00
      0.464     -0.005     6.0237     77.819    116.693 124.193091     0.2331 3.1073e+02     0.1953      0.455      0.661    28.2156 0.0000e+00
      0.462     -0.003     6.0637     77.135    116.648 124.134471     0.2375 3.1058e+02     0.1742      0.453      0.658    28.2140 0.0000e+00
      0.462     -0.001     6.0968     76.162    116.617 124.088375     0.2370 3.1052e+02     0.1558      0.452      0.655    28.2120 0.0000e+00
      0.463      0.001     6.1039     75.009    116.588 124.044950     0.2350 3.1002e+02     0.1439      0.453      0.658    28.2097 0.0000e+00
      0.465      0.002     6.0765     73.819    116.574 124.018639     0.2315 3.1097e+02     0.1336      0.456      0.662    28.2069 0.0000e+00
      0.467      0.002     6.0226     72.740    116.604 124.043050     0.2377 3.1514e+02     0.1351      0.458      0.664    28.2026 0.0000e+00
      0.467      0.002     5.9442     71.857    116.632 124.067266     0.2402 3.1398e+02     0.1613      0.459      0.666    28.1968 0.0000e+00
      0.466      0.001     5.8506     71.129    116.609 124.038610     0.2281 3.0602e+02     0.2110      0.458      0.665    28.1912 0.0000e+00
      0.465      0.000     5.7544     70.494    116.550 123.969388     0.2215 3.0586e+02     0.2213      0.456      0.662    28.1865 0.0000e+00
      0.465      0.000     5.6669     69.912    116.507 123.912348     0.2200 3.1367e+02     0.1825      0.456      0.661    28.1826 0.0000e+00
      0.465      0.001     5.6009     69.299    116.502 123.894560     0.2186 3.1513e+02     0.1536      0.456      0.662    28.1804 0.0000e+00
      0.466      0.002     5.5465     68.619    116.510 123.890706     0.2224 3.1958e+02     0.1461      0.457      0.663    28.1795 0.0000e+00
      0.468      0.003     5.4965     67.909    116.496 123.865729     0.2233 3.3377e+02     0.1598      0.459      0.666    28.1769 0.0000e+00
      0.469      0.003     5.4555     67.215    116.504 123.865374     0.2286 3.3655e+02     0.1826      0.460      0.667    28.1718 0.0000e+00
      0.469      0.003     5.4095     66.591    116.530 123.886398     0.2435 3.2496e+02     0.1811      0.460      0.667    28.1659 0.0000e+00
      0.469      0.003     5.3546     66.067    116.499 123.847101     0.2479 3.1805e+02     0.1761      0.460      0.668    28.1611 0.0000e+00
      0.469      0.004     5.2991     65.607    116.463 123.799456     0.2374 3.2070e+02     0.1909      0.460      0.667    28.1566 0.0000e+00
      0.470      0.005     5.2435     65.162    116.463 123.787732     0.2291 3.2886e+02     0.1890      0.461      0.668    28.1525 0.0000e+00
      0.473      0.005     5.1935     64.719    116.460 123.773538     0.2340 3.3573e+02     0.1880      0.463      0.671    28.1495 0.0000e+00
      0.476      0.004     5.1548     64.277    116.459 123.764228     0.2370 3.4207e+02     0.2126      0.467      0.677    28.1469 0.0000e+00
      0.478      0.003     5.1208     63.837    116.509 123.811559     0.2302 3.4894e+02     0.2111      0.469      0.680    28.1433 0.0000e+00
      0.478      0.001     5.0865     63.441    116.565 123.868364     0.2222 3.4979e+02     0.1704      0.468      0.679    28.1378 0.0000e+00
      0.477     -0.001     5.0522     63.116    116.538 123.837223     0.2097 3.7340e+02     0.1323      0.467      0.678    28.1326 0.0000e+00
      0.475     -0.003     5.0187     62.833    116.486 123.776056     0.2001 4.0750e+02     0.1283      0.465      0.674    28.1289 0.0000e+00
      0.474     -0.003     4.9830     62.565    116.466 123.742623     0.2092 3.9557e+02     0.1561      0.464      0.673    28.1262 0.0000e+00
      0.474     -0.002     4.9507     62.305    116.446 123.705784     0.2243 3.7242e+02     0.1595      0.464      0.674    28.1261 0.0000e+00
      0.473     -0.001     4.9270     62.005    116.427 123.671641     0.2263 3.7553e+02     0.1354      0.463      0.672    28.1260 0.0000e+00
      0.473      0.000     4.9059     61.638    116.437 123.670796     0.2255 3.7702e+02     0.1393      0.463      0.672    28.1229 0.0000e+00
      0.473      0.000     4.8850     61.254    116.471 123.695542     0.2238 3.7754e+02     0.1727      0.464      0.673    28.1171 0.0000e+00
      0.473     -0.001     4.8668     60.874    116.482 123.698015     0.2139 3.8499e+02     0.1950      0.465      0.674    28.1108 0.0000e+00
      0.473     -0.001     4.8462     60.513    116.492 123.700689     0.2105 3.8580e+02     0.2028      0.464      0.674    28.1047 0.0000e+00
      0.472     -0.000     4.8141     60.205    116.524 123.727850     0.2167 3.8608e+02     0.1987      0.463      0.672    28.0995 0.0000e+00
      0.472     -0.000     4.7853     59.942    116.556 123.753587     0.2197 4.0294e+02     0.1797      0.463      0.672    28.0947 0.0000e+00
      0.472     -0.001     4.7559     59.692    116.553 123.739046     0.2207 4.1227e+02     0.2473      0.462      0.671    28.0902 0.0000e+00
      0.473     -0.001     4.7258     59.445    116.516 123.688427     0.2200 3.9424e+02     0.3637      0.463      0.671    28.0872 0.0000e+00
      0.473     -0.001     4.7029     59.221    116.521 123.687177     0.2205 3.8165e+02     0.3858      0.464      0.673    28.0850 0.0000e+00
      0.472     -0.001     4.6833     59.032    116.557 123.723920     0.2260 3.9302e+02     0.3780      0.464      0.673    28.0814 0.0000e+00
      0.471     -0.000     4.6651     58.874    116.557 123.723462     0.2351 4.2138e+02     0.4058      0.462      0.670    28.0759 0.0000e+00
      0.470      0.001     4.6449     58.719    116.521 123.681636     0.2437 4.4504e+02     0.4477      0.460      0.667    28.0704 0.0000e+00
      0.470      0.002     4.6276     58.540    116.478 123.627430     0.2435 4.2880e+02     0.4727      0.461      0.668    28.0672 0.0000e+00
      0.471      0.004     4.6127     58.332    116.476 123.613670     0.2408 4.0086e+02     0.4672      0.462      0.670    28.0675 0.0000e+00
      0.474      0.006     4.6014     58.111    116.520 123.651655     0.2366 4.0670e+02     0.3812      0.465      0.674    28.0686 0.0000e+00
      0.476      0.008     4.5903     57.888    116.550 123.677458     0.2279 4.5566e+02     0.2237      0.467      0.678    28.0672 0.0000e+00
      0.478      0.008     4.5766     57.663    116.532 123.652838     0.2229 4.9153e+02     0.1767      0.468      0.679    28.0625 0.0000e+00
      0.480      0.007     4.5604     57.440    116.514 123.626787     0.2279 4.4930e+02     0.2243      0.470      0.681    28.0566 0.0000e+00
      0.481      0.006     4.5430     57.233    116.529 123.635275     0.2349 4.0514e+02     0.1814      0.472      0.684    28.0526 0.0000e+00
      0.484      0.006     4.5257     57.044    116.520 123.619045     0.2302 3.9662e+02     0.1036      0.475      0.689    28.0505 0.0000e+00
      0.485      0.006     4.5084     56.858    116.479 123.566944     0.2241 3.9459e+02     0.1074      0.476      0.691    28.0492 0.0000e+00
      0.486      0.007     4.4906     56.670    116.474 123.550945     0.2214 3.9322e+02     0.1245      0.475      0.690    28.0462 0.0000e+00
      0.487      0.007     4.4743     56.484    116.496 123.561995     0.2154 3.8196e+02     0.1732      0.478      0.693    28.0421 0.0000e+00
      0.489      0.007     4.4609     56.292    116.509 123.564122     0.2200 3.7327e+02     0.2837      0.480      0.696    28.0395 0.0000e+00
      0.492      0.007     4.4464     56.089    116.530 123.576646     0.2332 3.6145e+02     0.3626      0.481      0.699    28.0361 0.0000e+00
      0.495      0.006     4.4320     55.890    116.536 123.576991     0.2368 3.5213e+02     0.4066      0.485      0.704    28.0314 0.0000e+00
      0.496      0.004     4.4179     55.708    116.530 123.568291     0.2370 3.6107e+02     0.4371      0.487      0.707    28.0263 0.0000e+00
      0.496      0.002     4.4040     55.553    116.566 123.607859     0.2355 3.8931e+02     0.4225      0.487      0.707    28.0209 0.0000e+00
      0.495      0.002     4.3874     55.456    116.600 123.646189     0.2284 4.1618e+02     0.3679      0.486      0.705    28.0165 0.0000e+00
      0.495      0.003     4.3718     55.400    116.576 123.622506     0.2286 4.3340e+02     0.3611      0.485      0.704    28.0136 0.0000e+00
      0.495      0.006     4.3581     55.334    116.551 123.594330     0.2296 4.5204e+02     0.4091      0.485      0.703    28.0123 0.0000e+00
      0.495      0.009     4.3437     55.256    116.540 123.578331     0.2231 4.4029e+02     0.4321      0.485      0.703    28.0138 0.0000e+00
      0.498      0.012     4.3371     55.211    116.529 123.565458     0.2188 4.1943e+02     0.4341      0.488      0.707    28.0149 0.0000e+00
      0.505      0.015     4.3346     55.223    116.530 123.575079     0.2119 4.5592e+02     0.4324      0.495      0.718    28.0156 0.0000e+00
      0.510      0.020     4.3295     55.303    116.500 123.558269     0.2100 4.8571e+02     0.4114      0.501      0.729    28.0164 0.0000e+00
      0.512      0.024     4.3214     55.453    116.046 123.089421     0.2219 4.4733e+02     0.3872      0.502      0.728    28.0124 0.0000e+00
      0.515      0.027     4.3180     55.641    110.899 117.633494     0.2263 4.2593e+02     0.3796      0.504      0.730    28.0111 0.0000e+00
      0.524      0.031     4.3182     55.865     54.420  57.727550     0.2196 4.3748e+02     0.3884      0.513      0.744    28.0156 0.0000e+00
      0.537      0.036     4.3233     56.165   -566.762-601.091497     0.2179 4.2623e+02     0.3901      0.528      0.766    28.0226 0.0000e+00
      0.547      0.043     4.3366     56.555  -1136.202 -1.205e+03     0.2231 4.0051e+02     0.3656      0.538      0.782    28.0299 0.0000e+00
      0.553      0.047     4.3509     56.946   -566.760-601.211848     0.2312 3.9517e+02     0.3673      0.540      0.784    28.0302 0.0000e+00
      0.565      0.041     4.3671     57.286     54.523  57.711322     0.2381 4.2638e+02     0.4105      0.550      0.797    28.0279 0.0000e+00
      0.583      0.018     4.3905     57.936    111.135 117.674404     0.2368 4.4468e+02     0.4423      0.573      0.831    28.0198 0.0000e+00
      0.602     -0.024     4.4251     59.596    116.366 123.149838     0.2327 4.2885e+02     0.4420      0.594      0.861    28.0074 0.0000e+00
      0.610     -0.076     4.4622     62.861    116.856 123.641363     0.2321 4.2875e+02     0.4071      0.607      0.880    27.9915 0.0000e+00
      0.591     -0.130     4.4801     67.996    116.891 123.753763     0.2287 4.4198e+02     0.3985      0.596      0.864    27.9716 0.0000e+00
      0.533     -0.171     4.5081     74.442    116.848 123.895131     0.2182 4.2200e+02     0.4412      0.533      0.773    27.9412 0.0000e+00
      0.451     -0.186     4.6278     80.786    116.734 123.986859     0.2096 4.3439e+02     0.4419      0.439      0.637    27.9029 0.0000e+00
      0.374     -0.171     4.8731     85.852    116.578 123.976525     0.2109 5.4258e+02     0.4067      0.357      0.518    27.8807 0.0000e+00
      0.321     -0.128     5.2844     89.210    116.433 123.906838     0.2079 6.0017e+02     0.3933      0.305      0.442    27.9061 0.0000e+00
      0.297     -0.075     5.8314     90.748    116.338 123.826452     0.2083 5.5809e+02     0.3829      0.282      0.408    28.0060 0.0000e+00
      0.301     -0.038     6.3503     90.518    116.332 123.754870     0.2242 5.2226e+02     0.3837      0.286      0.414    28.1115 0.0000e+00
      0.326     -0.033     6.7440     89.107    116.448 123.723292     0.2356 4.9777e+02     0.4030      0.317      0.461    28.1769 0.0000e+00
      0.352     -0.058     7.0037     87.636    116.664 123.785414     0.2335 5.1804e+02     0.4105      0.356      0.516    28.2107 0.0000e+00
      0.348     -0.103     7.1249     86.973    116.860 123.891876     0.2165 6.5469e+02     0.4062      0.359      0.521    28.2235 0.0000e+00
      0.301     -0.149     7.0954     87.284    116.897 123.919095     0.1861 8.0285e+02     0.4198      0.306      0.444    28.2029 0.0000e+00
      0.225     -0.177     6.9571     88.275    116.810 123.909881     0.1610 8.6432e+02     0.4369      0.220      0.319    28.1177 0.0000e+00
      0.145     -0.176     6.8257     89.507    116.685 123.917022     0.1554 9.2560e+02     0.4069      0.137      0.198    28.0316 0.0000e+00
      0.082     -0.142     6.7784     90.696    116.532 123.869257     0.1695 1.0003e+03     0.3665      0.070      0.102    27.9903 0.0000e+00
      0.048     -0.083     6.8123     91.583    116.414 123.809969     0.1758 1.0303e+03     0.3606      0.034      0.049    27.9811 0.0000e+00
      0.047     -0.017     6.9003     91.587    116.387 123.814124     0.1618 1.0227e+03     0.3704      0.038      0.055    28.0204 0.0000e+00
      0.067      0.046     6.9947     90.381    116.424 123.851334     0.1570 1.0084e+03     0.3812      0.064      0.093    28.1009 0.0000e+00
      0.096      0.098     7.0810     88.420    116.500 123.918830     0.1611 9.6470e+02     0.3887      0.093      0.136    28.1502 0.0000e+00
      0.126      0.136     7.1700     86.271    116.527 123.948139     0.1589 8.6517e+02     0.4266      0.121      0.176    28.1720 0.0000e+00
      0.163      0.156     7.1841     84.125    116.445 123.864678     0.1566 7.7995e+02     0.4613      0.155      0.225    28.1932 0.0000e+00
      0.210      0.160     7.0689     82.005    116.401 123.796376     0.1602 7.4511e+02     0.4305      0.204      0.296    28.1841 0.0000e+00
      0.263      0.146     6.8988     79.972    116.483 123.804323     0.1766 7.0830e+02     0.3973      0.258      0.374    28.1735 0.0000e+00
      0.316      0.119     6.7295     78.261    116.609 123.824228     0.2064 6.3587e+02     0.4028      0.315      0.457    28.1773 0.0000e+00
      0.354      0.084     6.5612     77.297    116.697 123.832246     0.2255 5.3440e+02     0.4288      0.359      0.521    28.1811 0.0000e+00
      0.364      0.046     6.3951     77.297    116.729 123.832926     0.2263 4.8815e+02     0.4383      0.366      0.531    28.1815 0.0000e+00
      0.354      0.010     6.2358     77.922    116.736 123.832399     0.2248 5.2449e+02     0.4138      0.347      0.504    28.1440 0.0000e+00
      0.339     -0.022     6.0940     78.628    116.738 123.825865     0.2243 5.6686e+02     0.4069      0.330      0.478    28.0796 0.0000e+00
      0.331     -0.042     6.0125     79.106    116.751 123.822126     0.2293 6.0615e+02     0.4242      0.324      0.469    28.0412 0.0000e+00
      0.325     -0.048     6.0270     79.246    116.803 123.855371     0.2321 6.3562e+02     0.4504      0.322      0.467    28.0333 0.0000e+00
      0.312     -0.041     6.0945     79.009    116.842 123.886770     0.2240 6.0270e+02     0.4501      0.311      0.450    28.0330 0.0000e+00
      0.291     -0.025     6.1568     78.404    116.811 123.860723     0.2179 5.1773e+02     0.4201      0.285      0.412    28.0309 0.0000e+00
      0.273     -0.003     6.1964     77.428    116.754 123.813270     0.2194 4.7911e+02     0.3970      0.261      0.380    28.0231 0.0000e+00
      0.270      0.025     6.2111     76.154    116.724 123.790466     0.2246 5.2662e+02     0.3769      0.258      0.375    28.0096 0.0000e+00
      0.285      0.056     6.1914     74.823    116.714 123.789620     0.2459 5.7193e+02     0.3825      0.274      0.398    28.0045 0.0000e+00
      0.313      0.087     6.1442     73.649    116.719 123.803060     0.2775 5.5353e+02     0.3623      0.305      0.442    28.0104 0.0000e+00
      0.347      0.113     6.0672     72.646    116.732 123.816562     0.2870 5.1414e+02     0.3380      0.341      0.494    28.0176 0.0000e+00
      0.380      0.132     5.9579     71.692    116.737 123.816460     0.2821 4.5621e+02     0.3979      0.374      0.542    28.0197 0.0000e+00
      0.413      0.144     5.8466     70.700    116.727 123.801815     0.2792 4.0711e+02     0.4345      0.403      0.584    28.0247 0.0000e+00
      0.449      0.153     5.7543     69.667    116.705 123.775884     0.2603 3.9271e+02     0.4025      0.438      0.635    28.0297 0.0000e+00
      0.490      0.162     5.6811     68.613    116.700 123.775748     0.2270 3.7430e+02     0.3886      0.481      0.696    28.0277 0.0000e+00
      0.535      0.170     5.6093     67.584    116.713 123.800170     0.2055 3.7359e+02     0.4040      0.525      0.761    28.0258 0.0000e+00
      0.580      0.174     5.5308     66.641    116.702 123.798369     0.2095 4.1689e+02     0.3825      0.567      0.822    28.0238 0.0000e+00
      0.627      0.172     5.4505     65.866    116.657 123.753980     0.2400 4.5764e+02     0.3346      0.612      0.887    28.0217 0.0000e+00
      0.677      0.165     5.3657     65.325    116.650 123.740898     0.2712 4.8658e+02     0.3396      0.666      0.965    28.0240 0.0000e+00
      0.723      0.155     5.2839     65.010    116.694 123.776583     0.2745 5.2773e+02     0.3744      0.713      1.034    28.0295 0.0000e+00
      0.758      0.140     5.2070     64.878    116.705 123.776209     0.2715 5.5257e+02     0.3784      0.745      1.083    28.0350 0.0000e+00
      0.788      0.122     5.1434     64.829    116.679 123.736353     0.2784 5.7694e+02     0.3187      0.772      1.121    28.0369 0.0000e+00
      0.818      0.101     5.1032     64.774    116.658 123.703884     0.2789 5.9799e+02     0.2363      0.803      1.165    28.0331 0.0000e+00
      0.844      0.080     5.0785     64.676    116.681 123.724634     0.2775 5.7251e+02     0.2066      0.830      1.205    28.0280 0.0000e+00
      0.864      0.062     5.0729     64.600    116.733 123.782623     0.2787 5.4648e+02     0.1997      0.849      1.232    28.0230 0.0000e+00
      0.875      0.047     5.0719     64.706    116.738 123.791188     0.2757 5.2630e+02     0.1868      0.861      1.248    28.0174 0.0000e+00
      0.880      0.037     5.0688     65.051    116.707 123.760005     0.2772 4.6275e+02     0.1885      0.863      1.252    28.0123 0.0000e+00
      0.882      0.034     5.0612     65.527    116.694 123.746615     0.2877 4.2332e+02     0.1853      0.865      1.255    28.0107 0.0000e+00
      0.886      0.039     5.0476     65.975    116.713 123.765690     0.2984 4.1746e+02     0.1823      0.868      1.258    28.0128 0.0000e+00
      0.894      0.048     5.0541     66.265    116.734 123.786026     0.3025 4.0291e+02     0.1878      0.874      1.267    28.0146 0.0000e+00
      0.909      0.058     5.0853     66.325    116.735 123.787881     0.3027 3.9406e+02     0.1820      0.889      1.290    28.0154 0.0000e+00
      0.930      0.065     5.1271     66.147    116.734 123.788114     0.2930 4.2109e+02     0.1807      0.910      1.320    28.0155 0.0000e+00
      0.954      0.068     5.1659     65.794    116.739 123.788847     0.2716 4.4822e+02     0.1726      0.937      1.358    28.0150 0.0000e+00
      0.975      0.068     5.1905     65.372    116.752 123.796732     0.2601 4.1597e+02     0.1525      0.960      1.392    28.0136 0.0000e+00
      0.990      0.067     5.1960     65.030    116.774 123.815237     0.2666 3.8390e+02     0.1443      0.972      1.409    28.0141 0.0000e+00
      1.000      0.064     5.1791     64.843    116.770 123.807966     0.2722 3.6995e+02     0.1419      0.979      1.420    28.0160 0.0000e+00
      1.013      0.061     5.1499     64.719    116.744 123.777016     0.2759 3.5315e+02     0.1583      0.991      1.438    28.0134 0.0000e+00
      1.031      0.059     5.1122     64.573    116.747 123.782038     0.2855 3.4063e+02     0.1701      1.011      1.466    28.0092 0.0000e+00
      1.051      0.059     5.0815     64.378    116.762 123.800480     0.2934 3.2968e+02     0.1480      1.032      1.497    28.0082 0.0000e+00
      1.068      0.058     5.0727     64.145    116.761 123.795394     0.3017 3.2119e+02     0.1314      1.050      1.522    28.0067 0.0000e+00
      1.080      0.055     5.0647     63.926    116.760 123.788737     0.3085 3.1481e+02     0.1400      1.059      1.536    28.0044 0.0000e+00
      1.091      0.054     5.0536     63.703    116.765 123.788189     0.2977 3.1158e+02     0.1500      1.070      1.552    28.0061 0.0000e+00
      1.103      0.055     5.0389     63.428    116.772 123.788755     0.2831 3.0855e+02     0.1486      1.083      1.569    28.0086 0.0000e+00
      1.115      0.059     5.0173     63.099    116.786 123.795568     0.2879 3.0371e+02     0.1586      1.092      1.584    28.0061 0.0000e+00
      1.130      0.065     5.0018     62.717    116.799 123.802333     0.2854 2.9841e+02     0.1674      1.107      1.606    28.0029 0.0000e+00
      1.149      0.071     4.9870     62.283    116.803 123.802338     0.2713 2.9315e+02     0.1514      1.126      1.633    28.0011 0.0000e+00
      1.170      0.076     4.9645     61.848    116.797 123.795615     0.2735 2.8766e+02     0.1373      1.148      1.664    27.9980 0.0000e+00
      1.191      0.081     4.9396     61.474    116.788 123.789251     0.2778 2.8194e+02     0.1334      1.168      1.694    27.9943 0.0000e+00
      1.211      0.082     4.9102     61.153    116.789 123.793602     0.2792 2.7592e+02     0.1387      1.188      1.723    27.9907 0.0000e+00
      1.233      0.080     4.8751     60.832    116.773 123.780027     0.2907 2.6981e+02     0.1680      1.208      1.754    27.9886 0.0000e+00
      1.258      0.075     4.8382     60.494    116.751 123.761521     0.3034 2.6333e+02     0.2123      1.234      1.790    27.9891 0.0000e+00
      1.279      0.067     4.8094     60.145    116.756 123.774469     0.3026 2.5698e+02     0.2280      1.257      1.823    27.9911 0.0000e+00
      1.294      0.057     4.7866     59.780    116.774 123.800188     0.2905 2.5167e+02     0.1855      1.270      1.842    27.9920 0.0000e+00
      1.308      0.047     4.7613     59.410    116.766 123.799668     0.2869 2.4755e+02     0.0760      1.284      1.861    27.9929 0.0000e+00
      1.318      0.037     4.7341     59.084    116.729 123.768202     0.2937 2.4388e+02    -0.0655      1.293      1.876    27.9961 0.0000e+00
      1.323      0.031     4.7072     58.858    116.718 123.760765     0.3037 2.4054e+02    -0.1161      1.298      1.883    27.9989 0.0000e+00
      1.327      0.027     4.6781     58.696    116.733 123.777969     0.3039 2.3729e+02    -0.0896      1.300      1.886    28.0016 0.0000e+00
      1.332      0.026     4.6476     58.494    116.728 123.771591     0.2867 2.3405e+02    -0.0891      1.305      1.893    28.0051 0.0000e+00
      1.340      0.026     4.6190     58.223    116.711 123.751848     0.2787 2.3144e+02    -0.1108      1.315      1.907    28.0091 0.0000e+00
      1.348      0.027     4.6022     57.929    116.701 123.743866     0.2850 2.2919e+02    -0.1113      1.321      1.918    28.0114 0.0000e+00
      1.354      0.030     4.5943     57.681    116.696 123.743296     0.2841 2.2747e+02    -0.0948      1.327      1.925    28.0109 0.0000e+00
      1.360      0.035     4.5789     57.533    116.691 123.744962     0.2767 2.2583e+02    -0.0834      1.334      1.935    28.0100 0.0000e+00
      1.368      0.041     4.5560     57.483    116.705 123.764018     0.2742 2.2393e+02    -0.0756      1.341      1.945    28.0096 0.0000e+00
      1.377      0.047     4.5307     57.455    116.710 123.769097     0.2790 2.2277e+02    -0.1039      1.349      1.957    28.0101 0.0000e+00
      1.391      0.052     4.5099     57.393    116.683 123.738161     0.2835 2.2195e+02    -0.1161      1.362      1.976    28.0127 0.0000e+00
      1.410      0.054     4.4971     57.290    116.681 123.730987     0.2860 2.2126e+02    -0.0174      1.383      2.006    28.0163 0.0000e+00
      1.427      0.053     4.4965     57.132    116.705 123.750552     0.2909 2.2125e+02     0.0933      1.402      2.033    28.0179 0.0000e+00
      1.442      0.050     4.4960     56.955    116.726 123.770104     0.2907 2.2143e+02     0.0902      1.415      2.052    28.0176 0.0000e+00
      1.454      0.045     4.4902     56.843    116.723 123.762772     0.2913 2.2135e+02     0.0821      1.427      2.069    28.0171 0.0000e+00
      1.462      0.040     4.4837     56.774    116.701 123.730089     0.2989 2.2137e+02     0.1328      1.434      2.080    28.0147 0.0000e+00
      1.469      0.035     4.4713     56.668    116.698 123.715939     0.2954 2.2182e+02     0.1538      1.439      2.087    28.0114 0.0000e+00
      1.478      0.032     4.4528     56.517    116.715 123.728080     0.2934 2.2289e+02     0.1290      1.449      2.102    28.0113 0.0000e+00
      1.487      0.031     4.4452     56.365    116.727 123.740465     0.3006 2.2406e+02     0.1075      1.459      2.117    28.0102 0.0000e+00
      1.495      0.031     4.4446     56.260    116.713 123.729282     0.2956 2.2506e+02     0.0667      1.467      2.127    28.0047 0.0000e+00
      1.501      0.030     4.4354     56.170    116.713 123.729272     0.2843 2.2631e+02    -0.0218      1.473      2.136    27.9994 0.0000e+00
      1.508      0.027     4.4233     56.002    116.725 123.740348     0.2859 2.2804e+02    -0.0700      1.478      2.143    27.9966 0.0000e+00
      1.516      0.024     4.4088     55.751    116.715 123.726789     0.2884 2.3054e+02    -0.0694      1.486      2.157    27.9973 0.0000e+00
      1.524      0.020     4.4012     55.501    116.693 123.701737     0.2803 2.3364e+02    -0.0145      1.495      2.169    27.9992 0.0000e+00
      1.529      0.017     4.3984     55.256    116.703 123.710259     0.2839 2.3735e+02     0.1475      1.499      2.175    27.9996 0.0000e+00
      1.531      0.014     4.3860     54.993    116.754 123.761611     0.2882 2.4170e+02     0.2759      1.501      2.177    27.9985 0.0000e+00
      1.533      0.010     4.3612     54.723    116.770 123.777000     0.2800 2.4678e+02     0.2332      1.503      2.180    27.9971 0.0000e+00
      1.535      0.008     4.3432     54.445    116.755 123.759919     0.2804 2.5338e+02     0.1458      1.505      2.183    27.9960 0.0000e+00
      1.537      0.007     4.3255     54.202    116.755 123.759698     0.2934 2.6130e+02     0.1464      1.508      2.187    27.9954 0.0000e+00
      1.538      0.007     4.3029     54.017    116.770 123.774324     0.3065 2.7024e+02     0.1715      1.509      2.188    27.9946 0.0000e+00
      1.539      0.009     4.2839     53.850    116.796 123.800353     0.3007 2.8102e+02     0.1747      1.508      2.188    27.9933 0.0000e+00
      1.541      0.012     4.2596     53.694    116.797 123.801592     0.2839 2.9565e+02     0.1849      1.511      2.192    27.9927 0.0000e+00
      1.543      0.017     4.2395     53.574    116.785 123.789305     0.2763 3.1468e+02     0.1923      1.513      2.195    27.9930 0.0000e+00
      1.547      0.023     4.2276     53.462    116.783 123.788193     0.2782 3.4526e+02     0.1948      1.515      2.199    27.9925 0.0000e+00
      1.554      0.030     4.2147     53.356    116.782 123.788146     0.2888 3.8789e+02     0.1813      1.523      2.210    27.9918 0.0000e+00
      1.564      0.037     4.2003     53.294    116.782 123.788741     0.3006 4.2788e+02     0.1663      1.533      2.223    27.9920 0.0000e+00
      1.574      0.042     4.1931     53.270    116.787 123.795393     0.3001 4.3999e+02     0.1851      1.541      2.235    27.9921 0.0000e+00
      1.587      0.046     4.1845     53.250    116.789 123.800370     0.2919 4.1821e+02     0.1689      1.557      2.258    27.9922 0.0000e+00
      1.601      0.049     4.1739     53.211    116.768 123.780707     0.2787 4.0632e+02     0.1078      1.572      2.279    27.9929 0.0000e+00
      1.614      0.050     4.1696     53.162    116.748 123.762270     0.2616 4.1437e+02     0.0981      1.582      2.294    27.9931 0.0000e+00
      1.626      0.051     4.1686     53.114    116.763 123.782060     0.2673 4.1507e+02     0.1547      1.595      2.313    27.9937 0.0000e+00
      1.638      0.051     4.1682     53.055    116.794 123.815371     0.2879 4.1248e+02     0.1747      1.607      2.331    27.9950 0.0000e+00
      1.651      0.052     4.1644     52.980    116.802 123.824021     0.2939 4.1597e+02     0.1332      1.618      2.346    27.9958 0.0000e+00
      1.665      0.053     4.1599     52.915    116.796 123.818439     0.2869 4.2489e+02     0.1339      1.633      2.368    27.9973 0.0000e+00
      1.679      0.055     4.1565     52.862    116.793 123.816088     0.2818 4.3474e+02     0.1835      1.648      2.391    27.9995 0.0000e+00
      1.692      0.058     4.1527     52.824    116.773 123.795588     0.2843 4.4621e+02     0.2172      1.658      2.405    27.9996 0.0000e+00
      1.705      0.060     4.1448     52.794    116.755 123.775184     0.2827 4.6395e+02     0.2331      1.672      2.424    27.9984 0.0000e+00
      1.722      0.062     4.1404     52.725    116.757 123.773994     0.2965 4.7706e+02     0.2721      1.689      2.450    27.9992 0.0000e+00
      1.741      0.062     4.1366     52.665    116.767 123.781205     0.3296 4.7871e+02     0.3459      1.707      2.476    28.0004 0.0000e+00
      1.758      0.062     4.1318     52.682    116.785 123.794155     0.3446 4.7791e+02     0.4041      1.724      2.500    28.0006 0.0000e+00
      1.774      0.060     4.1338     52.722    116.791 123.794156     0.3484 4.7311e+02     0.4266      1.742      2.526    27.9999 0.0000e+00
      1.789      0.058     4.1259     52.718    116.784 123.781198     0.3666 4.6110e+02     0.4121      1.755      2.546    27.9988 0.0000e+00
      1.803      0.058     4.1175     52.670    116.779 123.773881     0.3921 4.5071e+02     0.3654      1.768      2.564    27.9971 0.0000e+00
      1.815      0.062     4.1226     52.593    116.779 123.773886     0.4127 4.4011e+02     0.3433      1.780      2.581    27.9947 0.0000e+00
      1.828      0.069     4.1282     52.523    116.784 123.781260     0.4259 4.2967e+02     0.3844      1.792      2.598    27.9915 0.0000e+00
      1.844      0.077     4.1269     52.523    116.792 123.794834     0.4210 4.2514e+02     0.5884      1.808      2.621    27.9889 0.0000e+00
      1.866      0.086     4.1233     52.587    116.789 123.801601     0.4143 4.2435e+02     0.9214      1.826      2.649    27.9878 0.0000e+00
      1.893      0.092     4.1166     52.668    116.774 123.794892     0.4148 4.2923e+02     1.1141      1.856      2.692    27.9875 0.0000e+00
      1.921      0.094     4.1082     52.807    116.761 123.781933     0.4009 4.4068e+02     1.1340      1.886      2.736    27.9892 0.0000e+00
      1.947      0.090     4.1083     53.114    116.769 123.781324     0.3934 4.5159e+02     1.0589      1.908      2.767    27.9907 0.0000e+00
      1.972      0.082     4.1159     53.612    116.789 123.787524     0.4022 4.5740e+02     0.9615      1.935      2.807    27.9948 0.0000e+00
      1.994      0.070     4.1206     54.199    116.808 123.788660     0.4032 4.6858e+02     0.9520      1.960      2.842    28.0017 0.0000e+00
      2.009      0.059     4.1264     54.726    116.829 123.795026     0.4053 4.8577e+02     0.9439      1.971      2.858    28.0020 0.0000e+00
      2.019      0.049     4.1504     55.115    116.840 123.796257     0.4100 4.9188e+02     0.8980      1.979      2.871    27.9973 0.0000e+00
      2.028      0.042     4.1929     55.371    116.853 123.803531     0.4083 4.8520e+02     0.8774      1.989      2.885    27.9899 0.0000e+00
      2.037      0.038     4.2449     55.530    116.868 123.814764     0.4108 4.8852e+02     0.8664      1.997      2.897    27.9808 0.0000e+00
      2.045      0.037     4.2889     55.591    116.854 123.795649     0.4145 4.9110e+02     0.8683      2.004      2.907    27.9737 0.0000e+00
      2.054      0.037     4.3185     55.536    116.841 123.777020     0.4180 4.6992e+02     0.8318      2.014      2.921    27.9693 0.0000e+00
      2.064      0.038     4.3383     55.446    116.862 123.794126     0.4185 4.5048e+02     0.7339      2.024      2.936    27.9667 0.0000e+00
      2.074      0.040     4.3494     55.396    116.870 123.797863     0.4120 4.4488e+02     0.6802      2.035      2.952    27.9649 0.0000e+00
      2.084      0.042     4.3579     55.375    116.832 123.753991     0.4081 4.5381e+02     0.6635      2.046      2.967    27.9638 0.0000e+00
      2.093      0.044     4.3494     55.362    116.823 123.741093     0.4064 4.6209e+02     0.6687      2.051      2.975    27.9617 0.0000e+00
      2.105      0.044     4.3396     55.349    116.862 123.778317     0.4094 4.5368e+02     0.6741      2.063      2.992    27.9588 0.0000e+00
      2.120      0.044     4.3380     55.338    116.881 123.794823     0.4184 4.4936e+02     0.6603      2.081      3.018    27.9573 0.0000e+00
      2.132      0.044     4.3358     55.308    116.891 123.804261     0.4283 4.5104e+02     0.6746      2.092      3.035    27.9561 0.0000e+00
      2.142      0.043     4.3360     55.202    116.910 123.824218     0.4424 4.7089e+02     0.6061      2.101      3.047    27.9540 0.0000e+00
      2.152      0.041     4.3344     54.999    116.918 123.831512     0.4587 5.0988e+02     0.4494      2.109      3.059    27.9519 0.0000e+00
      2.162      0.039     4.3342     54.776    116.913 123.824237     0.4695 5.1188e+02     0.3595      2.120      3.075    27.9509 0.0000e+00
      2.172      0.037     4.3335     54.568    116.896 123.804462     0.4695 4.7949e+02     0.3431      2.131      3.090    27.9504 0.0000e+00
      2.181      0.035     4.3279     54.371    116.891 123.797021     0.4674 4.6834e+02     0.3543      2.139      3.103    27.9502 0.0000e+00
      2.190      0.035     4.3069     54.219    116.896 123.802476     0.4780 4.7409e+02     0.3921      2.148      3.115    27.9498 0.0000e+00
      2.199      0.038     4.2891     54.126    116.895 123.802196     0.4851 4.7359e+02     0.4222      2.156      3.126    27.9492 0.0000e+00
      2.206      0.043     4.2750     54.128    116.885 123.793642     0.4753 4.8262e+02     0.4087      2.165      3.139    27.9485 0.0000e+00
      2.214      0.051     4.2561     54.234    116.857 123.767261     0.4638 4.9599e+02     0.4007      2.169      3.146    27.9476 0.0000e+00
      2.226      0.061     4.2460     54.383    116.841 123.756044     0.4585 4.8079e+02     0.3951      2.179      3.160    27.9468 0.0000e+00
      2.245      0.069     4.2366     54.523    116.871 123.794429     0.4551 4.5969e+02     0.3749      2.201      3.193    27.9471 0.0000e+00
      2.268      0.074     4.2354     54.600    116.891 123.822156     0.4570 4.5610e+02     0.3966      2.223      3.225    27.9490 0.0000e+00
      2.291      0.074     4.2475     54.582    116.881 123.818479     0.4644 4.5535e+02     0.4167      2.246      3.257    27.9499 0.0000e+00
      2.313      0.070     4.2590     54.522    116.874 123.818184     0.4659 4.5593e+02     0.4463      2.270      3.293    27.9519 0.0000e+00
      2.331      0.066     4.2715     54.465    116.867 123.818604     0.4662 4.5843e+02     0.5488      2.289      3.319    27.9557 0.0000e+00
      2.344      0.064     4.2795     54.405    116.866 123.823561     0.4682 4.5394e+02     0.6253      2.300      3.337    27.9584 0.0000e+00
      2.353      0.063     4.2748     54.362    116.848 123.809919     0.4646 4.4146e+02     0.6169      2.305      3.345    27.9612 0.0000e+00
      2.366      0.063     4.2682     54.310    116.823 123.790076     0.4656 4.3352e+02     0.6185      2.315      3.358    27.9641 0.0000e+00
      2.387      0.064     4.2653     54.171    116.816 123.788267     0.4713 4.2970e+02     0.6451      2.341      3.396    27.9674 0.0000e+00
      2.408      0.064     4.2584     53.932    116.811 123.788053     0.4649 4.2125e+02     0.6299      2.364      3.428    27.9700 0.0000e+00
      2.426      0.064     4.2555     53.630    116.806 123.787488     0.4579 4.0995e+02     0.6064      2.378      3.449    27.9717 0.0000e+00
      2.441      0.060     4.2550     53.286    116.796 123.781448     0.4639 3.9936e+02     0.6016      2.395      3.474    27.9750 0.0000e+00
      2.455      0.056     4.2437     52.938    116.796 123.783236     0.4675 3.9487e+02     0.6056      2.408      3.493    27.9779 0.0000e+00
      2.466      0.053     4.2228     52.608    116.818 123.809108     0.4671 3.9666e+02     0.6200      2.417      3.507    27.9799 0.0000e+00
      2.479      0.053     4.1995     52.295    116.829 123.821453     0.4685 3.9936e+02     0.6383      2.431      3.527    27.9822 0.0000e+00
      2.491      0.055     4.1710     52.068    116.805 123.796083     0.4667 4.0499e+02     0.6551      2.443      3.544    27.9838 0.0000e+00
      2.505      0.057     4.1421     51.975    116.785 123.775180     0.4623 4.0895e+02     0.6521      2.455      3.561    27.9847 0.0000e+00
      2.520      0.058     4.1187     51.983    116.785 123.773324     0.4591 4.0675e+02     0.6358      2.470      3.583    27.9857 0.0000e+00
      2.538      0.056     4.0901     52.028    116.787 123.773637     0.4630 4.0743e+02     0.6302      2.488      3.610    27.9861 0.0000e+00
      2.556      0.052     4.0710     52.058    116.794 123.778968     0.4665 4.1042e+02     0.6192      2.508      3.638    27.9859 0.0000e+00
      2.569      0.047     4.0653     52.087    116.789 123.769578     0.4657 4.0821e+02     0.6051      2.522      3.657    27.9862 0.0000e+00
      2.579      0.043     4.0677     52.170    116.635 123.591888     0.4704 4.0441e+02     0.6313      2.530      3.668    27.9848 0.0000e+00
      2.586      0.044     4.0733     52.646    116.205 123.062782     0.4803 4.0214e+02     0.6608      2.536      3.678    27.9845 0.0000e+00
      2.591      0.050     4.0749     55.246    115.915 122.487257     0.4908 4.0308e+02     0.6528      2.542      3.687    27.9837 0.0000e+00
      2.599      0.060     4.0759     63.060    116.103 122.225334     0.4933 4.0476e+02     0.6385      2.546      3.693    27.9838 0.0000e+00
      2.616      0.067     4.0802     76.756    116.430 122.145754     0.4835 4.0163e+02     0.6253      2.560      3.713    27.9770 0.0000e+00
      2.642      0.070     4.0858     92.923    116.664 122.138171     0.4761 3.9627e+02     0.6298      2.591      3.757    27.9774 0.0000e+00
      2.671      0.068     4.1718    107.766    116.710 122.065068     0.4744 3.8905e+02     0.6598      2.623      3.803    27.8744 0.0000e+00
      2.693      0.060     4.7642    119.381    116.643 121.943677     0.4709 3.8211e+02     0.6786      2.645      3.836    27.6151 0.0000e+00
      2.705      0.047     6.0090    127.156    116.685 121.966138     0.4690 3.7930e+02     0.6851      2.656      3.853    27.4150 0.0000e+00
      2.710      0.034     7.4125    130.970    116.786 122.063826     0.4680 3.8020e+02     0.7041      2.659      3.856    27.3222 0.0000e+00
      2.711      0.024     8.6368    130.785    116.760 122.033627     0.4853 3.8186e+02     0.7708      2.658      3.855    27.2769 0.0000e+00
      2.713      0.020     9.5739    127.128    116.610 121.873784     0.5228 3.8241e+02     0.8737      2.661      3.859    27.2634 0.0000e+00
      2.718      0.020    10.1894    121.685    116.576 121.836126     0.5397 3.8398e+02     0.9187      2.666      3.866    27.2544 0.0000e+00
      2.724      0.023    10.4980    116.455    116.656 121.919301     0.5336 3.8653e+02     0.9030      2.669      3.872    27.2530 0.0000e+00
      2.732      0.025    10.4773    112.394    116.729 121.992873     0.5352 3.8712e+02     0.8891      2.679      3.885    27.2513 0.0000e+00
      2.741      0.025    10.1346    109.504    116.782 122.043700     0.5509 3.8458e+02     0.8882      2.690      3.900    27.2505 0.0000e+00
      2.748      0.024     9.6320    107.466    116.798 122.056440     0.5585 3.8369e+02     0.8925      2.695      3.909    27.2498 0.0000e+00
      2.753      0.021     9.1974    106.004    116.821 122.078711     0.5481 3.8381e+02     0.9063      2.700      3.916    27.2492 0.0000e+00
      2.757      0.019     8.8798    105.023    116.852 122.108378     0.5299 3.8271e+02     0.9183      2.704      3.922    27.2487 0.0000e+00
      2.761      0.019     8.6611    104.413    116.824 122.074139     0.5026 3.8113e+02     0.8994      2.708      3.927    27.2460 0.0000e+00
      2.763      0.022     8.5100    104.003    116.831 122.073917     0.4791 3.7761e+02     0.8847      2.710      3.931    27.2440 0.0000e+00
      2.767      0.025     8.3930    103.677    116.937 122.173875     0.4706 3.7513e+02     0.9117      2.712      3.933    27.2440 0.0000e+00
      2.774      0.026     8.3185    103.357    117.030 122.259725     0.4870 3.7510e+02     0.8829      2.718      3.941    27.2430 0.0000e+00
      2.785      0.025     8.2771    103.043    117.003 122.225311     0.5128 3.7249e+02     0.7428      2.731      3.962    27.2409 0.0000e+00
      2.796      0.021     8.2469    102.861    116.884 122.098763     0.5221 3.6517e+02     0.6583      2.744      3.980    27.2383 0.0000e+00
      2.802      0.015     8.2244    102.863    116.881 122.093628     0.5298 3.6135e+02     0.6857      2.749      3.987    27.2328 0.0000e+00
      2.804      0.008     8.2013    102.920    116.951 122.163213     0.5365 3.6340e+02     0.6963      2.751      3.990    27.2272 0.0000e+00
      2.802 7.3073e-07     8.1707    102.936    116.916 122.121717     0.5338 3.6649e+02     0.6840      2.749      3.987    27.2248 0.0000e+00
      2.799     -0.005     8.1538    102.990    116.871 122.069296     0.5325 3.6775e+02     0.7086      2.745      3.981    27.2240 0.0000e+00
      2.796     -0.005     8.1600    103.185    116.883 122.074976     0.5377 3.6507e+02     0.7188      2.742      3.977    27.2241 0.0000e+00
      2.793      0.001     8.1686    103.510    116.871 122.053977     0.5352 3.6407e+02     0.6703      2.739      3.973    27.2218 0.0000e+00
      2.791      0.011     8.1666    103.802    116.846 122.019978     0.5288 3.6636e+02     0.6364      2.736      3.969    27.2194 0.0000e+00
      2.792      0.023     8.1668    103.814    116.841 122.004880     0.5296 3.6889e+02     0.6521      2.736      3.968    27.2176 0.0000e+00
      2.799      0.035     8.1837    103.528    116.852 122.007814     0.5276 3.6921e+02     0.6547      2.743      3.978    27.2144 0.0000e+00
      2.813      0.045     8.2135    103.210    116.902 122.055429     0.5302 3.6377e+02     0.6342      2.757      3.999    27.2112 0.0000e+00
      2.831      0.052     8.2476    103.040    116.883 122.035001     0.5353 3.5778e+02     0.6446      2.777      4.027    27.2078 0.0000e+00
      2.848      0.057     8.2508    102.918    116.818 121.965415     0.5285 3.5497e+02     0.6773      2.795      4.054    27.2036 0.0000e+00
      2.862      0.058     8.2169    102.730    116.821 121.964248     0.5262 3.5293e+02     0.6858      2.806      4.070    27.1988 0.0000e+00
      2.875      0.057     8.1859    102.592    116.880 122.020882     0.5332 3.4988e+02     0.6789      2.819      4.089    27.1968 0.0000e+00
      2.889      0.057     8.1770    102.602    116.899 122.036381     0.5362 3.4497e+02     0.6633      2.834      4.111    27.1975 0.0000e+00
      2.903      0.058     8.1744    102.677    116.819 121.947045     0.5359 3.4102e+02     0.6333      2.847      4.128    27.1971 0.0000e+00
      2.918      0.059     8.1526    102.757    116.709 121.827285     0.5383 3.3965e+02     0.6254      2.861      4.150    27.1950 0.0000e+00
      2.934      0.058     8.1378    102.882    116.637 121.747731     0.5475 3.3969e+02     0.6366      2.877      4.173    27.1929 0.0000e+00
      2.951      0.055     8.1439    103.084    116.693 121.803526     0.5603 3.3918e+02     0.6316      2.893      4.196    27.1912 0.0000e+00
      2.967      0.049     8.1522    103.279    116.776 121.888119     0.5716 3.3725e+02     0.6329      2.911      4.223    27.1886 0.0000e+00
      2.980      0.044     8.1569    103.325    116.773 121.883964     0.5809 3.3512e+02     0.6525      2.925      4.242    27.1859 0.0000e+00
      2.989      0.039     8.1653    103.268    116.846 121.957878     0.5773 3.3428e+02     0.6626      2.932      4.252    27.1840 0.0000e+00
      2.995      0.039     8.1837    103.293    116.986 122.099808     0.5712 3.3572e+02     0.6522      2.939      4.262    27.1829 0.0000e+00
      3.000      0.042     8.2056    103.353    116.991 122.099659     0.5764 3.3580e+02     0.6297      2.941      4.266    27.1824 0.0000e+00
      3.008      0.048     8.2093    103.287    116.859 121.956069     0.5789 3.3186e+02     0.6316      2.946      4.272    27.1817 0.0000e+00
      3.023      0.055     8.1938    103.156    116.775 121.864024     0.5754 3.2677e+02     0.6747      2.962      4.296    27.1810 0.0000e+00
      3.043      0.060     8.1992    103.043    116.786 121.873332     0.5779 3.2344e+02     0.7044      2.984      4.328    27.1796 0.0000e+00
      3.063      0.062     8.2139    102.951    116.844 121.932211     0.5834 3.2328e+02     0.6822      3.004      4.357    27.1770 0.0000e+00
      3.081      0.061     8.2029    102.942    116.871 121.962135     0.5813 3.2433e+02     0.6453      3.023      4.384    27.1742 0.0000e+00
      3.095      0.058     8.1898    103.037    116.805 121.894147     0.5792 3.2398e+02     0.6359      3.037      4.405    27.1724 0.0000e+00
      3.106      0.057     8.1842    103.132    116.774 121.860359     0.5746 3.2251e+02     0.6381      3.045      4.416    27.1713 0.0000e+00
      3.116      0.057     8.1726    103.121    116.809 121.894588     0.5689 3.2053e+02     0.6375      3.055      4.431    27.1706 0.0000e+00
      3.130      0.061     8.1711    103.008    116.816 121.898809     0.5708 3.1851e+02     0.6634      3.068      4.450    27.1715 0.0000e+00
      3.146      0.066     8.1822    102.866    116.832 121.911393     0.5717 3.1625e+02     0.6759      3.083      4.472    27.1723 0.0000e+00
      3.166      0.070     8.1943    102.732    116.834 121.910343     0.5722 3.1207e+02     0.6509      3.103      4.501    27.1715 0.0000e+00
      3.187      0.072     8.1925    102.608    116.814 121.886103     0.5763 3.0735e+02     0.6366      3.126      4.533    27.1704 0.0000e+00
      3.207      0.072     8.1807    102.524    116.822 121.891098     0.5778 3.0618e+02     0.6397      3.147      4.563    27.1692 0.0000e+00
      3.225      0.073     8.1691    102.543    116.773 121.834324     0.5900 3.0718e+02     0.6885      3.164      4.589    27.1671 0.0000e+00
      3.240      0.075     8.1587    102.665    116.698 121.745231     0.6199 3.0512e+02     0.7807      3.177      4.608    27.1653 0.0000e+00
      3.256      0.078     8.1492    102.823    116.737 121.768641     0.6357 3.0067e+02     0.8622      3.192      4.629    27.1645 0.0000e+00
      3.276      0.083     8.1389    102.928    116.823 121.844538     0.6342 2.9879e+02     0.9177      3.213      4.658    27.1635 0.0000e+00
      3.301      0.088     8.1416    102.910    116.832 121.844501     0.6532 2.9808e+02     1.0408      3.237      4.694    27.1615 0.0000e+00
      3.326      0.092     8.1539    102.806    116.767 121.768180     0.6925 2.9475e+02     1.2514      3.263      4.733    27.1572 0.0000e+00
      3.350      0.094     8.1703    102.717    116.750 121.740103     0.7103 2.8973e+02     1.3703      3.286      4.765    27.1478 0.0000e+00
      3.374      0.097     8.1827    102.672    116.797 121.777797     0.7034 2.8452e+02     1.4129      3.309      4.799    27.1408 0.0000e+00
      3.398      0.098     8.1799    102.617    116.715 121.678328     0.7302 2.7882e+02     1.6979      3.333      4.834    27.1394 0.0000e+00
      3.421      0.098     8.1681    102.497    116.617 121.560364     0.7912 2.7381e+02     2.2078      3.353      4.863    27.1358 0.0000e+00
      3.448      0.094     8.1610    102.297    116.711 121.647227     0.8171 2.7072e+02     2.4962      3.379      4.901    27.1305 0.0000e+00
      3.478      0.086     8.1605    102.037    116.771 121.705597     0.8185 2.6775e+02     2.5417      3.413      4.950    27.1267 0.0000e+00
      3.504      0.076     8.1587    101.717    116.720 121.652342     0.8246 2.6480e+02     2.6209      3.440      4.989    27.1201 0.0000e+00
      3.521      0.064     8.1505    101.335    116.750 121.685302     0.8222 2.6275e+02     2.7324      3.455      5.011    27.1120 0.0000e+00
      3.531      0.052     8.1349    100.964    116.760 121.694935     0.8157 2.6184e+02     2.7907      3.464      5.024    27.1071 0.0000e+00
      3.539      0.043     8.1133    100.651    116.704 121.632406     0.8147 2.6218e+02     2.8107      3.471      5.034    27.1054 0.0000e+00
      3.547      0.042     8.0905    100.405    116.686 121.611231     0.8359 2.6260e+02     2.9066      3.477      5.044    27.1065 0.0000e+00
      3.555      0.048     8.0553    100.239    116.653 121.575306     0.8731 2.6181e+02     3.0915      3.486      5.057    27.1080 0.0000e+00
      3.563      0.060     8.0248    100.120    116.684 121.607220     0.8911 2.5944e+02     3.2261      3.493      5.068    27.1071 0.0000e+00
      3.576      0.074     8.0019    100.053    116.796 121.724300     0.8901 2.5595e+02     3.2982      3.503      5.081    27.1052 0.0000e+00
      3.600      0.085     7.9788    100.004    116.832 121.763361     0.9306 2.5194e+02     3.7573      3.527      5.116    27.1039 0.0000e+00
      3.631      0.090     7.9707     99.944    116.742 121.670322     1.0250 2.4787e+02     4.6230      3.560      5.164    27.1030 0.0000e+00
      3.662      0.088     7.9578     99.898    116.629 121.554136     1.0770 2.4364e+02     5.1133      3.593      5.211    27.1030 0.0000e+00
      3.689      0.080     7.9547     99.841    116.657 121.586112     1.0744 2.4005e+02     5.2908      3.621      5.251    27.1034 0.0000e+00
      3.707      0.066     7.9527     99.730    116.711 121.647764     1.1154 2.3781e+02     6.9756      3.638      5.276    27.1040 0.0000e+00
      3.718      0.051     7.9448     99.624    116.676 121.617602     1.1995 2.3595e+02    10.1376      3.647      5.289    27.1046 0.0000e+00
      3.726      0.037     7.9430     99.671    116.683 121.630620     1.2499 2.3385e+02    12.0384      3.655      5.300    27.1045 0.0000e+00
      3.732      0.027     7.9399     99.916    116.715 121.668782     1.3004 2.3108e+02    13.7537      3.661      5.310    27.1055 0.0000e+00
      3.737      0.022     7.9304    100.289    116.713 121.669834     1.7839 2.2717e+02    30.6370      3.666      5.317    27.1084 0.0000e+00
      3.741      0.019     7.9138    100.646    116.687 121.643343     2.6664 2.2326e+02    61.5377      3.669      5.321    27.1114 0.0000e+00
      3.745      0.017     7.9175    100.839    116.667 121.621276     3.1439 2.2032e+02    78.2386      3.671      5.325    27.1138 0.0000e+00
      3.750      0.016     7.9387    100.910    116.720 121.675816     3.1448 2.1722e+02    78.1024      3.677      5.334    27.1159 0.0000e+00
      3.755      0.015     7.9711    100.969    116.799 121.757195     2.5908 2.1310e+02    59.9599      3.684      5.344    27.1173 0.0000e+00
      3.760      0.013     8.0075    100.989    116.829 121.786851     1.5514 2.0900e+02    26.4918      3.687      5.348    27.1174 0.0000e+00
      3.762      0.011     8.0196    100.919    116.805 121.761595     0.9805 2.0562e+02     8.2223      3.689      5.351    27.1163 0.0000e+00
      3.764      0.009     8.0198    100.766    116.769 121.724612     0.9338 2.0306e+02     6.4712      3.691      5.353    27.1160 0.0000e+00
      3.765      0.007     8.0274    100.555    116.791 121.748877     0.9090 2.0155e+02     5.7313      3.693      5.355    27.1159 0.0000e+00
      3.767      0.006     8.0312    100.368    116.821 121.782202     0.8543 2.0059e+02     4.6329      3.694      5.358    27.1150 0.0000e+00
      3.769      0.006     8.0240    100.293    116.758 121.718356     0.8276 1.9928e+02     4.0047      3.696      5.360    27.1149 0.0000e+00
      3.770      0.006     8.0125    100.294    116.700 121.658886     0.8291 1.9705e+02     3.9379      3.697      5.362    27.1153 0.0000e+00
      3.771      0.006     7.9933    100.307    116.782 121.745136     0.8281 1.9447e+02     3.8253      3.698      5.363    27.1159 0.0000e+00
      3.773      0.006     7.9735    100.349    116.840 121.806436     0.8242 1.9196e+02     3.6043      3.700      5.367    27.1168 0.0000e+00
      3.775      0.007     7.9699    100.465    116.754 121.718077     0.8169 1.8926e+02     3.4638      3.702      5.369    27.1176 0.0000e+00
      3.776      0.008     7.9730    100.688    116.671 121.631567     0.8180 1.8594e+02     3.4658      3.703      5.371    27.1182 0.0000e+00
      3.778      0.009     7.9724    100.995    116.622 121.578820     0.8289 1.8182e+02     3.6288      3.705      5.374    27.1185 0.0000e+00
      3.781      0.009     7.9743    101.277    116.668 121.625896     0.8442 1.7747e+02     3.8546      3.707      5.378    27.1189 0.0000e+00
      3.784      0.009     7.9827    101.450    116.828 121.791566     0.8651 1.7295e+02     3.9643      3.710      5.381    27.1191 0.0000e+00
      3.786      0.010     7.9996    101.508    116.843 121.808788     0.8727 1.6808e+02     3.9934      3.712      5.385    27.1194 0.0000e+00
      3.788      0.011     8.0291    101.466    116.737 121.697739     0.8671 1.6275e+02     4.0000      3.715      5.388    27.1189 0.0000e+00
      3.790      0.012     8.0542    101.327    116.717 121.676429     0.8665 1.5618e+02     4.1477      3.717      5.391    27.1179 0.0000e+00
      3.793      0.013     8.0674    101.157    116.729 121.687528     0.8736 1.4838e+02     4.4747      3.720      5.395    27.1179 0.0000e+00
      3.797      0.013     8.0712    101.046    116.738 121.695542     0.8839 1.3998e+02     4.6570      3.724      5.401    27.1183 0.0000e+00
      3.802      0.013     8.0684    100.990    116.813 121.773322     0.8866 1.3196e+02     4.7383      3.727      5.408    27.1185 0.0000e+00
      3.806      0.012     8.0560    100.984    116.847 121.809590     0.8983 1.2553e+02     5.5609      3.733      5.414    27.1181 0.0000e+00
      3.809      0.011     8.0376    101.038    116.765 121.724868     0.9306 1.2042e+02     7.0849      3.736      5.418    27.1173 0.0000e+00
      3.810      0.011     8.0310    101.061    116.745 121.703718     0.9481 1.1522e+02     7.9213      3.736      5.419    27.1170 0.0000e+00
      3.811      0.011     8.0272    100.980    116.732 121.690268     0.9448 1.0893e+02     7.8798      3.738      5.421    27.1168 0.0000e+00
      3.814      0.011     8.0238    100.843    116.609 121.562240     0.9338 1.0169e+02     6.8573      3.741      5.425    27.1168 0.0000e+00
      3.818      0.012     8.0326    100.727    116.568 121.519686     0.9100 9.3616e+01     5.0341      3.744      5.430    27.1169 0.0000e+00
      3.822      0.014     8.0379    100.725    116.630 121.584945     0.8830 8.5541e+01     4.0663      3.748      5.436    27.1173 0.0000e+00
      3.826      0.015     8.0276    100.816    116.711 121.669304     0.8679 7.9103e+01     4.0138      3.752      5.443    27.1177 0.0000e+00
      3.830      0.015     8.0163    100.840    116.761 121.721290     0.8740 7.3440e+01     4.0563      3.756      5.447    27.1176 0.0000e+00
      3.833      0.014     8.0027    100.787    116.711 121.667932     0.8875 6.6484e+01     4.1333      3.758      5.450    27.1177 0.0000e+00
      3.837      0.012     8.0017    100.782    116.618 121.569732     0.8836 5.9259e+01     4.1907      3.762      5.457    27.1179 0.0000e+00
      3.842      0.010     8.0178    100.794    116.542 121.488727     0.8788 5.4334e+01     4.1998      3.768      5.467    27.1180 0.0000e+00
      3.845      0.007     8.0196    100.742    116.560 121.506865     0.8993 5.1762e+01     4.2092      3.770      5.469    27.1177 0.0000e+00
      3.845      0.005     8.0077    100.638    116.700 121.652643     0.9315 4.9998e+01     4.2355      3.771      5.468    27.1172 0.0000e+00
      3.845      0.002     8.0105    100.516    116.795 121.750976     0.9479 4.8560e+01     4.2433      3.771      5.469    27.1164 0.0000e+00
      3.844     -0.001     8.0157    100.405    116.785 121.741035     0.9498 4.7430e+01     4.2355      3.770      5.467    27.1157 0.0000e+00
      3.844     -0.003     8.0089    100.330    116.846 121.805245     0.9365 4.6199e+01     4.2780      3.769      5.466    27.1154 0.0000e+00
      3.844     -0.005     8.0007    100.316    116.949 121.913550     0.8999 4.5100e+01     4.3793      3.770      5.467    27.1153 0.0000e+00
      3.843     -0.008     7.9897    100.371    116.927 121.891180     0.8717 4.5185e+01     4.4307      3.769      5.466    27.1153 0.0000e+00
      3.841     -0.011     7.9807    100.462    116.781 121.739369     0.8652 4.6832e+01     4.4191      3.768      5.465    27.1153 0.0000e+00
      3.837     -0.016     7.9736    100.547    116.626 121.578357     0.8552 4.9482e+01     4.2724      3.764      5.459    27.1157 0.0000e+00
      3.832     -0.022     7.9717    100.547    116.694 121.649337     0.8377 5.2888e+01     3.9617      3.758      5.451    27.1164 0.0000e+00
      3.827     -0.030     7.9782    100.467    116.885 121.847413     0.8267 5.7087e+01     3.7875      3.754      5.444    27.1161 0.0000e+00
      3.820     -0.036     7.9851    100.457    116.896 121.859159     0.8272 6.1652e+01     3.8480      3.747      5.435    27.1162 0.0000e+00
      3.810     -0.038     7.9953    100.561    116.831 121.791355     0.8435 6.5754e+01     4.5914      3.738      5.422    27.1168 0.0000e+00
      3.796     -0.034     7.9970    100.619    116.883 121.845977     0.8679 6.8071e+01     5.9769      3.725      5.402    27.1167 0.0000e+00
      3.780     -0.024     7.9827    100.443    117.005 121.974012     0.8786 6.7765e+01     6.7644      3.705      5.374    27.1162 0.0000e+00
      3.770     -0.012     7.9807    100.065    117.071 122.043645     0.8867 6.5425e+01     7.1769      3.691      5.353    27.1160 0.0000e+00
      3.771      0.002     7.9946     99.688    117.101 122.074125     0.9393 6.2095e+01    11.2393      3.693      5.356    27.1162 0.0000e+00
      3.781      0.013     8.0066     99.393    117.096 122.069750     1.0208 5.8755e+01    18.6663      3.707      5.377    27.1167 0.0000e+00
      3.792      0.021     7.9919     99.157    117.021 121.990733     1.0573 5.6281e+01    22.7135      3.720      5.396    27.1172 0.0000e+00
      3.801      0.021     7.9518     98.941    116.904 121.868918     1.0600 5.5078e+01    23.4382      3.729      5.408    27.1172 0.0000e+00
      3.806      0.016     7.9214     98.723    116.797 121.756263     1.1054 5.5051e+01    27.6341      3.733      5.414    27.1171 0.0000e+00
      3.807      0.009     7.8994     98.608    116.762 121.719799     1.1896 5.5980e+01    35.2685      3.734      5.416    27.1171 0.0000e+00
      3.806      0.003     7.8809     98.715    116.744 121.700832     1.2375 5.7029e+01    39.4571      3.732      5.413    27.1170 0.0000e+00
      3.804     -0.000     7.8665     98.997    116.708 121.663333     1.2509 5.7172e+01    40.2368      3.730      5.410    27.1169 0.0000e+00
      3.803     -0.001     7.8451     99.326    116.721 121.675585     1.2986 5.6696e+01    44.5585      3.730      5.410    27.1166 0.0000e+00
      3.803      0.000     7.8303     99.634    116.757 121.712565     1.3807 5.6162e+01    52.3998      3.730      5.410    27.1164 0.0000e+00
      3.803      0.001     7.8416     99.869    116.747 121.701271     1.4291 5.5349e+01    56.6981      3.729      5.409    27.1165 0.0000e+00
      3.803      0.002     7.8692    100.014    116.723 121.675426     1.4416 5.4321e+01    57.2868      3.730      5.410    27.1163 0.0000e+00
      3.804      0.003     7.8958    100.081    116.722 121.672861     1.4883 5.3459e+01    59.5168      3.730      5.411    27.1160 0.0000e+00
      3.806      0.003     7.9222    100.022    116.721 121.670257     1.5693 5.3037e+01    63.5424      3.732      5.414    27.1157 0.0000e+00
      3.807      0.003     7.9423     99.862    116.696 121.643941     1.6063 5.3011e+01    65.6532      3.733      5.414    27.1152 0.0000e+00
      3.808      0.003     7.9511     99.750    116.680 121.627464     1.5887 5.2887e+01    64.8154      3.733      5.416    27.1146 0.0000e+00
      3.808      0.003     7.9602     99.771    116.661 121.607434     1.4252 5.2899e+01    52.9664      3.734      5.417    27.1138 0.0000e+00
      3.808      0.003     7.9557     99.869    116.595 121.538153     1.1211 5.3116e+01    31.1203      3.734      5.416    27.1134 0.0000e+00
      3.808      0.004     7.9363     99.960    116.533 121.471759     0.9550 5.2598e+01    19.1701      3.734      5.415    27.1135 0.0000e+00
      3.809      0.004     7.9246    100.042    116.486 121.418437     0.9431 5.1696e+01    17.9648      3.734      5.417    27.1135 0.0000e+00
      3.811      0.004     7.9290    100.144    116.511 121.439008     0.9513 5.1487e+01    16.8565      3.738      5.422    27.1134 0.0000e+00
      3.813      0.004     7.9405    100.303    116.652 121.584075     0.9758 5.1646e+01    15.0397      3.740      5.424    27.1132 0.0000e+00
      3.813      0.004     7.9464    100.509    116.736 121.672096     0.9968 5.1533e+01    14.0916      3.739      5.424    27.1129 0.0000e+00
      3.814      0.003     7.9531    100.699    116.681 121.616699     1.0062 5.1165e+01    14.3188      3.741      5.425    27.1106 0.0000e+00
      3.816      0.002     7.9598    100.834    116.659 121.596256     1.0375 5.0912e+01    17.5806      3.742      5.427    27.1077 0.0000e+00
      3.816      0.002     7.9722    100.868    116.755 121.697711     1.0887 5.0954e+01    23.5575      3.742      5.428    27.1071 0.0000e+00
      3.816      0.002     7.9920    100.747    116.807 121.752235     1.1133 5.0893e+01    26.8450      3.743      5.428    27.1076 0.0000e+00
      3.816      0.002     8.0070    100.509    116.766 121.709918     1.1178 5.0502e+01    27.4608      3.742      5.427    27.1085 0.0000e+00
      3.817      0.003     8.0189    100.288    116.787 121.731641     1.1524 4.9947e+01    31.0378      3.743      5.428    27.1095 0.0000e+00
      3.818      0.003     8.0241    100.191    116.797 121.742092     1.2114 4.9226e+01    37.5813      3.743      5.429    27.1099 0.0000e+00
      3.819      0.004     8.0136    100.209    116.757 121.699887     1.2419 4.8158e+01    41.1384      3.744      5.430    27.1103 0.0000e+00
      3.820      0.004     7.9896    100.300    116.823 121.766926     1.2427 4.7072e+01    41.0870      3.745      5.432    27.1106 0.0000e+00
      3.821      0.004     7.9681    100.443    116.859 121.802475     1.1687 4.6534e+01    36.8235      3.747      5.436    27.1105 0.0000e+00
      3.823      0.003     7.9618    100.595    116.718 121.652314     1.0242 4.6317e+01    28.9332      3.749      5.438    27.1105 0.0000e+00
      3.823      0.003     7.9652    100.724    116.594 121.519874     0.9430 4.6050e+01    24.6179      3.749      5.437    27.1104 0.0000e+00
      3.823      0.002     7.9718    100.824    116.574 121.496906     0.9324 4.5710e+01    23.8554      3.749      5.437    27.1099 0.0000e+00
      3.824      0.002     7.9854    100.888    116.589 121.511000     0.9225 4.5247e+01    19.4736      3.750      5.439    27.1087 0.0000e+00
      3.824      0.002     7.9988    100.973    116.631 121.553883     0.9014 4.4839e+01    11.5323      3.750      5.439    27.1074 0.0000e+00
      3.824      0.003     8.0084    101.168    116.682 121.606218     0.8851 4.4619e+01     7.2152      3.750      5.440    27.1063 0.0000e+00
      3.825      0.003     8.0178    101.416    116.677 121.598213     0.8820 4.4227e+01     6.7928      3.751      5.441    27.1049 0.0000e+00
      3.826      0.003     8.0219    101.558    116.675 121.593478     0.8813 4.3588e+01     6.5289      3.751      5.441    27.1041 0.0000e+00
      3.827      0.004     8.0234    101.574    116.765 121.685354     0.8762 4.2958e+01     6.1533      3.753      5.443    27.1044 0.0000e+00
      3.828      0.006     8.0411    101.558    116.830 121.754314     0.8722 4.2261e+01     5.9593      3.754      5.444    27.1040 0.0000e+00
      3.829      0.007     8.0683    101.547    116.818 121.745300     0.8758 4.1253e+01     5.8995      3.755      5.447    27.1025 0.0000e+00
      3.831      0.008     8.0796    101.483    116.782 121.712768     0.8858 3.9808e+01     5.8075      3.757      5.449    27.1012 0.0000e+00
      3.834      0.008     8.0767    101.279    116.702 121.633770     0.8897 3.8313e+01     5.7398      3.759      5.453    27.1008 0.0000e+00
      3.837      0.008     8.0744    100.952    116.676 121.608515     0.8789 3.7294e+01     5.7335      3.764      5.458    27.1001 0.0000e+00
      3.839      0.007     8.0752    100.697    116.743 121.680198     0.8682 3.6595e+01     5.6974      3.765      5.459    27.1019 0.0000e+00
      3.840      0.007     8.0729    100.678    116.745 121.682112     0.8547 3.5865e+01     5.4742      3.764      5.460    27.1055 0.0000e+00
      3.842      0.007     8.0578    100.831    116.695 121.631664     0.8382 3.5234e+01     5.1641      3.768      5.465    27.1063 0.0000e+00
      3.842      0.006     8.0236    100.950    116.676 121.615817     0.8329 3.4630e+01     5.0041      3.769      5.466    27.1075 0.0000e+00
      3.844      0.005     7.9974    100.940    116.684 121.626904     0.8259 3.3750e+01     4.9130      3.768      5.465    27.1082 0.0000e+00
      3.847      0.004     7.9980    100.823    116.686 121.629328     0.8139 3.2983e+01     4.5086      3.773      5.471    27.1079 0.0000e+00
      3.848      0.003     8.0182    100.572    116.701 121.645131     0.8089 3.2758e+01     3.8568      3.775      5.475    27.1089 0.0000e+00
      3.848      0.002     8.0310    100.211    116.736 121.681584     0.8089 3.2821e+01     3.5207      3.773      5.473    27.1103 0.0000e+00
      3.848      0.001     8.0255     99.834    116.716 121.660896     0.8137 3.2852e+01     3.5003      3.773      5.472    27.1116 0.0000e+00
      3.848     -0.001     8.0199     99.476    116.723 121.667779     0.8151 3.2825e+01     3.6101      3.773      5.472    27.1118 0.0000e+00
      3.848     -0.001     7.9991     99.162    116.817 121.764806     0.8085 3.2856e+01     3.8180      3.773      5.472    27.1118 0.0000e+00
      3.847      0.000     7.9657     98.957    116.797 121.742880     0.8114 3.3002e+01     3.9542      3.772      5.471    27.1120 0.0000e+00
      3.847      0.001     7.9365     98.971    116.732 121.675456     0.8156 3.3241e+01     3.9520      3.772      5.471    27.1117 0.0000e+00
      3.847      0.002     7.9070     99.274    116.820 121.767958     0.7988 3.3239e+01     3.6202      3.772      5.471    27.1113 0.0000e+00
      3.848      0.003     7.8806     99.738    116.821 121.770158     0.7733 3.2654e+01     3.0661      3.771      5.470    27.1112 0.0000e+00
      3.849      0.003     7.8612    100.143    116.625 121.565658     0.7586 3.1806e+01     2.7805      3.774      5.475    27.1112 0.0000e+00
      3.851      0.003     7.8581    100.426    116.476 121.409478     0.7515 3.1087e+01     2.7420      3.776      5.477    27.1111 0.0000e+00
      3.851      0.002     7.8865    100.654    116.519 121.450335     0.7652 3.0546e+01     2.7373      3.777      5.478    27.1116 0.0000e+00
      3.851      0.001     7.9325    100.835    116.652 121.582271     0.8031 3.0100e+01     2.7582      3.777      5.478    27.1119 0.0000e+00
      3.851     -0.001     7.9656    100.921    116.777 121.708956     0.8196 2.9634e+01     2.7884      3.776      5.477    27.1119 0.0000e+00
      3.850     -0.001     7.9840    100.902    116.820 121.754512     0.8168 2.9119e+01     2.8286      3.776      5.476    27.1117 0.0000e+00
      3.850     -0.001     8.0029    100.857    116.786 121.723903     0.8398 2.8597e+01     3.1068      3.775      5.475    27.1103 0.0000e+00
      3.850     -0.001     8.0197    100.881    116.806 121.748048     0.8715 2.8137e+01     3.6120      3.776      5.476    27.1068 0.0000e+00
      3.850      0.000     8.0278    100.965    116.830 121.773669     0.8795 2.7832e+01     3.8892      3.775      5.475    27.1039 0.0000e+00
      3.850      0.000     8.0235    101.023    116.817 121.760909     0.8837 2.7657e+01     3.9871      3.776      5.476    27.1049 0.0000e+00
      3.850      0.001     8.0155    101.036    116.787 121.730153     0.8968 2.7500e+01     4.6577      3.776      5.476    27.1079 0.0000e+00
      3.850      0.002     8.0175    101.020    116.733 121.674599     0.8992 2.7488e+01     5.8520      3.775      5.475    27.1095 0.0000e+00
      3.851      0.002     8.0285    100.961    116.694 121.634794     0.8870 2.7652e+01     6.5135      3.776      5.477    27.1093 0.0000e+00
      3.852      0.002     8.0333    100.868    116.714 121.658044     0.8786 2.7717e+01     6.7168      3.778      5.479    27.1094 0.0000e+00
      3.853      0.002     8.0320    100.708    116.736 121.682936     0.8941 2.7190e+01     8.3103      3.779      5.480    27.1099 0.0000e+00
      3.854      0.002     8.0334    100.463    116.716 121.662971     0.9261 2.5273e+01    11.2232      3.779      5.481    27.1102 0.0000e+00
      3.854      0.001     8.0264    100.254    116.740 121.689444     0.9450 2.2435e+01    12.8222      3.779      5.481    27.1106 0.0000e+00
      3.854      0.000     8.0202    100.129    116.779 121.730229     0.9406 2.0113e+01    12.8463      3.779      5.481    27.1113 0.0000e+00
      3.854      0.000     8.0105     99.978    116.794 121.746920     0.9079 1.8774e+01    11.1363      3.779      5.481    27.1120 0.0000e+00
      3.853     -0.001     7.9845     99.804    116.801 121.754863     0.8615 1.8192e+01     7.9744      3.779      5.480    27.1126 0.0000e+00
      3.853     -0.001     7.9654     99.763    116.738 121.689870     0.8303 1.7760e+01     6.2712      3.779      5.480    27.1134 0.0000e+00
      3.853     -0.001     7.9617     99.853    116.692 121.643074     0.8246 1.7132e+01     6.1305      3.779      5.480    27.1138 0.0000e+00
      3.853     -0.001     7.9505     99.873    116.779 121.734627     0.8535 1.6152e+01     6.2384      3.778      5.479    27.1140 0.0000e+00
      3.852      0.000     7.9283     99.737    116.882 121.842067     0.8854 1.4337e+01     6.4769      3.777      5.478    27.1145 0.0000e+00
      3.852      0.000     7.9248     99.607    116.891 121.850965     0.8886 1.2283e+01     6.6112      3.778      5.479    27.1146 0.0000e+00
      3.852     -0.001     7.9408     99.682    116.882 121.842209     0.8841 1.1838e+01     6.7639      3.777      5.478    27.1149 0.0000e+00
      3.853     -0.003     7.9457     99.915    116.912 121.872595     0.8828 9.8408e+00     8.5974      3.777      5.478    27.1153 0.0000e+00
      3.853     -0.006     7.9288    100.080    116.852 121.809175     0.8819 4.0966e+00    11.9573      3.781      5.483    27.1152 0.0000e+00
      3.853     -0.011     7.9100    100.102    116.672 121.620980     0.8901 4.7976e-01    13.7763      3.780      5.482    27.1155 0.0000e+00
      3.849     -0.016     7.9177    100.105    116.563 121.506667     0.8957 1.5091e-01    13.9726      3.775      5.474    27.1154 0.0000e+00
      3.843     -0.020     7.9461    100.178    116.574 121.518188     0.8885 1.3848e-01    14.0219      3.770      5.468    27.1153 0.0000e+00
      3.836     -0.024     7.9616    100.293    116.676 121.623890     0.8813 3.2929e-01    14.2702      3.761      5.456    27.1150 0.0000e+00
      3.828     -0.026     7.9571    100.359    116.743 121.693533     0.8790 1.9890e+00    14.8120      3.754      5.445    27.1144 0.0000e+00
      3.822     -0.027     7.9549    100.272    116.599 121.541868     0.8782 4.9352e+00    15.1818      3.748      5.437    27.1142 0.0000e+00
      3.815     -0.027     7.9622    100.046    116.555 121.495051     0.8802 6.2063e+00    15.4455      3.741      5.426    27.1143 0.0000e+00
      3.808     -0.027     7.9737     99.839    116.792 121.741242     0.9111 5.5698e+00    17.8984      3.734      5.416    27.1140 0.0000e+00
      3.803     -0.024     7.9829     99.737    116.971 121.927051     0.9664 6.9142e+00    22.4543      3.729      5.410    27.1136 0.0000e+00
      3.795     -0.019     7.9770     99.640    117.011 121.968516     1.0016 1.6945e+01    25.1073      3.724      5.400    27.1131 0.0000e+00
      3.785     -0.012     7.9519     99.451    117.011 121.969791     1.0243 3.4494e+01    27.2823      3.709      5.378    27.1125 0.0000e+00
      3.780     -0.004     7.9319     99.209    116.984 121.942479     1.1713 4.7419e+01    48.7177      3.704      5.373    27.1121 0.0000e+00
      3.783      0.002     7.9290     98.965    117.018 121.979274     1.4443 5.1417e+01    87.9309      3.709      5.380    27.1118 0.0000e+00
      3.790      0.004     7.9250     98.681    117.042 122.005494     1.6028 5.0214e+01   109.3253      3.716      5.389    27.1119 0.0000e+00
      3.796      0.004     7.9079     98.399    116.958 121.918513     1.6225 4.8014e+01   111.4233      3.724      5.401    27.1123 0.0000e+00
      3.800      0.002     7.8849     98.229    116.858 121.814168     1.6653 5.0108e+01   113.1263      3.728      5.408    27.1125 0.0000e+00
      3.797     -0.003     7.8697     98.153    116.813 121.766839     1.7558 5.4273e+01   115.9426      3.726      5.404    27.1135 0.0000e+00
      3.790     -0.008     7.8456     98.104    116.803 121.755444     1.8064 5.3413e+01   117.5968      3.714      5.387    27.1138 0.0000e+00
      3.785     -0.011     7.8170     98.138    116.729 121.676397     1.8086 4.9352e+01   118.9474      3.710      5.381    27.1140 0.0000e+00
      3.785     -0.012     7.8058     98.358    116.686 121.629455     1.8262 4.8480e+01   132.3079      3.713      5.385    27.1145 0.0000e+00
      3.783     -0.011     7.8030     98.813    116.787 121.733443     1.8548 5.0420e+01   156.8436      3.710      5.380    27.1141 0.0000e+00
      3.780     -0.010     7.7971     99.482    116.892 121.842548     1.8686 5.1738e+01   170.1267      3.706      5.376    27.1134 0.0000e+00
      3.779     -0.008     7.7954    100.223    116.906 121.857479     1.8716 5.4194e+01   170.1386      3.707      5.376    27.1125 0.0000e+00
      3.776     -0.004     7.8131    100.841    116.831 121.777567     1.8304 5.9422e+01   157.3647      3.704      5.372    27.1116 0.0000e+00
      3.771      0.002     7.8481    101.208    116.752 121.694707     1.7348 6.2065e+01   133.7500      3.696      5.360    27.1113 0.0000e+00
      3.769      0.009     7.9062    101.300    116.731 121.673999     1.6775 5.8989e+01   120.7557      3.692      5.356    27.1111 0.0000e+00
      3.774      0.014     7.9720    101.232    116.720 121.663588     1.6747 5.4015e+01   118.1847      3.700      5.367    27.1110 0.0000e+00
      3.784      0.019     8.0239    101.152    116.758 121.705229     1.5883 5.0180e+01   102.2185      3.712      5.384    27.1105 0.0000e+00
      3.792      0.020     8.0551    101.052    116.818 121.768286     1.4131 4.7333e+01    73.1086      3.720      5.395    27.1100 0.0000e+00
      3.798      0.017     8.0582    100.861    116.795 121.744032     1.3171 4.4941e+01    57.2242      3.725      5.402    27.1105 0.0000e+00
      3.802      0.011     8.0466    100.665    116.738 121.684770     1.3114 4.2880e+01    55.6985      3.730      5.409    27.1112 0.0000e+00
      3.804      0.005     8.0406    100.542    116.653 121.597340     1.3443 4.1646e+01    54.6625      3.732      5.413    27.1118 0.0000e+00
      3.803      0.001     8.0382    100.340    116.564 121.505279     1.4033 4.2128e+01    52.9725      3.731      5.411    27.1121 0.0000e+00
      3.800     -0.003     8.0185     99.948    116.585 121.526428     1.4345 4.3058e+01    52.0533      3.726      5.404    27.1123 0.0000e+00
      3.798     -0.008     7.9974     99.581    116.638 121.580266     1.4360 4.1588e+01    51.7882      3.722      5.399    27.1126 0.0000e+00
      3.799     -0.012     7.9951     99.508    116.668 121.610652     1.4218 3.8561e+01    49.3544      3.724      5.402    27.1129 0.0000e+00
      3.799     -0.014     7.9859     99.780    116.679 121.621033     1.3918 3.8809e+01    44.8744      3.728      5.407    27.1127 0.0000e+00
      3.793     -0.015     7.9448    100.246    116.629 121.569383     1.3688 4.5595e+01    42.4594      3.721      5.398    27.1126 0.0000e+00
      3.784     -0.016     7.9059    100.648    116.593 121.531741     1.3603 5.1764e+01    42.3349      3.709      5.379    27.1126 0.0000e+00
      3.778     -0.018     7.9004    100.873    116.635 121.575087     1.3316 4.8119e+01    42.6475      3.704      5.372    27.1120 0.0000e+00
      3.776     -0.022     7.9252    101.018    116.741 121.684295     1.2736 3.9919e+01    43.1497      3.703      5.371    27.1115 0.0000e+00
      3.773     -0.033     7.9725    101.135    116.815 121.761008     1.2400 3.4528e+01    43.4629      3.700      5.367    27.1117 0.0000e+00
      3.769     -0.059     8.0085    101.187    116.871 121.820644     1.2379 3.1965e+01    43.8589      3.696      5.361    27.1114 0.0000e+00
      3.763     -0.102     8.0201    101.115    117.040 121.996177     1.2389 3.4155e+01    47.4911      3.693      5.357    27.1112 0.0000e+00
      3.747     -0.152     8.0311    100.916    117.346 122.314813     1.2440 4.9034e+01    54.1119      3.683      5.342    27.1111 0.0000e+00
      3.705     -0.200     8.0419    100.643    117.494 122.467878     1.2466 7.4328e+01    57.9228      3.648      5.291    27.1106 0.0000e+00
      3.630     -0.239     8.0476    100.244    117.379 122.346479     1.2454 9.3482e+01    60.6428      3.567      5.175    27.1111 0.0000e+00
      3.538     -0.264     8.0433     99.529    117.317 122.279188     1.3072 1.0147e+02    86.9304      3.463      5.024    27.1112 0.0000e+00
      3.455     -0.279     8.0234     98.381    117.179 122.131686     1.4301 1.0515e+02   135.0567      3.383      4.907    27.1105 0.0000e+00
      3.385     -0.285     8.0035     97.028    116.919 121.858828     1.4912 1.0790e+02   161.1874      3.316      4.809    27.1097 0.0000e+00
      3.327     -0.285     7.9780     95.836    116.776 121.708038     1.4827 1.1023e+02   161.8584      3.258      4.726    27.1095 0.0000e+00
      3.271     -0.285     7.9282     95.031    116.677 121.604260     1.3969 1.1352e+02   142.8261      3.220      4.670    27.1083 0.0000e+00
      3.195     -0.293     7.8288     94.884    116.631 121.558821     1.2428 1.1807e+02   107.5402      3.142      4.556    27.1068 0.0000e+00
      3.105     -0.306     7.7065     95.537    116.765 121.704229     1.1537 1.2186e+02    88.1951      3.036      4.403    27.1061 0.0000e+00
      3.024     -0.319     7.6113     96.770    116.973 121.930246     1.1348 1.2468e+02    85.2594      2.966      4.302    27.1055 0.0000e+00
      2.945     -0.330     7.5369     98.285    117.002 121.972872     1.0665 1.2822e+02    71.7018      2.895      4.199    27.1048 0.0000e+00
      2.858     -0.336     7.5176     99.887    116.823 121.810467     0.9434 1.3197e+02    47.0448      2.797      4.057    27.1053 0.0000e+00
      2.775     -0.341     7.5799    101.404    116.721 121.739807     0.8770 1.3490e+02    33.5065      2.718      3.943    27.1081 0.0000e+00
      2.693     -0.349     7.6862    102.660    116.805 121.868773     0.8622 1.3850e+02    31.6099      2.649      3.843    27.1125 0.0000e+00
      2.598     -0.356     7.8105    103.571    116.888 122.005899     0.7735 1.4308e+02    24.2852      2.547      3.695    27.1162 0.0000e+00
      2.500     -0.361     7.9407    104.147    116.926 122.102106     0.6193 1.4758e+02    11.0006      2.447      3.548    27.1249 0.0000e+00
      2.409     -0.367     8.0648    104.422    116.979 122.213722     0.5416 1.5303e+02     3.7176      2.367      3.433    27.1439 0.0000e+00
      2.314     -0.373     8.1648    104.571    117.025 122.332557     0.5361 1.5917e+02     3.0038      2.268      3.290    27.1596 0.0000e+00
      2.221     -0.372     8.2319    104.828    117.045 122.447856     0.5173 1.6447e+02     2.5411      2.174      3.153    27.1805 0.0000e+00
      2.131     -0.367     8.2746    105.191    117.011 122.516756     0.4880 1.7010e+02     1.8312      2.098      3.043    27.2099 0.0000e+00
      2.029     -0.363     8.2887    105.497    116.998 122.620182     0.4770 1.7669e+02     1.4590      1.991      2.889    27.2287 0.0000e+00
      1.926     -0.359     8.2861    105.733    117.052 122.811954     0.4800 1.8234e+02     1.4057      1.876      2.721    27.2564 0.0000e+00
      1.843     -0.359     8.3008    105.983    117.025 122.926059     0.4633 1.8730e+02     1.4613      1.805      2.619    27.3008 0.0000e+00
      1.765     -0.362     8.3313    106.225    116.933 122.977031     0.4307 1.9428e+02     1.5818      1.740      2.525    27.3456 0.0000e+00
      1.674     -0.360     8.3480    106.438    116.952 123.155685     0.4069 2.0268e+02     1.5930      1.641      2.380    27.3914 0.0000e+00
      1.577     -0.348     8.3520    106.629    117.147 123.517759     0.3926 2.1123e+02     1.5618      1.547      2.244    27.4529 0.0000e+00
      1.478     -0.323     8.3657    106.780    117.343 123.876739     0.3786 2.2123e+02     1.5482      1.456      2.111    27.5161 0.0000e+00
      1.376     -0.281     8.3768    106.928    117.345 124.017938     0.3600 2.3174e+02     1.4627      1.342      1.946    27.5730 0.0000e+00
      1.292     -0.228     8.3806    107.074    117.304 124.065724     0.3493 2.3961e+02     1.3858      1.249      1.812    27.6475 0.0000e+00
      1.250     -0.172     8.3885    107.054    117.374 124.181829     0.3531 2.4403e+02     1.4079      1.215      1.763    27.7134 0.0000e+00
      1.237     -0.116     8.3888    106.684    117.364 124.194120     0.3536 2.4656e+02     1.6279      1.213      1.759    27.7768 0.0000e+00
      1.229     -0.067     8.3881    106.038    117.234 124.077962     0.3471 2.4875e+02     2.0544      1.209      1.754    27.8472 0.0000e+00
      1.216     -0.034     8.4000    105.383    117.139 124.005107     0.3436 2.5030e+02     2.3073      1.192      1.728    27.8831 0.0000e+00
      1.206     -0.018     8.4044    104.897    117.103 123.995328     0.3456 2.5031e+02     2.3513      1.177      1.708    27.8958 0.0000e+00
      1.206     -0.018     8.3716    104.584    117.180 124.096192     0.3453 2.4922e+02     2.8949      1.181      1.714    27.9034 0.0000e+00
      1.211     -0.033     8.3100    104.414    117.272 124.201595     0.3398 2.4783e+02     3.9017      1.190      1.725    27.9103 0.0000e+00
      1.214     -0.065     8.2510    104.354    117.183 124.110264     0.3410 2.4693e+02     4.4310      1.191      1.727    27.9233 0.0000e+00
      1.209     -0.111     8.2129    104.349    117.092 124.015011     0.3424 2.4813e+02     4.4535      1.191      1.729    27.9385 0.0000e+00
      1.184     -0.166     8.1878    104.385    117.143 124.072987     0.3383 2.5387e+02     4.3791      1.176      1.706    27.9468 0.0000e+00
      1.124     -0.219     8.1742    104.466    117.185 124.129213     0.3434 2.6420e+02     4.2527      1.111      1.611    27.9482 0.0000e+00
      1.043     -0.254     8.1728    104.611    117.189 124.149218     0.3521 2.7573e+02     4.1950      1.021      1.482    27.9497 0.0000e+00
      0.956     -0.262     8.1710    104.725    117.195 124.178497     0.3570 2.8824e+02     4.3005      0.940      1.364    27.9488 0.0000e+00
      0.866     -0.247     8.1752    104.680    117.197 124.210437     0.3600 3.0195e+02     5.2875      0.846      1.227    27.9497 0.0000e+00
      0.792     -0.220     8.1782    104.551    117.216 124.262632     0.3531 3.1070e+02     7.0308      0.759      1.102    27.9558 0.0000e+00
      0.754     -0.194     8.1909    104.467    117.251 124.332188     0.3434 3.1296e+02     7.9368      0.730      1.059    27.9619 0.0000e+00
      0.739     -0.171     8.2066    104.509    117.262 124.369428     0.3460 3.1681e+02     8.0025      0.730      1.060    27.9716 0.0000e+00
      0.713     -0.151     8.1951    104.693    117.306 124.440128     0.3500 3.2583e+02     8.1695      0.710      1.029    27.9855 0.0000e+00
      0.665     -0.134     8.1797    104.917    117.392 124.573198     0.3490 3.3670e+02     8.5130      0.656      0.951    27.9986 0.0000e+00
      0.609     -0.119     8.1694    105.078    117.440 124.682499     0.3512 3.4623e+02     8.7221      0.591      0.858    28.0142 0.0000e+00
      0.567     -0.107     8.1687    105.171    117.446 124.738675     0.3497 3.5040e+02     8.8100      0.546      0.792    28.0252 0.0000e+00
      0.547     -0.104     8.1874    105.191    117.390 124.706842     0.3482 3.4956e+02     9.7816      0.531      0.769    28.0299 0.0000e+00
      0.547     -0.119     8.2055    105.111    117.253 124.570491     0.3513 3.4869e+02    11.5427      0.535      0.774    28.0484 0.0000e+00
      0.549     -0.150     8.2128    105.033    117.085 124.386010     0.3521 3.5007e+02    12.4909      0.547      0.792    28.0796 0.0000e+00
      0.526     -0.185     8.2158    105.030    117.087 124.386079     0.3579 3.6160e+02    13.0407      0.538      0.780    28.1012 0.0000e+00
      0.454     -0.212     8.2196    104.985    117.239 124.571315     0.3867 3.8280e+02    18.5340      0.461      0.669    28.1125 0.0000e+00
      0.347     -0.220     8.2082    104.842    117.327 124.715948     0.4319 3.9712e+02    28.6115      0.333      0.483    28.1165 0.0000e+00
      0.252     -0.203     8.1978    104.718    117.386 124.838979     0.4532 3.9941e+02    34.1200      0.227      0.329    28.1109 0.0000e+00
      0.202     -0.162     8.2056    104.727    117.392 124.899439     0.4538 4.0294e+02    34.9425      0.186      0.269    28.1056 0.0000e+00
      0.189     -0.103     8.2030    104.831    117.288 124.833185     0.4480 4.1030e+02    39.0369      0.183      0.265    28.1146 0.0000e+00
      0.189     -0.044     8.1823    104.811    117.211 124.788264     0.4255 4.1645e+02    46.5114      0.184      0.267    28.1414 0.0000e+00
      0.194     -0.004     8.1657    104.529    117.225 124.833814     0.4076 4.2943e+02    50.5738      0.189      0.274    28.1699 0.0000e+00
      0.200      0.014     8.1625    104.150    117.206 124.838313     0.4060 4.3839e+02    50.6987      0.196      0.284    28.1922 0.0000e+00
      0.206      0.018     8.1762    103.879    117.195 124.842702     0.4222 4.3331e+02    47.8491      0.202      0.293    28.2113 0.0000e+00
      0.213      0.016     8.1796    103.761    117.287 124.955111     0.4475 4.2733e+02    42.5556      0.209      0.304    28.2263 0.0000e+00
      0.218      0.011     8.1468    103.745    117.280 124.969713     0.4609 4.2523e+02    39.7741      0.216      0.313    28.2398 0.0000e+00
      0.219      0.005     8.1098    103.834    117.165 124.882877     0.4717 4.2262e+02    40.5513      0.215      0.314    28.2502 0.0000e+00
      0.218      0.000     8.0867    104.079    117.171 124.928351     0.4997 4.1545e+02    51.8148      0.213      0.309    28.2571 0.0000e+00
      0.216     -0.002     8.0803    104.469    117.246 125.042153     0.5478 4.0874e+02    72.5162      0.212      0.307    28.2605 0.0000e+00
      0.214     -0.002     8.0774    104.844    117.268 125.099373     0.5773 4.1154e+02    83.7193      0.210      0.304    28.2687 0.0000e+00
      0.212      0.000     8.0793    105.026    117.207 125.074563     0.5784 4.1801e+02    84.0325      0.207      0.300    28.2867 0.0000e+00
      0.211      0.005     8.0957    105.086    117.114 125.015078     0.5612 4.2107e+02    76.8178      0.206      0.298    28.3052 0.0000e+00
      0.213      0.010     8.1281    105.209    117.129 125.062293     0.5158 4.1822e+02    63.4366      0.208      0.302    28.3183 0.0000e+00
      0.218      0.016     8.1648    105.422    117.272 125.236226     0.4810 4.1305e+02    56.0706      0.214      0.311    28.3300 0.0000e+00
      0.222      0.022     8.1719    105.652    117.362 125.344699     0.4784 4.1175e+02    54.8763      0.218      0.317    28.3501 0.0000e+00
      0.227      0.026     8.1658    105.816    117.298 125.282508     0.4764 4.0758e+02    49.0310      0.221      0.321    28.3689 0.0000e+00
      0.235      0.026     8.1752    105.896    117.186 125.166376     0.4384 4.0633e+02    36.1735      0.229      0.332    28.3802 0.0000e+00
      0.246      0.023     8.1923    106.019    117.064 125.031907     0.3834 4.0775e+02    25.7276      0.242      0.351    28.3903 0.0000e+00
      0.255      0.019     8.2118    106.297    117.002 124.952611     0.3588 4.0281e+02    22.5713      0.252      0.366    28.3955 0.0000e+00
      0.260      0.016     8.2261    106.626    117.152 125.094289     0.3571 3.9639e+02    22.2154      0.256      0.372    28.3968 0.0000e+00
      0.260      0.016     8.2275    106.801    117.247 125.176109     0.3451 3.9199e+02    21.1155      0.256      0.372    28.3990 0.0000e+00
      0.257      0.019     8.2315    106.774    117.092 124.986939     0.3092 3.8948e+02    19.1261      0.251      0.363    28.3987 0.0000e+00
      0.257      0.025     8.2583    106.632    116.996 124.853254     0.2780 3.8799e+02    18.0051      0.248      0.360    28.3913 0.0000e+00
      0.267      0.032     8.2936    106.480    117.018 124.855641     0.2717 3.8702e+02    17.4842      0.258      0.375    28.3820 0.0000e+00
      0.282      0.041     8.3081    106.366    117.043 124.879352     0.2586 3.7869e+02    13.1380      0.277      0.403    28.3761 0.0000e+00
      0.297      0.048     8.3041    106.189    117.096 124.935309     0.2323 3.6649e+02     5.2126      0.292      0.425    28.3664 0.0000e+00
      0.308      0.048     8.2932    105.813    117.147 124.986556     0.2230 3.5848e+02     0.8987      0.301      0.437    28.3485 0.0000e+00
      0.320      0.033     8.2799    105.236    117.177 125.021514     0.2250 3.4591e+02     0.5298      0.312      0.452    28.3386 0.0000e+00
      0.335     -0.001     8.2745    104.633    117.228 125.085162     0.2379 3.2726e+02     0.6500      0.328      0.475    28.3409 0.0000e+00
      0.348     -0.052     8.2665    104.308    117.340 125.210478     0.2668 3.2131e+02     0.9782      0.346      0.501    28.3415 0.0000e+00
      0.347     -0.110     8.2364    104.384    117.429 125.308956     0.2879 3.3387e+02     1.1685      0.352      0.511    28.3377 0.0000e+00
      0.312     -0.164     8.1887    104.734    117.420 125.320934     0.2949 3.4820e+02     1.1999      0.321      0.467    28.3387 0.0000e+00
      0.240     -0.201     8.1282    105.210    117.404 125.355342     0.2811 3.9928e+02     1.5976      0.242      0.350    28.3465 0.0000e+00
      0.150     -0.212     8.0986    105.650    117.432 125.452236     0.2506 4.8544e+02     2.3386      0.143      0.207    28.3479 0.0000e+00
      0.070     -0.192     8.1128    105.930    117.394 125.469431     0.2298 5.0830e+02     2.7422      0.057      0.083    28.3451 0.0000e+00
      0.017     -0.143     8.1401    105.998    117.259 125.358713     0.2211 4.7632e+02     2.8387      0.007      0.009    28.3520 0.0000e+00
     -0.006     -0.076     8.1799    105.841    117.167 125.273159     0.2148 4.5734e+02     3.6084     -0.014     -0.019    28.3769 0.0000e+00
     -0.006     -0.011     8.2125    105.482    117.211 125.321742     0.2144 4.4442e+02     5.0104     -0.011     -0.015    28.4102 0.0000e+00
      0.009      0.036     8.2312    104.993    117.286 125.400453     0.2164 4.2001e+02     5.8167      0.004      0.006    28.4361 0.0000e+00
      0.037      0.059     8.2356    104.599    117.294 125.406327     0.2208 3.7444e+02     6.5250      0.031      0.046    28.4506 0.0000e+00
      0.071      0.062     8.2209    104.522    117.284 125.392762     0.2588 3.3752e+02    13.3350      0.074      0.108    28.4538 0.0000e+00
      0.094      0.052     8.1936    104.727    117.269 125.372859     0.3199 3.4014e+02    25.7383      0.099      0.143    28.4534 0.0000e+00
      0.101      0.034     8.1482    104.996    117.208 125.302089     0.3446 3.4901e+02    32.6197      0.102      0.148    28.4529 0.0000e+00
      0.097      0.013     8.1088    105.153    117.133 125.219175     0.3497 3.3846e+02    34.9779      0.095      0.137    28.4512 0.0000e+00
      0.093     -0.004     8.1056    105.182    117.229 125.325273     0.4245 3.3044e+02    54.2170      0.091      0.130    28.4499 0.0000e+00
      0.091     -0.011     8.1291    105.177    117.437 125.561767     0.5552 3.4174e+02    89.3505      0.091      0.132    28.4482 0.0000e+00
      0.085     -0.011     8.1559    105.168    117.468 125.623078     0.6292 3.5346e+02   108.3779      0.084      0.121    28.4458 0.0000e+00
      0.078     -0.007     8.1688    105.109    117.338 125.520957     0.6357 3.5461e+02   108.3894      0.074      0.107    28.4439 0.0000e+00
      0.077     -0.004     8.1665    105.001    117.211 125.418452     0.5646 3.5400e+02    89.0423      0.074      0.106    28.4445 0.0000e+00
      0.081     -0.002     8.1643    104.928    117.181 125.406907     0.4278 3.5480e+02    53.2243      0.081      0.116    28.4500 0.0000e+00
      0.084      0.000     8.1648    104.976    117.214 125.449606     0.3521 3.6432e+02    33.6152      0.083      0.121    28.4625 0.0000e+00
      0.084      0.000     8.1571    105.188    117.223 125.457268     0.3422 3.7187e+02    31.2704      0.084      0.121    28.4807 0.0000e+00
      0.082      0.000     8.1440    105.570    117.209 125.431329     0.3086 3.4299e+02    24.9421      0.081      0.117    28.4970 0.0000e+00
      0.080      0.001     8.1337    105.991    117.142 125.340591     0.2485 3.0138e+02    13.6122      0.077      0.112    28.5049 0.0000e+00
      0.079      0.003     8.1376    106.276    117.140 125.315059     0.2142 2.9871e+02     7.4086      0.077      0.112    28.5072 0.0000e+00
      0.079      0.006     8.1518    106.402    117.234 125.395418     0.2146 3.0735e+02     6.7557      0.078      0.113    28.5066 0.0000e+00
      0.082      0.008     8.1863    106.465    117.208 125.357251     0.2278 3.1224e+02     5.5463      0.079      0.114    28.5022 0.0000e+00
      0.088      0.008     8.2277    106.562    117.131 125.262823     0.2347 3.7499e+02     3.2920      0.086      0.124    28.4938 0.0000e+00
      0.094      0.007     8.2501    106.680    117.102 125.208614     0.2284 4.3718e+02     2.0217      0.094      0.136    28.4816 0.0000e+00
      0.095      0.004     8.2598    106.802    117.046 125.111030     0.2213 3.9907e+02     1.9291      0.093      0.135    28.4720 0.0000e+00
      0.092      0.002     8.2591    106.924    117.017 125.037802     0.2175 3.4983e+02     1.9996      0.091      0.132    28.4698 0.0000e+00
      0.090     -0.001     8.2705    107.000    117.019 125.005232     0.2174 3.5110e+02     2.0850      0.088      0.127    28.4666 0.0000e+00
      0.089     -0.003     8.2807    106.901    116.964 124.921800     0.2199 3.7812e+02     2.1037      0.086      0.125    28.4565 0.0000e+00
      0.090     -0.003     8.2924    106.431    116.911 124.847491     0.2218 4.0147e+02     2.0879      0.088      0.128    28.4393 0.0000e+00
      0.091     -0.002     8.3069    105.688    116.933 124.857027     0.2228 3.7284e+02     1.9965      0.090      0.130    28.4191 0.0000e+00
      0.090     -0.001     8.3156    105.067    116.983 124.900662     0.2242 3.3090e+02     1.7884      0.089      0.129    28.4037 0.0000e+00
      0.088      0.001     8.3204    104.761    116.988 124.897607     0.2294 3.2142e+02     1.6662      0.086      0.126    28.3938 0.0000e+00
      0.087      0.003     8.2822    104.708    116.995 124.888290     0.2339 3.2391e+02     1.6522      0.084      0.123    28.3869 0.0000e+00
      0.088      0.005     8.2090    104.927    117.050 124.924387     0.2347 3.2209e+02     1.4812      0.085      0.125    28.3813 0.0000e+00
      0.091      0.006     8.1556    105.437    117.057 124.924775     0.2309 3.1518e+02     1.1447      0.088      0.128    28.3770 0.0000e+00
      0.096      0.007     8.1391    106.042    117.073 124.961177     0.2219 3.0744e+02     0.9475      0.094      0.135    28.3751 0.0000e+00
      0.098      0.007     8.1331    106.432    117.164 125.091713     0.2138 2.9554e+02     0.9168      0.098      0.142    28.3683 0.0000e+00
      0.098      0.008     8.1495    106.429    117.181 125.138973     0.2103 2.8059e+02     0.9104      0.097      0.140    28.3538 0.0000e+00
      0.098      0.009     8.1969    106.127    117.086 125.055180     0.2143 2.8516e+02     0.9049      0.095      0.138    28.3488 0.0000e+00
      0.099      0.011     8.2513    105.699    116.995 124.965313     0.2188 3.0356e+02     0.8841      0.096      0.139    28.3602 0.0000e+00
      0.103      0.014     8.2870    105.327    116.971 124.939113     0.2222 3.2037e+02     0.8996      0.100      0.145    28.3772 0.0000e+00
      0.108      0.017     8.2785    105.199    116.987 124.943033     0.2204 3.3001e+02     0.8177      0.106      0.153    28.3911 0.0000e+00
      0.114      0.018     8.2494    105.257    117.019 124.944469     0.2143 3.1181e+02     0.5458      0.112      0.162    28.3981 0.0000e+00
      0.121      0.017     8.2129    105.327    117.066 124.956427     0.2175 2.8540e+02     0.3934      0.119      0.173    28.4000 0.0000e+00
      0.126      0.015     8.1742    105.440    117.090 124.951138     0.2242 2.8375e+02     0.4173      0.124      0.181    28.4014 0.0000e+00
      0.129      0.011     8.1682    105.658    117.111 124.948680     0.2263 2.8765e+02     0.4223      0.127      0.186    28.3978 0.0000e+00
      0.130      0.007     8.1839    105.860    117.176 124.994879     0.2257 2.8575e+02     0.4195      0.128      0.185    28.3804 0.0000e+00
      0.131      0.005     8.1889    105.963    117.229 125.032224     0.2253 2.8355e+02     0.4176      0.128      0.186    28.3604 0.0000e+00
      0.131      0.003     8.1943    105.951    117.268 125.059159     0.2215 2.7519e+02     0.3998      0.129      0.188    28.3495 0.0000e+00
      0.131      0.001     8.2200    105.796    117.266 125.047689     0.2149 2.7039e+02     0.3414      0.129      0.187    28.3396 0.0000e+00
      0.132      0.000     8.2396    105.631    117.192 124.961730     0.2153 2.7514e+02     0.2599      0.128      0.186    28.3288 0.0000e+00
      0.133     -0.003     8.2459    105.538    117.210 124.974742     0.2167 2.7977e+02     0.2054      0.130      0.189    28.3210 0.0000e+00
      0.133     -0.008     8.2518    105.401    117.301 125.068584     0.2150 2.8341e+02     0.1631      0.131      0.191    28.3142 0.0000e+00
      0.131     -0.012     8.2333    105.261    117.243 125.005030     0.2212 2.8655e+02     0.1605      0.130      0.187    28.3107 0.0000e+00
      0.126     -0.016     8.2153    105.248    117.133 124.888400     0.2299 2.9305e+02     0.1739      0.124      0.180    28.3085 0.0000e+00
      0.120     -0.018     8.2183    105.327    117.127 124.886166     0.2330 3.1972e+02     0.1879      0.118      0.171    28.3052 0.0000e+00
      0.113     -0.018     8.2045    105.412    117.140 124.909815     0.2340 3.3961e+02     0.1923      0.111      0.160    28.3036 0.0000e+00
      0.107     -0.016     8.1869    105.500    117.120 124.901521     0.2332 3.3302e+02     0.1586      0.103      0.150    28.3033 0.0000e+00
      0.104     -0.012     8.1894    105.585    117.125 124.922327     0.2321 3.3153e+02     0.1576      0.101      0.146    28.3031 0.0000e+00
      0.102     -0.005     8.1987    105.609    117.146 124.956772     0.2281 3.2810e+02     0.1803      0.099      0.145    28.3043 0.0000e+00
      0.100      0.005     8.2035    105.519    117.161 124.976975     0.2203 3.1440e+02     0.1925      0.097      0.142    28.3089 0.0000e+00
      0.099      0.018     8.2090    105.334    117.221 125.030192     0.2159 3.0770e+02     0.2024      0.096      0.139    28.3155 0.0000e+00
      0.103      0.033     8.2172    105.144    117.205 124.986320     0.2189 3.1795e+02     0.1970      0.099      0.144    28.3218 0.0000e+00
      0.112      0.048     8.2195    104.978    117.113 124.855720     0.2212 3.2908e+02     0.1956      0.108      0.158    28.3283 0.0000e+00
      0.128      0.059     8.2125    104.860    117.101 124.815221     0.2175 3.0808e+02     0.1855      0.122      0.177    28.3315 0.0000e+00
      0.152      0.066     8.1942    104.866    117.138 124.837649     0.2179 2.8758e+02     0.1779      0.148      0.216    28.3264 0.0000e+00
      0.177      0.070     8.1814    104.993    117.097 124.785828     0.2264 3.0404e+02     0.2059      0.178      0.258    28.3137 0.0000e+00
      0.195      0.070     8.1716    105.189    116.991 124.666088     0.2335 3.1419e+02     0.2155      0.194      0.281    28.2982 0.0000e+00
      0.207      0.063     8.1593    105.411    117.016 124.685805     0.2345 2.9975e+02     0.1912      0.200      0.290    28.2853 0.0000e+00
      0.222      0.052     8.1623    105.584    117.144 124.819598     0.2462 2.9535e+02     0.1862      0.215      0.313    28.2784 0.0000e+00
      0.240      0.040     8.1743    105.665    117.226 124.919628     0.2710 2.9708e+02     0.1902      0.241      0.348    28.2761 0.0000e+00
      0.252      0.029     8.1902    105.695    117.280 125.008575     0.2826 2.9422e+02     0.2050      0.250      0.362    28.2731 0.0000e+00
      0.256      0.018     8.2108    105.744    117.295 125.076603     0.2920 2.9822e+02     0.2281      0.252      0.365    28.2696 0.0000e+00
      0.256      0.008     8.2266    105.825    117.283 125.128356     0.2889 2.9737e+02     0.2299      0.252      0.366    28.2672 0.0000e+00
      0.253      0.001     8.2304    105.867    117.315 125.225162     0.2544 2.8782e+02     0.2607      0.248      0.360    28.2709 0.0000e+00
      0.250      0.000     8.2286    105.855    117.334 125.292262     0.2294 2.9395e+02     0.3248      0.245      0.354    28.2855 0.0000e+00
      0.249      0.003     8.2274    105.829    117.270 125.257640     0.2296 2.9880e+02     0.3881      0.243      0.352    28.3080 0.0000e+00
      0.250      0.011     8.2336    105.775    117.214 125.215851     0.2399 2.8761e+02     0.4426      0.244      0.355    28.3384 0.0000e+00
      0.254      0.023     8.2332    105.748    117.198 125.196276     0.2407 2.8755e+02     0.4680      0.247      0.360    28.3673 0.0000e+00
      0.259      0.034     8.2254    105.825    117.184 125.157379     0.2225 2.8796e+02     0.4554      0.253      0.367    28.3870 0.0000e+00
      0.269      0.041     8.2255    106.008    117.222 125.154759     0.2103 2.8371e+02     0.4274      0.260      0.377    28.4004 0.0000e+00
      0.285      0.045     8.2162    106.198    117.285 125.164532     0.2153 2.8428e+02     0.4031      0.277      0.403    28.4097 0.0000e+00
      0.303      0.044     8.2122    106.228    117.314 125.139035     0.2212 2.8007e+02     0.3681      0.299      0.434    28.4091 0.0000e+00
      0.317      0.039     8.2194    106.005    117.332 125.119213     0.2217 2.7117e+02     0.3473      0.312      0.454    28.3979 0.0000e+00
      0.326      0.031     8.2390    105.638    117.299 125.061222     0.2215 2.6417e+02     0.3574      0.321      0.466    28.3798 0.0000e+00
      0.330      0.023     8.2635    105.303    117.236 124.983503     0.2266 2.6437e+02     0.3194      0.325      0.472    28.3515 0.0000e+00
      0.331      0.019     8.2732    105.075    117.251 124.997998     0.2313 2.6199e+02     0.2308      0.325      0.471    28.3251 0.0000e+00
      0.331      0.019     8.2548    104.994    117.348 125.100058     0.2260 2.5633e+02     0.1788      0.324      0.469    28.3094 0.0000e+00
      0.334      0.024     8.2194    105.055    117.378 125.126171     0.2231 2.5658e+02     0.1721      0.326      0.473    28.3002 0.0000e+00
      0.340      0.033     8.1951    105.209    117.308 125.040889     0.2399 2.5860e+02     0.1836      0.333      0.483    28.2963 0.0000e+00
      0.350      0.043     8.1744    105.366    117.305 125.023813     0.2653 2.6367e+02     0.1802      0.343      0.496    28.2971 0.0000e+00
      0.364      0.052     8.1689    105.461    117.349 125.056103     0.2792 2.7024e+02     0.1661      0.357      0.517    28.2973 0.0000e+00
      0.381      0.060     8.1752    105.539    117.327 125.022025     0.2860 2.7270e+02     0.1491      0.373      0.541    28.2948 0.0000e+00
      0.399      0.068     8.1902    105.640    117.332 125.021007     0.2873 2.7587e+02     0.1466      0.393      0.570    28.2903 0.0000e+00
      0.415      0.076     8.2074    105.721    117.358 125.043792     0.2856 2.7752e+02     0.1706      0.408      0.592    28.2829 0.0000e+00
      0.432      0.083     8.2122    105.713    117.280 124.956461     0.2908 2.7230e+02     0.1652      0.421      0.611    28.2760 0.0000e+00
      0.454      0.089     8.2177    105.583    117.121 124.783579     0.2907 2.7003e+02     0.1498      0.443      0.643    28.2716 0.0000e+00
      0.481      0.096     8.2274    105.388    117.006 124.658674     0.2838 2.7346e+02     0.1562      0.472      0.685    28.2694 0.0000e+00
      0.509      0.106     8.2365    105.265    117.022 124.673961     0.2856 2.7395e+02     0.1730      0.500      0.727    28.2675 0.0000e+00
      0.535      0.116     8.2371    105.275    117.044 124.695591     0.2858 2.6600e+02     0.1818      0.525      0.762    28.2657 0.0000e+00
      0.561      0.123     8.2261    105.327    117.003 124.647365     0.2781 2.5624e+02     0.1597      0.546      0.793    28.2644 0.0000e+00
      0.593      0.124     8.2063    105.370    117.002 124.636518     0.2786 2.5274e+02     0.0769      0.578      0.839    28.2634 0.0000e+00
      0.633      0.119     8.1930    105.431    117.079 124.700835     0.2841 2.4982e+02    -0.0633      0.621      0.901    28.2628 0.0000e+00
      0.672      0.112     8.2001    105.524    117.141 124.742912     0.2840 2.4241e+02    -0.1628      0.663      0.962    28.2622 0.0000e+00
      0.702      0.103     8.2048    105.659    117.160 124.735977     0.2865 2.3691e+02    -0.1634      0.694      1.006    28.2610 0.0000e+00
      0.720      0.097     8.2069    105.826    117.205 124.753353     0.2874 2.3821e+02    -0.1050      0.708      1.026    28.2575 0.0000e+00
      0.734      0.092     8.2132    105.934    117.171 124.680123     0.2770 2.3890e+02    -0.0759      0.719      1.041    28.2494 0.0000e+00
      0.751      0.090     8.2216    105.863    117.074 124.532570     0.2732 2.3849e+02    -0.0860      0.735      1.065    28.2382 0.0000e+00
      0.775      0.094     8.2335    105.655    117.057 124.469782     0.2766 2.4086e+02    -0.0904      0.756      1.096    28.2264 0.0000e+00
      0.807      0.103     8.2501    105.450    117.098 124.466539     0.2741 2.4101e+02    -0.0941      0.791      1.147    28.2146 0.0000e+00
      0.839      0.115     8.2674    105.250    117.171 124.493284     0.2791 2.3851e+02    -0.0970      0.828      1.202    28.1993 0.0000e+00
      0.863      0.129     8.2622    104.997    117.246 124.520248     0.2848 2.3723e+02    -0.0909      0.846      1.226    28.1785 0.0000e+00
      0.889      0.145     8.2430    104.757    117.292 124.519633     0.2820 2.3866e+02    -0.0884      0.865      1.256    28.1596 0.0000e+00
      0.925      0.161     8.2295    104.507    117.300 124.485770     0.2795 2.4133e+02    -0.1019      0.905      1.312    28.1406 0.0000e+00
      0.971      0.174     8.2230    104.194    117.298 124.451774     0.2897 2.3910e+02    -0.0471      0.950      1.377    28.1178 0.0000e+00
      1.026      0.183     8.2005    104.059    117.317 124.449561     0.3186 2.3348e+02     0.0932      1.003      1.455    28.0954 0.0000e+00
      1.085      0.183     8.1849    104.305    117.277 124.390774     0.3430 2.3151e+02     0.1523      1.069      1.549    28.0732 0.0000e+00
      1.135      0.171     8.1766    104.793    117.191 124.286608     0.3506 2.2951e+02     0.1525      1.117      1.621    28.0542 0.0000e+00
      1.177      0.148     8.1414    105.256    117.195 124.281368     0.3493 2.2599e+02     0.1986      1.154      1.674    28.0410 0.0000e+00
      1.213      0.122     8.1243    105.579    117.245 124.327408     0.3448 2.2698e+02     0.1947      1.193      1.732    28.0325 0.0000e+00
      1.241      0.097     8.1510    105.794    117.157 124.229406     0.3392 2.3141e+02     0.1394      1.221      1.773    28.0259 0.0000e+00
      1.257      0.082     8.1994    105.899    117.057 124.119510     0.3337 2.3479e+02     0.1136      1.236      1.792    28.0200 0.0000e+00
      1.267      0.077     8.2395    105.869    117.100 124.158145     0.3388 2.3547e+02     0.1233      1.243      1.802    28.0158 0.0000e+00
      1.278      0.079     8.2614    105.683    117.105 124.150887     0.3503 2.3477e+02     0.1542      1.250      1.813    28.0132 0.0000e+00
      1.295      0.087     8.2799    105.368    117.007 124.031731     0.3505 2.3879e+02     0.1780      1.265      1.835    28.0124 0.0000e+00
      1.322      0.099     8.2889    105.123    116.943 123.945108     0.3406 2.4628e+02     0.1704      1.292      1.874    28.0107 0.0000e+00
      1.357      0.110     8.2871    105.115    116.946 123.921963     0.3346 2.5228e+02     0.2002      1.332      1.932    28.0077 0.0000e+00
      1.391      0.115     8.2750    105.236    116.947 123.888251     0.3396 2.5696e+02     0.2974      1.367      1.982    28.0026 0.0000e+00
      1.419      0.111     8.2443    105.347    116.975 123.878465     0.3476 2.5717e+02     0.3503      1.391      2.017    27.9953 0.0000e+00
      1.448      0.101     8.2179    105.451    117.002 123.871778     0.3541 2.5520e+02     0.3595      1.419      2.059    27.9877 0.0000e+00
      1.477      0.088     8.2251    105.496    116.975 123.807339     0.3667 2.5480e+02     0.3730      1.452      2.106    27.9779 0.0000e+00
      1.499      0.076     8.2430    105.397    116.986 123.781331     0.3870 2.6201e+02     0.3764      1.472      2.136    27.9617 0.0000e+00
      1.513      0.069     8.2506    105.199    116.937 123.693664     0.3996 2.7620e+02     0.3663      1.483      2.152    27.9431 0.0000e+00
      1.523      0.067     8.2633    105.054    116.790 123.497545     0.4062 2.7930e+02     0.3546      1.493      2.167    27.9290 0.0000e+00
      1.534      0.071     8.2730    105.119    116.734 123.387917     0.4153 2.7851e+02     0.3717      1.503      2.181    27.9147 0.0000e+00
      1.549      0.081     8.2657    105.396    116.724 123.322918     0.4138 2.8240e+02     0.4022      1.515      2.198    27.8965 0.0000e+00
      1.573      0.096     8.2481    105.703    116.648 123.188983     0.4059 2.8192e+02     0.4142      1.540      2.234    27.8827 0.0000e+00
      1.602      0.109     8.2329    105.839    116.645 123.132474     0.4068 2.8552e+02     0.4127      1.571      2.280    27.8677 0.0000e+00
      1.634      0.119     8.2412    105.795    116.741 123.185211     0.4077 2.8681e+02     0.3850      1.601      2.321    27.8424 0.0000e+00
      1.670      0.123     8.2729    105.740    116.807 123.212723     0.4079 2.8168e+02     0.3542      1.637      2.373    27.8198 0.0000e+00
      1.707      0.123     8.3070    105.729    116.826 123.192249     0.4176 2.8275e+02     0.3840      1.676      2.430    27.7973 0.0000e+00
      1.739      0.121     8.3228    105.619    116.762 123.074001     0.4208 2.8901e+02     0.4352      1.707      2.477    27.7731 0.0000e+00
      1.765      0.121     8.3131    105.244    116.703 122.942345     0.4120 2.9920e+02     0.4246      1.730      2.510    27.7525 0.0000e+00
      1.790      0.121     8.3110    104.686    116.740 122.896128     0.4063 3.0910e+02     0.3928      1.753      2.544    27.7349 0.0000e+00
      1.819      0.121     8.3166    104.243    116.722 122.787859     0.4039 3.1468e+02     0.3942      1.783      2.586    27.7199 0.0000e+00
      1.853      0.126     8.3182    104.043    116.679 122.656140     0.4007 3.2589e+02     0.4068      1.816      2.634    27.6992 0.0000e+00
      1.888      0.134     8.2919    103.993    116.705 122.599206     0.4116 3.3910e+02     0.4765      1.852      2.686    27.6699 0.0000e+00
      1.922      0.139     8.2396    103.985    116.692 122.508537     0.4391 3.3969e+02     0.5847      1.886      2.735    27.6306 0.0000e+00
      1.956      0.139     8.2086    104.012    116.689 122.446353     0.4566 3.3597e+02     0.6510      1.915      2.778    27.5906 0.0000e+00
      1.995      0.138     8.2019    104.100    116.740 122.461050     0.4580 3.3780e+02     0.6947      1.954      2.833    27.5548 0.0000e+00
      2.036      0.138     8.2073    104.191    116.730 122.413379     0.4728 3.3866e+02     0.7011      2.002      2.902    27.5178 0.0000e+00
      2.070      0.138     8.2112    104.176    116.653 122.279105     0.5059 3.3736e+02     0.6589      2.034      2.949    27.4830 0.0000e+00
      2.096      0.138     8.2154    104.023    116.641 122.201456     0.5299 3.4254e+02     0.6314      2.052      2.976    27.4566 0.0000e+00
      2.129      0.138     8.2264    103.858    116.651 122.156419     0.5370 3.4650e+02     0.6434      2.082      3.020    27.4429 0.0000e+00
      2.170      0.138     8.2392    103.810    116.612 122.075468     0.5398 3.4292e+02     0.7005      2.131      3.090    27.4321 0.0000e+00
      2.209      0.138     8.2433    103.820    116.674 122.109193     0.5545 3.3929e+02     0.8073      2.170      3.147    27.4070 0.0000e+00
      2.242      0.134     8.2319    103.848    116.804 122.223144     0.5761 3.3929e+02     0.9048      2.195      3.185    27.3747 0.0000e+00
      2.277      0.125     8.2151    103.955    116.885 122.293831     0.5753 3.4178e+02     0.9173      2.231      3.236    27.3511 0.0000e+00
      2.312      0.115     8.2190    104.145    116.885 122.281839     0.5624 3.4395e+02     0.9246      2.272      3.295    27.3351 0.0000e+00
      2.342      0.108     8.2237    104.320    116.832 122.214534     0.5674 3.4409e+02     1.0623      2.300      3.336    27.3214 0.0000e+00
      2.362      0.106     8.2224    104.320    116.796 122.162032     0.5764 3.3981e+02     1.2080      2.316      3.359    27.3117 0.0000e+00
      2.380      0.107     8.2334    104.108    116.710 122.056212     0.5753 3.3571e+02     1.2100      2.332      3.383    27.3065 0.0000e+00
      2.405      0.111     8.2497    103.686    116.633 121.958017     0.5712 3.3443e+02     1.0868      2.356      3.418    27.3023 0.0000e+00
      2.436      0.116     8.2729    103.035    116.687 121.997702     0.5697 3.3437e+02     0.9534      2.387      3.462    27.2970 0.0000e+00
      2.473      0.123     8.2725    102.352    116.757 122.058620     0.5748 3.2952e+02     0.9028      2.425      3.518    27.2909 0.0000e+00
      2.510      0.127     8.2552    101.969    116.789 122.080767     0.5811 3.2533e+02     0.8870      2.464      3.574    27.2841 0.0000e+00
      2.541      0.125     8.2275    102.003    116.845 122.129072     0.5938 3.2534e+02     0.9330      2.492      3.614    27.2756 0.0000e+00
      2.571      0.116     8.1704    102.325    116.824 122.097048     0.6157 3.2431e+02     1.0475      2.520      3.655    27.2685 0.0000e+00
      2.603      0.102     8.1043    102.753    116.641 121.898147     0.6295 3.2439e+02     1.1381      2.554      3.705    27.2636 0.0000e+00
      2.632      0.082     8.0711    103.085    116.523 121.770114     0.6302 3.2117e+02     1.1705      2.583      3.746    27.2591 0.0000e+00
      2.655      0.057     8.0811    103.229    116.595 121.844764     0.6325 3.1785e+02     1.0959      2.607      3.781    27.2544 0.0000e+00
      2.667      0.028     8.1109    103.299    116.719 121.982364     0.6406 3.1911e+02     0.9575      2.620      3.800    27.2496 0.0000e+00
      2.670     -0.001     8.1522    103.396    116.850 122.138079     0.6408 3.2025e+02     0.9042      2.621      3.802    27.2461 0.0000e+00
      2.663     -0.021     8.1833    103.485    116.914 122.227162     0.6351 3.2236e+02     0.9321      2.615      3.792    27.2442 0.0000e+00
      2.647     -0.029     8.1884    103.500    116.847 122.172912     0.6148 3.2808e+02     0.9180      2.598      3.768    27.2436 0.0000e+00
      2.626     -0.024     8.1903    103.439    116.711 122.027763     0.5776 3.3060e+02     0.9050      2.573      3.731    27.2466 0.0000e+00
      2.611     -0.010     8.1987    103.372    116.613 121.904346     0.5577 3.3006e+02     0.9470      2.555      3.705    27.2548 0.0000e+00
      2.611      0.009     8.2068    103.377    116.641 121.908211     0.5570 3.2950e+02     0.9456      2.556      3.707    27.2664 0.0000e+00
      2.625      0.029     8.2064    103.415    116.689 121.938071     0.5771 3.2388e+02     0.8873      2.572      3.731    27.2758 0.0000e+00
      2.644      0.046     8.1997    103.335    116.688 121.924349     0.6188 3.1924e+02     0.8601      2.594      3.763    27.2744 0.0000e+00
      2.661      0.057     8.1932    103.156    116.652 121.878673     0.6366 3.2046e+02     0.8914      2.612      3.788    27.2625 0.0000e+00
      2.674      0.065     8.1948    103.030    116.578 121.794983     0.6281 3.1844e+02     0.9225      2.622      3.803    27.2503 0.0000e+00
      2.687      0.073     8.2078    103.000    116.590 121.799017     0.6276 3.1138e+02     0.9955      2.633      3.819    27.2418 0.0000e+00
      2.703      0.082     8.2006    103.030    116.660 121.859242     0.6305 3.0548e+02     1.1222      2.649      3.842    27.2363 0.0000e+00
      2.723      0.092     8.1795    103.050    116.657 121.841157     0.6286 3.0110e+02     1.1838      2.668      3.869    27.2335 0.0000e+00
      2.750      0.101     8.1705    103.038    116.682 121.853117     0.6313 2.9414e+02     1.1910      2.694      3.907    27.2312 0.0000e+00
      2.785      0.108     8.1691    103.045    116.772 121.935622     0.6458 2.8583e+02     1.2094      2.732      3.963    27.2278 0.0000e+00
      2.817      0.112     8.1750    103.068    116.799 121.952117     0.6733 2.7806e+02     1.2006      2.765      4.010    27.2228 0.0000e+00
      2.844      0.115     8.1791    102.997    116.714 121.847949     0.6947 2.7183e+02     1.1526      2.789      4.045    27.2154 0.0000e+00
      2.869      0.115     8.1757    102.761    116.593 121.699073     0.6969 2.6555e+02     1.1445      2.812      4.079    27.2086 0.0000e+00
      2.897      0.113     8.1768    102.493    116.570 121.652375     0.6828 2.5830e+02     1.1029      2.840      4.119    27.2044 0.0000e+00
      2.929      0.112     8.1832    102.396    116.627 121.692477     0.6637 2.5200e+02     0.9579      2.871      4.166    27.2006 0.0000e+00
      2.961      0.113     8.1828    102.487    116.719 121.774735     0.6482 2.4543e+02     0.8669      2.906      4.215    27.1941 0.0000e+00
      2.990      0.113     8.1603    102.589    116.782 121.828549     0.6246 2.3963e+02     0.8619      2.933      4.253    27.1835 0.0000e+00
      3.016      0.111     8.1327    102.582    116.763 121.797538     0.6121 2.3440e+02     0.8633      2.956      4.287    27.1724 0.0000e+00
      3.043      0.108     8.1256    102.507    116.784 121.808955     0.6277 2.2832e+02     0.8836      2.984      4.328    27.1644 0.0000e+00
      3.072      0.104     8.1407    102.405    116.811 121.830179     0.6391 2.2174e+02     0.9009      3.012      4.369    27.1588 0.0000e+00
      3.100      0.100     8.1546    102.319    116.768 121.781345     0.6372 2.1569e+02     0.9018      3.043      4.414    27.1542 0.0000e+00
      3.125      0.097     8.1502    102.273    116.754 121.764086     0.6401 2.1037e+02     0.8591      3.067      4.448    27.1489 0.0000e+00
      3.147      0.093     8.1455    102.177    116.750 121.757895     0.6476 2.0540e+02     0.7283      3.086      4.475    27.1442 0.0000e+00
      3.170      0.090     8.1364    101.988    116.706 121.706479     0.6506 2.0052e+02     0.6251      3.109      4.509    27.1417 0.0000e+00
      3.191      0.090     8.1271    101.822    116.696 121.687985     0.6502 1.9597e+02     0.6412      3.130      4.540    27.1400 0.0000e+00
      3.212      0.093     8.1284    101.787    116.686 121.670674     0.6600 1.9113e+02     0.7514      3.150      4.568    27.1393 0.0000e+00
      3.235      0.097     8.1232    101.828    116.657 121.633548     0.6823 1.8568e+02     0.8590      3.172      4.600    27.1385 0.0000e+00
      3.261      0.100     8.1037    101.872    116.678 121.648269     0.7032 1.8041e+02     0.8776      3.196      4.636    27.1360 0.0000e+00
      3.290      0.103     8.0859    101.963    116.747 121.712258     0.7137 1.7568e+02     0.9076      3.227      4.680    27.1327 0.0000e+00
      3.320      0.107     8.0872    102.135    116.770 121.725234     0.7216 1.7143e+02     1.1186      3.257      4.724    27.1292 0.0000e+00
      3.345      0.110     8.0944    102.335    116.728 121.668755     0.7386 1.6768e+02     1.4376      3.281      4.759    27.1264 0.0000e+00
      3.370      0.112     8.0950    102.494    116.650 121.574940     0.7545 1.6419e+02     1.6064      3.302      4.791    27.1236 0.0000e+00
      3.398      0.112     8.1015    102.594    116.568 121.477458     0.7576 1.6030e+02     1.6833      3.330      4.829    27.1200 0.0000e+00
      3.430      0.112     8.1182    102.643    116.611 121.513038     0.7673 1.5663e+02     2.1610      3.364      4.878    27.1156 0.0000e+00
      3.462      0.114     8.1371    102.569    116.762 121.664131     0.7939 1.5323e+02     2.9879      3.396      4.926    27.1100 0.0000e+00
      3.492      0.119     8.1512    102.236    116.835 121.735768     0.8103 1.5008e+02     3.4404      3.425      4.968    27.1040 0.0000e+00
      3.518      0.125     8.1583    101.556    116.802 121.697210     0.8179 1.4770e+02     3.5124      3.450      5.004    27.0989 0.0000e+00
      3.543      0.130     8.1653    100.637    116.718 121.607099     0.8244 1.4548e+02     3.6879      3.473      5.036    27.0948 0.0000e+00
      3.577      0.132     8.1641     99.791    116.648 121.532802     0.8199 1.4281e+02     3.9824      3.503      5.080    27.0922 0.0000e+00
      3.619      0.130     8.1416     99.250    116.664 121.549048     0.8161 1.3998e+02     4.1548      3.550      5.147    27.0907 0.0000e+00
      3.662      0.126     8.0855     98.991    116.712 121.598938     0.8226 1.3777e+02     4.1928      3.595      5.214    27.0889 0.0000e+00
      3.697      0.118     8.0009     98.925    116.769 121.658638     0.8366 1.3676e+02     4.2704      3.630      5.264    27.0877 0.0000e+00
      3.720      0.107     7.9257     99.064    116.832 121.725301     0.8558 1.3646e+02     4.4073      3.650      5.292    27.0874 0.0000e+00
      3.739      0.096     7.8854     99.410    116.830 121.722979     0.8738 1.3599e+02     4.4745      3.663      5.314    27.0869 0.0000e+00
      3.761      0.088     7.8694     99.878    116.741 121.630557     0.8887 1.3559e+02     4.4985      3.689      5.350    27.0868 0.0000e+00
      3.784      0.084     7.8616    100.305    116.675 121.562600     0.9405 1.3555e+02     4.8006      3.712      5.384    27.0871 0.0000e+00
      3.804      0.081     7.8723    100.537    116.694 121.583283     1.0240 1.3564e+02     5.3461      3.730      5.411    27.0877 0.0000e+00
      3.825      0.076     7.9023    100.537    116.717 121.607850     1.0655 1.3579e+02     5.6361      3.751      5.441    27.0878 0.0000e+00
      3.846      0.069     7.9443    100.342    116.696 121.586854     1.0773 1.3632e+02     5.6975      3.774      5.473    27.0877 0.0000e+00
      3.865      0.060     7.9842     99.989    116.579 121.465804     1.1677 1.3729e+02     6.1565      3.792      5.501    27.0879 0.0000e+00
      3.880      0.050     8.0024     99.519    116.423 121.303590     1.3258 1.3840e+02     6.9977      3.806      5.520    27.0884 0.0000e+00
      3.890      0.041     8.0009     98.998    116.383 121.262254     1.4110 1.3988e+02     7.4903      3.816      5.534    27.0888 0.0000e+00
      3.897      0.034     7.9845     98.545    116.426 121.307001     1.4350 1.4214e+02     7.6157      3.821      5.544    27.0890 0.0000e+00
      3.902      0.029     7.9554     98.314    116.484 121.367247     1.6070 1.4479e+02     8.4111      3.827      5.551    27.0895 0.0000e+00
      3.907      0.026     7.9164     98.363    116.559 121.445112     1.9126 1.4723e+02     9.8976      3.831      5.556    27.0895 0.0000e+00
      3.914      0.025     7.8721     98.616    116.609 121.498306     2.0780 1.4925e+02    10.7222      3.837      5.566    27.0897 0.0000e+00
      3.922      0.025     7.8302     98.953    116.575 121.464836     2.0989 1.5049e+02    10.8622      3.847      5.579    27.0896 0.0000e+00
      3.929      0.023     7.8099     99.229    116.492 121.381411     2.1130 1.5042e+02    11.1444      3.853      5.588    27.0893 0.0000e+00
      3.936      0.018     7.8173     99.370    116.420 121.307991     2.1957 1.4862e+02    11.6629      3.859      5.599    27.0898 0.0000e+00
      3.942      0.001     7.8400     99.479    116.437 121.327280     2.3364 1.4619e+02    12.0835      3.867      5.609    27.0898 0.0000e+00
      3.946     -0.038     7.8714     99.653    116.644 121.546440     2.4011 1.4720e+02    12.2134      3.872      5.616    27.0907 0.0000e+00
      3.946     -0.102     7.8970     99.881    116.854 121.775546     2.3713 1.5469e+02    12.2724      3.873      5.617    27.0923 0.0000e+00
      3.935     -0.188     7.9031    100.180    116.903 121.846904     2.0113 1.6639e+02    12.7271      3.866      5.607    27.0927 0.0000e+00
      3.895     -0.284     7.9071    100.490    116.884 121.863701     1.3421 1.7934e+02    13.5231      3.841      5.571    27.0933 0.0000e+00
      3.804     -0.378     7.9249    100.702    116.807 121.842310     0.9733 1.9429e+02    13.9312      3.748      5.437    27.0936 0.0000e+00
      3.666     -0.455     7.9393    100.886    116.165 121.247381     0.9333 2.1199e+02    13.7140      3.599      5.220    27.0977 0.0000e+00
      3.511     -0.506     7.9628    101.158    115.479 120.603410     0.8671 2.3172e+02    10.8621      3.443      4.993    27.1069 0.0000e+00
      3.356     -0.523     7.9935    101.583    115.884 121.080203     0.7534 2.5239e+02     5.6452      3.284      4.764    27.1189 0.0000e+00
      3.215     -0.509     8.0010    102.187    116.509 121.761511     0.7029 2.7138e+02     2.8222      3.149      4.568    27.1458 0.0000e+00
      3.087     -0.474     8.0067    102.817    116.623 121.885326     0.7083 2.8893e+02     2.5481      3.023      4.383    27.1826 0.0000e+00
      2.977     -0.429     8.0237    103.335    116.641 121.895280     0.6877 3.0693e+02     2.1593      2.912      4.223    27.2147 0.0000e+00
      2.879     -0.383     8.0500    103.798    116.709 121.950050     0.6535 3.2609e+02     1.5202      2.827      4.100    27.2400 0.0000e+00
      2.782     -0.343     8.1022    104.118    116.709 121.933743     0.6340 3.4638e+02     1.2070      2.725      3.953    27.2514 0.0000e+00
      2.697     -0.312     8.1600    104.100    116.689 121.902684     0.6251 3.6164e+02     1.1880      2.634      3.819    27.2514 0.0000e+00
      2.632     -0.291     8.1943    103.852    116.770 121.983698     0.6240 3.7217e+02     1.2211      2.583      3.745    27.2472 0.0000e+00
      2.572     -0.282     8.2345    103.620    116.810 122.026703     0.6280 3.8383e+02     1.2988      2.527      3.665    27.2393 0.0000e+00
      2.506     -0.284     8.2733    103.474    116.792 122.013479     0.6310 3.9329e+02     1.3374      2.456      3.562    27.2307 0.0000e+00
      2.439     -0.291     8.2660    103.383    116.734 121.960223     0.6259 4.0149e+02     1.3100      2.392      3.470    27.2256 0.0000e+00
      2.366     -0.297     8.2362    103.268    116.634 121.860199     0.6186 4.1657e+02     1.2085      2.330      3.378    27.2252 0.0000e+00
      2.275     -0.301     8.2184    103.031    116.604 121.827076     0.6202 4.3473e+02     1.1052      2.235      3.242    27.2259 0.0000e+00
      2.180     -0.302     8.2072    102.737    116.741 121.968932     0.6282 4.5044e+02     1.0916      2.125      3.082    27.2278 0.0000e+00
      2.109     -0.302     8.2007    102.566    116.906 122.143209     0.6368 4.6228e+02     1.1465      2.060      2.989    27.2321 0.0000e+00
      2.050     -0.304     8.1966    102.548    116.920 122.161093     0.6285 4.7509e+02     1.1858      2.020      2.930    27.2348 0.0000e+00
      1.977     -0.310     8.1758    102.555    116.874 122.116989     0.5977 4.9419e+02     1.1548      1.943      2.817    27.2331 0.0000e+00
      1.897     -0.321     8.1449    102.531    116.772 122.019168     0.5767 5.2114e+02     1.1149      1.855      2.690    27.2317 0.0000e+00
      1.817     -0.335     8.1303    102.564    116.616 121.864946     0.5734 5.5737e+02     1.1156      1.790      2.596    27.2334 0.0000e+00
      1.722     -0.349     8.1345    102.707    116.175 121.411696     0.5578 6.1922e+02     1.0940      1.696      2.461    27.2345 0.0000e+00
      1.617     -0.357     8.1372    102.927    111.050 116.061602     0.5356 6.6962e+02     0.9912      1.576      2.285    27.2358 0.0000e+00
      1.527     -0.363     8.1301    103.182     53.933  56.290907     0.5310 6.5604e+02     0.9030      1.494      2.166    27.2402 0.0000e+00
      1.444     -0.371     8.1301    103.381   -575.060-602.225075     0.5284 6.3856e+02     0.8856      1.424      2.065    27.2446 0.0000e+00
      1.352     -0.376     8.1438    103.467  -1151.711 -1.206e+03     0.4944 6.4718e+02     0.8147      1.325      1.921    27.2471 0.0000e+00
      1.257     -0.381     8.1604    103.567   -575.093-601.673608     0.4415 6.6397e+02     0.6989      1.232      1.787    27.2516 0.0000e+00
      1.157     -0.388     8.1810    103.805     54.041  56.957707     0.4171 6.8995e+02     0.6523      1.143      1.657    27.2656 0.0000e+00
      1.048     -0.392     8.1992    104.208    111.407 117.171967     0.4167 7.0344e+02     0.6286      1.025      1.487    27.2866 0.0000e+00
      0.942     -0.390     8.1936    104.769    116.716 122.899167     0.3932 7.7687e+02     0.4815      0.918      1.332    27.3357 0.0000e+00
      0.845     -0.387     8.1826    105.340    117.208 123.545166     0.3408 1.0181e+03     0.2469      0.833      1.208    27.4266 0.0000e+00
      0.749     -0.384     8.1915    105.725    117.321 123.755236     0.3043 1.1839e+03     0.1271      0.732      1.061    27.4999 0.0000e+00
      0.656     -0.377     8.2120    105.896    117.336 123.870556     0.2898 1.0138e+03     0.1306      0.640      0.928    27.5617 0.0000e+00
      0.565     -0.364     8.2482    105.919    117.277 123.916605     0.2515 8.5130e+02     0.1868      0.563      0.817    27.6507 0.0000e+00
      0.464     -0.340     8.2932    105.874    117.297 124.039365     0.1967 9.5288e+02     0.2235      0.456      0.661    27.7064 0.0000e+00
      0.362     -0.300     8.3190    105.867    117.335 124.195510     0.1738 1.1208e+03     0.1957      0.347      0.502    27.7290 0.0000e+00
      0.278     -0.246     8.3230    105.907    117.318 124.304215     0.1738 1.1526e+03     0.1606      0.268      0.389    27.7768 0.0000e+00
      0.216     -0.182     8.3164    105.972    117.247 124.330820     0.1883 1.2781e+03     0.1422      0.200      0.291    27.8271 0.0000e+00
      0.182     -0.113     8.3024    106.116    117.177 124.312739     0.2182 1.5121e+03     0.1452      0.168      0.243    27.8641 0.0000e+00
      0.177     -0.050     8.2950    106.302    117.143 124.290302     0.2318 1.3879e+03     0.1612      0.171      0.248    27.9131 0.0000e+00
      0.184     -0.001     8.2921    106.347    117.093 124.195968     0.2318 1.1834e+03     0.1989      0.179      0.260    27.9758 0.0000e+00
      0.197      0.029     8.2855    106.126    117.100 124.126960     0.2443 1.0635e+03     0.3947      0.192      0.279    28.0231 0.0000e+00
      0.212      0.040     8.2949    105.730    117.159 124.137853     0.2711 9.3068e+02     0.7099      0.207      0.301    28.0426 0.0000e+00
      0.229      0.038     8.3146    105.385    117.084 124.054771     0.2863 1.0257e+03     0.8510      0.226      0.327    28.0532 0.0000e+00
      0.243      0.035     8.3257    105.229    116.966 123.940876     0.2813 1.0827e+03     0.8649      0.243      0.351    28.0352 0.0000e+00
      0.248      0.035     8.3124    105.224    117.010 123.988472     0.2791 9.9249e+02     0.9460      0.246      0.358    27.9866 0.0000e+00
      0.244      0.038     8.2766    105.268    117.100 124.084609     0.2855 1.1299e+03     1.0769      0.239      0.347    27.9620 0.0000e+00
      0.244      0.035     8.2447    105.366    117.149 124.148385     0.2892 1.3824e+03     1.1432      0.233      0.338    27.9686 0.0000e+00
      0.259      0.017     8.2325    105.549    117.257 124.282174     0.2900 1.4056e+03     1.1292      0.249      0.361    27.9777 0.0000e+00
      0.286     -0.022     8.2377    105.721    117.292 124.338159     0.2862 1.2928e+03     1.1478      0.283      0.411    27.9754 0.0000e+00
      0.306     -0.078     8.2404    105.775    117.220 124.279691     0.2779 1.1497e+03     1.1963      0.311      0.452    27.9727 0.0000e+00
      0.293     -0.143     8.2436    105.681    117.289 124.393747     0.2765 1.2049e+03     1.2013      0.305      0.443    27.9798 0.0000e+00
      0.233     -0.212     8.2619    105.541    117.405 124.625967     0.2782 1.5773e+03     1.1740      0.242      0.352    27.9883 0.0000e+00
      0.139     -0.271     8.2765    105.491    117.395 124.768602     0.2375 1.7348e+03     1.2775      0.136      0.197    27.9985 0.0000e+00
      0.040     -0.304     8.2812    105.442    117.369 124.890870     0.1580 1.7047e+03     1.5259      0.031      0.044    28.0037 0.0000e+00
     -0.046     -0.302     8.2712    105.213    117.346 125.013210     0.1130 1.8041e+03     1.6717     -0.044     -0.064    28.0073 0.0000e+00
     -0.129     -0.277     8.2447    104.710    117.276 125.088505     0.1011 1.8930e+03     1.6330     -0.122     -0.179    28.0603 0.0000e+00
     -0.206     -0.244     8.2336    103.670    117.177 125.119426     0.0926 1.8719e+03     1.2980     -0.218     -0.317    28.1392 0.0000e+00
     -0.254     -0.214     8.2297    101.821    117.094 125.114469     0.0972 1.7088e+03     0.7453     -0.257     -0.373    28.1955 0.0000e+00
     -0.285     -0.188     8.2004     99.486    117.034 125.028711     0.1050 1.4976e+03     0.4433     -0.272     -0.395    28.2599 0.0000e+00
     -0.323     -0.160     8.1592     97.394    116.973 124.832791     0.1172 1.2900e+03     0.1529     -0.315     -0.456    28.3251 0.0000e+00
     -0.372     -0.132     8.0853     96.089    116.984 124.655221     0.2622 1.1080e+03    -2.6975     -0.364     -0.528    28.3882 0.0000e+00
     -0.418     -0.108     7.9223     95.698    117.099 124.586606     0.5322 1.0604e+03    -7.8243     -0.419     -0.606    28.4373 0.0000e+00
     -0.446     -0.084     7.7179     96.009    117.205 124.548524     0.6762 1.0194e+03   -10.5749     -0.446     -0.646    28.4264 0.0000e+00
     -0.454     -0.056     7.5487     96.656    117.226 124.467355     0.6678 8.7373e+02   -10.6177     -0.446     -0.647    28.3616 0.0000e+00
     -0.455     -0.030     7.4559     97.346    117.248 124.423522     0.4392 6.8290e+02    -8.2042     -0.446     -0.647    28.2712 0.0000e+00
     -0.455     -0.012     7.4449     98.053    117.292 124.427675     0.0103 4.8124e+02    -3.7451     -0.447     -0.648    28.1828 0.0000e+00
     -0.455     -0.002     7.4872     98.668    117.272 124.381098    -0.2263 3.5248e+02    -1.3354     -0.446     -0.647    28.1184 0.0000e+00
     -0.455 4.6789e-07     7.5563     98.912    117.240 124.337759    -0.2459 2.9939e+02    -1.1446     -0.447     -0.648    28.0767 0.0000e+00
     -0.454 -9.990e-29     7.6087 -9.990e-29 -9.990e-29 -9.990e-29 -9.990e-29 2.6952e+02 -9.990e-29     -0.445     -0.646    28.0496 0.0000e+00
     -0.454 -9.990e-29     7.6678 -9.990e-29 -9.990e-29 -9.990e-29 -9.990e-29 2.5679e+02 -9.990e-29     -0.445     -0.644    28.0335 0.0000e+00
     -0.454 -9.990e-29     7.7311 -9.990e-29 -9.990e-29 -9.990e-29 -9.990e-29 2.5189e+02 -9.990e-29     -0.446     -0.645    28.0222 0.0000e+00
     -0.454 -9.990e-29     7.7509 -9.990e-29 -9.990e-29 -9.990e-29 -9.990e-29 2.5002e+02 -9.990e-29     -0.445     -0.646    28.0169 0.0000e+00
