* Sea-Bird SBE19plus  Data File:
* FileName = C:\R\Reservoirs\Data\DataNotYetUploadedToEDI\Raw_CTD\RawDownloads\081424_ccr50_S8188_0006.hex
* Software version 2.8.0.119
* Temperature SN = 8188
* Conductivity SN = 8188
* System UpLoad Time = Aug 16 2024 10:38:08
* <ApplicationData>
* <Seaterm232>
* <SoftwareVersion>2.8.0.119</SoftwareVersion>
* <BuildDate>07-Nov-2018</BuildDate>
* </Seaterm232>
* </ApplicationData>
* <InstrumentState>
* <HardwareData DeviceType='SBE19plus' SerialNumber='01908188'>
*
*    <Manufacturer>Sea-Bird Electronics, Inc.</Manufacturer>
*
*    <FirmwareVersion>3.1.8</FirmwareVersion>
*
*    <FirmwareDate>Mar  9 2016 16:22:29</FirmwareDate>
*
*    <CommandSetVersion>1.4</CommandSetVersion>
*
*    <PCBAssembly PCBSerialNum='260079' AssemblyNum='41054K'/>
*
*    <PCBAssembly PCBSerialNum='260083' AssemblyNum='41059E'/>
*
*    <PCBAssembly PCBSerialNum='260085' AssemblyNum='41606B'/>
*
*    <PCBAssembly PCBSerialNum='260081' AssemblyNum='41967C'/>
*
*    <MfgDate>30 Mar 2022</MfgDate>
*
*    <InternalSensors>
*
*       <Sensor id='Main Temperature'>
*
*          <type>temperature0</type>
*
*          <SerialNumber>01908188</SerialNumber>
*
*       </Sensor>
*
*       <Sensor id='Main Conductivity'>
*
*          <type>conductivity-0</type>
*
*          <SerialNumber>01908188</SerialNumber>
*
*       </Sensor>
*
*       <Sensor id='Main Pressure'>
*
*          <type>strain-0</type>
*
*          <SerialNumber>12220741</SerialNumber>
*
*       </Sensor>
*
*    </InternalSensors>
*
*    <ExternalSensors>
*
*       <Sensor id='volt 0'>
*
*          <type>CHL</type>
*
*          <SerialNumber>FLNTURT-7096</SerialNumber>
*
*       </Sensor>
*
*       <Sensor id='volt 1'>
*
*          <type>NTU</type>
*
*          <SerialNumber>FLNTURT-7096</SerialNumber>
*
*       </Sensor>
*
*       <Sensor id='volt 2'>
*
*          <type>OXY</type>
*
*          <SerialNumber>43-4269</SerialNumber>
*
*       </Sensor>
*
*       <Sensor id='volt 3'>
*
*          <type>not assigned</type>
*
*          <SerialNumber>not assigned</SerialNumber>
*
*       </Sensor>
*
*       <Sensor id='volt 4'>
*
*          <type>PAR</type>
*
*          <SerialNumber>PARLOGICSW-2209</SerialNumber>
*
*       </Sensor>
*
*       <Sensor id='volt 5'>
*
*          <type>not assigned</type>
*
*          <SerialNumber>not assigned</SerialNumber>
*
*       </Sensor>
*
*       <Sensor id='serial'>
*
*          <type>WETLABS</type>
*
*          <SerialNumber>FL3-7350</SerialNumber>
*
*       </Sensor>
*
*    </ExternalSensors>
*
* </HardwareData>
* <StatusData DeviceType='SBE19plus' SerialNumber='01908188'>
*
*    <DateTime>2024-08-16T10:35:18</DateTime>
*
*    <LoggingState>not logging</LoggingState>
*
*    <EventSummary numEvents='0'/>
*
*    <Power>
*
*       <vMain>12.4</vMain>
*
*       <vLith>8.6</vLith>
*
*       <iMain>61.7</iMain>
*
*       <iPump>49.8</iPump>
*
*       <iExt01>21.9</iExt01>
*
*       <iExt2345>21.1</iExt2345>
*
*       <iSerial>55.5</iSerial>
*
*    </Power>
*
*    <MemorySummary>
*
*       <Bytes>279875</Bytes>
*
*       <Samples>11195</Samples>
*
*       <SamplesFree>2620730</SamplesFree>
*
*       <SampleLength>25</SampleLength>
*
*       <Profiles>7</Profiles>
*
*    </MemorySummary>
*
* </StatusData>
* <ConfigurationData DeviceType='SBE19plus' SerialNumber='01908188'>
*
*    <ProfileMode>
*
*       <ScansToAverage>1</ScansToAverage>
*
*       <MinimumCondFreq>2</MinimumCondFreq>
*
*       <PumpDelay>90</PumpDelay>
*
*       <AutoRun>no</AutoRun>
*
*       <IgnoreSwitch>no</IgnoreSwitch>
*
*    </ProfileMode>
*
*    <Battery>
*
*       <Type>alkaline</Type>
*
*       <CutOff>7.5</CutOff>
*
*    </Battery>
*
*    <DataChannels>
*
*       <ExtVolt0>yes</ExtVolt0>
*
*       <ExtVolt1>yes</ExtVolt1>
*
*       <ExtVolt2>yes</ExtVolt2>
*
*       <ExtVolt3>no</ExtVolt3>
*
*       <ExtVolt4>yes</ExtVolt4>
*
*       <ExtVolt5>no</ExtVolt5>
*
*       <SBE38>no</SBE38>
*
*       <WETLABS>yes</WETLABS>
*
*       <OPTODE>no</OPTODE>
*
*       <SBE63>no</SBE63>
*
*       <SeaFET>no</SeaFET>
*
*       <GTD>no</GTD>
*
*    </DataChannels>
*
*    <EchoCharacters>yes</EchoCharacters>
*
*    <OutputExecutedTag>yes</OutputExecutedTag>
*
*    <OutputFormat>raw HEX</OutputFormat>
*
* </ConfigurationData>
* <CalibrationCoefficients DeviceType='SBE19plus' SerialNumber='01908188'>
*
*    <Calibration format='TEMP1' id='Main Temperature'>
*
*       <SerialNum>01908188</SerialNum>
*
*       <CalDate>07-May-24</CalDate>
*
*       <TA0>1.249325e-03</TA0>
*
*       <TA1>2.751683e-04</TA1>
*
*       <TA2>-1.314205e-06</TA2>
*
*       <TA3>1.914222e-07</TA3>
*
*       <TOFFSET>0.000000e+00</TOFFSET>
*
*    </Calibration>
*
*    <Calibration format='WBCOND0' id='Main Conductivity'>
*
*       <SerialNum>01908188</SerialNum>
*
*       <CalDate>07-May-24</CalDate>
*
*       <G>-1.014855e+00</G>
*
*       <H>1.444624e-01</H>
*
*       <I>-3.430060e-04</I>
*
*       <J>4.842261e-05</J>
*
*       <CPCOR>-9.570000e-08</CPCOR>
*
*       <CTCOR>3.250000e-06</CTCOR>
*
*       <CSLOPE>1.000000e+00</CSLOPE>
*
*    </Calibration>
*
*    <Calibration format='STRAIN0' id='Main Pressure'>
*
*       <SerialNum>12220741</SerialNum>
*
*       <CalDate>03-Apr-24</CalDate>
*
*       <PA0>7.209200e-02</PA0>
*
*       <PA1>4.836684e-04</PA1>
*
*       <PA2>-3.501227e-12</PA2>
*
*       <PTCA0>5.244614e+05</PTCA0>
*
*       <PTCA1>2.020364e+01</PTCA1>
*
*       <PTCA2>-6.074616e-01</PTCA2>
*
*       <PTCB0>2.522087e+01</PTCB0>
*
*       <PTCB1>5.750000e-04</PTCB1>
*
*       <PTCB2>0.000000e+00</PTCB2>
*
*       <PTEMPA0>-5.770713e+01</PTEMPA0>
*
*       <PTEMPA1>5.343973e+01</PTEMPA1>
*
*       <PTEMPA2>-5.775530e-01</PTEMPA2>
*
*       <POFFSET>7.020000e-01</POFFSET>
*
*       <PRANGE>1.600000e+02</PRANGE>
*
*    </Calibration>
*
*    <Calibration format='VOLT0' id='Volt 0'>
*
*       <OFFSET>-4.657200e-02</OFFSET>
*
*       <SLOPE>1.248989e+00</SLOPE>
*
*    </Calibration>
*
*    <Calibration format='VOLT0' id='Volt 1'>
*
*       <OFFSET>-4.600800e-02</OFFSET>
*
*       <SLOPE>1.249849e+00</SLOPE>
*
*    </Calibration>
*
*    <Calibration format='VOLT0' id='Volt 2'>
*
*       <OFFSET>-4.668000e-02</OFFSET>
*
*       <SLOPE>1.250379e+00</SLOPE>
*
*    </Calibration>
*
*    <Calibration format='VOLT0' id='Volt 3'>
*
*       <OFFSET>-4.643200e-02</OFFSET>
*
*       <SLOPE>1.251002e+00</SLOPE>
*
*    </Calibration>
*
*    <Calibration format='VOLT0' id='Volt 4'>
*
*       <OFFSET>-4.606100e-02</OFFSET>
*
*       <SLOPE>1.249962e+00</SLOPE>
*
*    </Calibration>
*
*    <Calibration format='VOLT0' id='Volt 5'>
*
*       <OFFSET>-4.642700e-02</OFFSET>
*
*       <SLOPE>1.248530e+00</SLOPE>
*
*    </Calibration>
*
*    <Calibration format='FREQ0' id='external frequency channel'>
*
*       <EXTFREQSF>1.000018e+00</EXTFREQSF>
*
*    </Calibration>
*
* </CalibrationCoefficients>
* <EventCounters DeviceType='SBE19plus' SerialNumber='01908188'>
*
*    <EventSummary numEvents='0'/>
*
* </EventCounters></InstrumentState>
* <Headers>
*
* cast   6 15 Aug 2024 15:50:35 samples 9378 to 10153, avg = 1, stop = mag switch
*
# nquan = 16
# nvalues = 776                         
# units = specified
# name 0 = depFM: Depth [fresh water, m]
# name 1 = dz/dtM: Descent Rate [m/s]
# name 2 = sbeox0Mg/L: Oxygen, SBE 43 [mg/l]
# name 3 = sbeox0PS: Oxygen, SBE 43 [% saturation]
# name 4 = specc: Specific Conductance [uS/cm]
# name 5 = c0uS/cm: Conductivity [uS/cm]
# name 6 = wetCDOM: Fluorescence, WET Labs CDOM [mg/m^3]
# name 7 = flECO-AFL: Fluorescence, WET Labs ECO-AFL/FL [mg/m^3]
# name 8 = flECO-AFL1: Fluorescence, WET Labs ECO-AFL/FL, 2 [mg/m^3]
# name 9 = flECO-AFL2: Fluorescence, WET Labs ECO-AFL/FL, 3 [mg/m^3]
# name 10 = par/sat/log: PAR/Logarithmic, Satlantic
# name 11 = turbWETntu0: Turbidity, WET Labs ECO [NTU]
# name 12 = prdM: Pressure, Strain Gauge [db]
# name 13 = prdE: Pressure, Strain Gauge [psi]
# name 14 = tv290C: Temperature [ITS-90, deg C]
# name 15 = flag:  0.000e+00
# span 0 =     -0.429,      9.806       
# span 1 =     -0.345,      0.247       
# span 2 =     2.7464,     9.8342       
# span 3 =     26.589,    115.807       
# span 4 =   -640.174,    126.659       
# span 5 =-486.333545, 124.994895       
# span 6 =    -4.5000,    29.1600       
# span 7 =    -0.3952,   245.1415       
# span 8 =    -2.1300,     0.6390       
# span 9 =    -4.1031,     4.7376       
# span 10 = 9.0716e-01, 1.7746e+03      
# span 11 =    -0.9289,   971.1096      
# span 12 =     -0.420,      9.617      
# span 13 =     -0.610,     13.948      
# span 14 =    12.9743,    28.2550      
# span 15 = 0.0000e+00, 0.0000e+00      
# interval = seconds: 0.25
# start_time = Aug 15 2024 15:50:35 [Instrument's time stamp, header]
# bad_flag = -9.990e-29
# <Sensors count="10" >
#   <sensor Channel="1" >
#     <!-- Count, Temperature -->
#     <TemperatureSensor SensorID="58" >
#       <SerialNumber>8188</SerialNumber>
#       <CalibrationDate>07-May-24</CalibrationDate>
#       <A0>1.24932504e-003</A0>
#       <A1>2.75168293e-004</A1>
#       <A2>-1.31420465e-006</A2>
#       <A3>1.91422179e-007</A3>
#       <Slope>1.00000000</Slope>
#       <Offset>0.0000</Offset>
#     </TemperatureSensor>
#   </sensor>
#   <sensor Channel="2" >
#     <!-- Frequency 0, Conductivity -->
#     <ConductivitySensor SensorID="3" >
#       <SerialNumber>8188</SerialNumber>
#       <CalibrationDate>07-May-24</CalibrationDate>
#       <UseG_J>1</UseG_J>
#       <!-- Cell const and series R are applicable only for wide range sensors. -->
#       <SeriesR>0.0000</SeriesR>
#       <CellConst>2000.0000</CellConst>
#       <ConductivityType>0</ConductivityType>
#       <Coefficients equation="0" >
#         <A>0.00000000e+000</A>
#         <B>0.00000000e+000</B>
#         <C>0.00000000e+000</C>
#         <D>0.00000000e+000</D>
#         <M>0.0</M>
#         <CPcor>-9.57000000e-008</CPcor>
#       </Coefficients>
#       <Coefficients equation="1" >
#         <G>-1.01485473e+000</G>
#         <H>1.44462400e-001</H>
#         <I>-3.43006030e-004</I>
#         <J>4.84226116e-005</J>
#         <CPcor>-9.57000000e-008</CPcor>
#         <CTcor>3.2500e-006</CTcor>
#         <!-- WBOTC not applicable unless ConductivityType = 1. -->
#         <WBOTC>0.00000000e+000</WBOTC>
#       </Coefficients>
#       <Slope>1.00000000</Slope>
#       <Offset>0.00000</Offset>
#     </ConductivitySensor>
#   </sensor>
#   <sensor Channel="3" >
#     <!-- Count, Pressure, Strain Gauge -->
#     <PressureSensor SensorID="46" >
#       <SerialNumber>8188</SerialNumber>
#       <CalibrationDate>03-Apr-24</CalibrationDate>
#       <PA0>7.20920045e-002</PA0>
#       <PA1>4.83668449e-004</PA1>
#       <PA2>-3.50122678e-012</PA2>
#       <PTEMPA0>-5.77071299e+001</PTEMPA0>
#       <PTEMPA1>5.34397285e+001</PTEMPA1>
#       <PTEMPA2>-5.77553003e-001</PTEMPA2>
#       <PTCA0>5.24461366e+005</PTCA0>
#       <PTCA1>2.02036405e+001</PTCA1>
#       <PTCA2>-6.07461634e-001</PTCA2>
#       <PTCB0>2.52208750e+001</PTCB0>
#       <PTCB1>5.75000000e-004</PTCB1>
#       <PTCB2>0.00000000e+000</PTCB2>
#       <Offset>0.000000</Offset>
#     </PressureSensor>
#   </sensor>
#   <sensor Channel="4" >
#     <!-- A/D voltage 0, Fluorometer, WET Labs ECO-AFL/FL -->
#     <FluoroWetlabECO_AFL_FL_Sensor SensorID="20" >
#       <SerialNumber>FLNTURT-7096</SerialNumber>
#       <CalibrationDate>21-Mar-2024</CalibrationDate>
#       <ScaleFactor>5.00000000e+001</ScaleFactor>
#       <!-- Dark output -->
#       <Vblank>0.0710</Vblank>
#     </FluoroWetlabECO_AFL_FL_Sensor>
#   </sensor>
#   <sensor Channel="5" >
#     <!-- A/D voltage 1, Turbidity Meter, WET Labs, ECO-NTU -->
#     <TurbidityMeter SensorID="67" >
#       <SerialNumber>FLNTURT-7096</SerialNumber>
#       <CalibrationDate>21-Mar-2024</CalibrationDate>
#       <ScaleFactor>198.000000</ScaleFactor>
#       <!-- Dark output -->
#       <DarkVoltage>0.070000</DarkVoltage>
#     </TurbidityMeter>
#   </sensor>
#   <sensor Channel="6" >
#     <!-- A/D voltage 2, Oxygen, SBE 43 -->
#     <OxygenSensor SensorID="38" >
#       <SerialNumber>4269</SerialNumber>
#       <CalibrationDate>08-May-24</CalibrationDate>
#       <Use2007Equation>1</Use2007Equation>
#       <CalibrationCoefficients equation="0" >
#         <!-- Coefficients for Owens-Millard equation. -->
#         <Boc>0.0000</Boc>
#         <Soc>0.0000e+000</Soc>
#         <offset>0.0000</offset>
#         <Pcor>0.00e+000</Pcor>
#         <Tcor>0.0000</Tcor>
#         <Tau>0.0</Tau>
#       </CalibrationCoefficients>
#       <CalibrationCoefficients equation="1" >
#         <!-- Coefficients for Sea-Bird equation - SBE calibration in 2007 and later. -->
#         <Soc>4.3983e-001</Soc>
#         <offset>-0.4978</offset>
#         <A>-4.5504e-003</A>
#         <B> 2.4929e-004</B>
#         <C>-4.1306e-006</C>
#         <D0> 2.5826e+000</D0>
#         <D1> 1.92634e-004</D1>
#         <D2>-4.64803e-002</D2>
#         <E> 3.6000e-002</E>
#         <Tau20> 1.9700</Tau20>
#         <H1>-3.3000e-002</H1>
#         <H2> 5.0000e+003</H2>
#         <H3> 1.4500e+003</H3>
#       </CalibrationCoefficients>
#     </OxygenSensor>
#   </sensor>
#   <sensor Channel="7" >
#     <!-- A/D voltage 3, PAR/Logarithmic, Satlantic -->
#     <PARLog_SatlanticSensor SensorID="76" >
#       <SerialNumber>2209</SerialNumber>
#       <CalibrationDate>14-Jan-2022</CalibrationDate>
#       <a0>9.8861e-001</a0>
#       <a1>8.0845e-001</a1>
#       <Im>1.3589e+000</Im>
#       <Multiplier>1.0000e+000</Multiplier>
#     </PARLog_SatlanticSensor>
#   </sensor>
#   <sensor Channel="8" >
#     <!-- Serial RS-232, Fluorometer, WET Labs ECO-AFL/FL, 2 -->
#     <FluoroWetlabECO_AFL_FL_Sensor SensorID="20" >
#       <SerialNumber>FL3-7350</SerialNumber>
#       <CalibrationDate>10-Mar-2022</CalibrationDate>
#       <ScaleFactor>4.26000000e-002</ScaleFactor>
#       <!-- Dark output -->
#       <Vblank>50.0000</Vblank>
#     </FluoroWetlabECO_AFL_FL_Sensor>
#   </sensor>
#   <sensor Channel="9" >
#     <!-- Serial RS-232, Fluorometer, WET Labs ECO-AFL/FL, 3 -->
#     <FluoroWetlabECO_AFL_FL_Sensor SensorID="20" >
#       <SerialNumber>FL3-7350</SerialNumber>
#       <CalibrationDate>10-Mar-2022</CalibrationDate>
#       <ScaleFactor>4.23000000e-002</ScaleFactor>
#       <!-- Dark output -->
#       <Vblank>48.0000</Vblank>
#     </FluoroWetlabECO_AFL_FL_Sensor>
#   </sensor>
#   <sensor Channel="10" >
#     <!-- Serial RS-232, Fluorometer, WET Labs ECO CDOM -->
#     <FluoroWetlabCDOM_Sensor SensorID="19" >
#       <SerialNumber>FL3-7350</SerialNumber>
#       <CalibrationDate>10-Mar-2022</CalibrationDate>
#       <ScaleFactor>0.090</ScaleFactor>
#       <!-- Dark output -->
#       <Vblank>50.000</Vblank>
#     </FluoroWetlabCDOM_Sensor>
#   </sensor>
# </Sensors>
# datcnv_date = Aug 29 2024 11:54:56, 7.26.7.129 [datcnv_vars = 15]
# datcnv_in = C:\R\Reservoirs\Data\DataNotYetUploadedToEDI\Raw_CTD\RawDownloads\081524_ccr88_S8188006.hex C:\R\Reservoirs\Data\DataNotYetUploadedToEDI\Raw_CTD\RawDownloads\SBE19plusV2_8188_start20240601.xmlcon
# datcnv_skipover = 0
# datcnv_ox_hysteresis_correction = yes
# datcnv_ox_tau_correction = yes
# filter_date = Aug 29 2024 11:57:17, 7.26.7.129
# filter_in = C:\R\Reservoirs\Data\DataNotYetUploadedToEDI\Raw_CTD\RawDownloads\081524_ccr88_S8188006.cnv
# filter_low_pass_tc_A = 0.500
# filter_low_pass_tc_B = 1.000
# filter_low_pass_A_vars = sbeox0Mg/L sbeox0PS specc c0uS/cm tv290C
# filter_low_pass_B_vars = depFM dz/dtM prdM prdE
# alignctd_date = Aug 29 2024 11:58:45, 7.26.7.129
# alignctd_in = C:\R\Reservoirs\Data\DataNotYetUploadedToEDI\Raw_CTD\RawDownloads\081524_ccr88_S8188006.cnv
# alignctd_adv = dz/dtM 1.000, sbeox0PS 1.000, specc 1.000, c0uS/cm 1.000, flECO-AFL 1.000, turbWETntu0 1.000                                                                                                                        
# file_type = ascii
*END*
     -0.429      0.023     8.4771    100.532     11.245  11.404936    -4.5000    -0.3952    -2.1300    -2.0304 6.6746e+02    -0.7778     -0.420     -0.610    24.8351 0.0000e+00
     -0.423      0.030     8.4576     99.727     15.635  15.911663    -4.5000    -0.3494    -2.1300    -2.0304 6.0436e+02    -0.7778     -0.415     -0.601    24.8458 0.0000e+00
     -0.415      0.039     8.4271     98.913     22.419  22.891909    -4.5000    -0.3685    -2.1300    -2.0304 5.7878e+02    -0.7929     -0.407     -0.590    24.8618 0.0000e+00
     -0.405      0.050     8.3814     98.207     33.243  34.043957     0.0000    -0.3876     0.0426    -0.0423 5.1638e+02    -0.9289     -0.397     -0.576    24.8859 0.0000e+00
     -0.392      0.063     8.3190     97.701     49.500  50.852920     0.0000    -0.3609     0.0426    -0.0423 5.3372e+02    -0.7778     -0.385     -0.558    24.9237 0.0000e+00
     -0.376      0.080     8.2434     97.449     69.353  71.559477     0.0000    -0.3838     0.0426    -0.0423 5.5998e+02    -0.7476     -0.369     -0.535    24.9847 0.0000e+00
     -0.355      0.099     8.1614     97.461     87.349  90.617246     0.0000    -0.3952     0.0426    -0.0423 6.3506e+02    -0.7627     -0.348     -0.505    25.0849 0.0000e+00
     -0.328      0.118     8.0787     97.725     99.604 103.903125     0.0000    -0.0633     0.0426    -0.0423 7.2981e+02     0.6875     -0.322     -0.467    25.2509 0.0000e+00
     -0.294      0.135     7.9971     98.205    106.802 111.954280     0.0000    -0.0671     0.1278     0.3384 7.7458e+02     0.7026     -0.289     -0.419    25.5242 0.0000e+00
     -0.254      0.150     7.9187     98.856    110.993 116.799690     0.0000    -0.0633     0.1278     0.3384 7.5876e+02     0.6724     -0.249     -0.362    25.9210 0.0000e+00
     -0.211      0.161     7.8531     99.635    113.401 119.677476     0.0000    -0.0557     0.1278     0.3384 6.0739e+02     0.6573     -0.207     -0.300    26.3816 0.0000e+00
     -0.166      0.166     7.8118    100.507    114.768 121.363066     0.0000     0.1885     0.1278     0.3384 5.5393e+02    -0.3095     -0.163     -0.237    26.8181 0.0000e+00
     -0.122      0.166     7.7981    101.429    115.526 122.321965     7.4700     0.1923     0.2556     0.0000 4.6161e+02    -0.3246     -0.120     -0.173    27.1828 0.0000e+00
     -0.078      0.161     7.8097    102.340    115.912 122.821888     7.4700     0.1732     0.2556     0.0000 3.2534e+02    -0.2491     -0.077     -0.111    27.4649 0.0000e+00
     -0.036      0.153     7.8422    103.170    116.091 123.054169     7.4700     0.1923     0.2556     0.0000 2.9949e+02    -0.3549     -0.035     -0.051    27.6697 0.0000e+00
      0.003      0.142     7.8910    103.874    116.189 123.168775     7.4700     0.2495     0.2556     0.0000 2.8501e+02    -0.2944      0.003      0.005    27.8100 0.0000e+00
      0.038      0.129     7.9507    104.412    116.268 123.248284    10.4400     0.2533     0.0426     0.0846 2.9070e+02    -0.2944      0.038      0.055    27.9001 0.0000e+00
      0.070      0.114     8.0146    104.753    116.355 123.335900    10.4400     0.2419     0.0426     0.0846 1.8922e+02    -0.2642      0.068      0.099    27.9530 0.0000e+00
      0.097      0.100     8.0759    104.888    116.454 123.444983    10.4400     0.2266     0.0426     0.0846 2.0035e+02    -0.3095      0.095      0.138    27.9796 0.0000e+00
      0.120      0.086     8.1297    104.830    116.553 123.562610    10.4400     0.1770     0.0426     0.0846 1.8399e+02    -0.3549      0.118      0.171    27.9894 0.0000e+00
      0.140      0.073     8.1716    104.603    116.645 123.680136    10.3500     0.1656     0.0000     0.1692 1.8996e+02    -0.2944      0.137      0.199    27.9908 0.0000e+00
      0.156      0.062     8.1984    104.233    116.728 123.790890    10.3500     0.1732     0.0000     0.1692 1.9715e+02    -0.2642      0.153      0.222    27.9906 0.0000e+00
      0.169      0.053     8.2086    103.725    116.793 123.880395    10.3500     0.1579     0.0000     0.1692 1.8730e+02    -0.3397      0.166      0.241    27.9931 0.0000e+00
      0.181      0.046     8.2032    103.062    116.834 123.942511    10.3500     0.1656     0.0000     0.1692 1.8228e+02    -0.2793      0.177      0.257    27.9995 0.0000e+00
      0.190      0.042     8.1841    102.199    116.862 123.989799    10.3500     0.1923     0.0000     0.1692 1.9342e+02    -0.2793      0.187      0.271    28.0084 0.0000e+00
      0.200      0.039     8.1538    101.043    116.892 124.038873    10.4400     0.1656     0.0426     0.1269 1.9029e+02    -0.2793      0.196      0.284    28.0181 0.0000e+00
      0.209      0.039     8.1128     99.503    116.920 124.086814    10.4400     0.1808     0.0426     0.1269 1.8649e+02    -0.3095      0.205      0.297    28.0272 0.0000e+00
      0.218      0.040     8.0598     97.580    116.931 124.118397    10.4400     0.1694     0.0426     0.1269 1.8256e+02    -0.2642      0.214      0.310    28.0353 0.0000e+00
      0.228      0.043     7.9912     95.397    116.914 124.122039    10.4400     0.1656     0.0426     0.1269 1.7400e+02    -0.3549      0.224      0.325    28.0427 0.0000e+00
      0.239      0.045     7.8998     93.171    116.876 124.102713    10.4400     0.1541     0.0426     0.0846 1.8062e+02    -0.3851      0.234      0.340    28.0502 0.0000e+00
      0.251      0.048     7.7783     91.108    116.840 124.083276    10.4400     0.1923     0.0426     0.0846 1.7004e+02    -0.2944      0.246      0.357    28.0582 0.0000e+00
      0.264      0.050     7.6268     89.284    116.812 124.070551    10.4400     0.1541     0.0426     0.0846 1.7283e+02    -0.2340      0.259      0.375    28.0669 0.0000e+00
      0.278      0.050     7.4550     87.682    116.782 124.053141    10.4400     0.1846     0.0426     0.0846 1.8379e+02    -0.2793      0.273      0.396    28.0759 0.0000e+00
      0.292      0.049     7.2800     86.283    116.755 124.034409    10.4400     0.1846     0.0426     0.0846 1.6842e+02    -0.2944      0.287      0.416    28.0849 0.0000e+00
      0.305      0.046     7.1177     85.088    116.741 124.025363    10.4400     0.1846     0.0426     0.0846 1.8762e+02    -0.3095      0.299      0.434    28.0931 0.0000e+00
      0.316      0.042     6.9743     84.115    116.736 124.023594    10.4400     0.1656     0.0426     0.0846 1.7201e+02    -0.3246      0.310      0.450    28.1003 0.0000e+00
      0.326      0.037     6.8484     83.387    116.740 124.028628    10.4400     0.1694     0.0426     0.0846 1.8125e+02    -0.3246      0.320      0.464    28.1061 0.0000e+00
      0.334      0.032     6.7386     82.919    116.754 124.041807    10.4400     0.1770     0.0426     0.0846 1.8228e+02    -0.3246      0.328      0.476    28.1105 0.0000e+00
      0.342      0.028     6.6449     82.723    116.770 124.054643    10.3500     0.1656     0.0426     0.1269 1.7137e+02    -0.3700      0.335      0.486    28.1134 0.0000e+00
      0.348      0.024     6.5688     82.769    116.782 124.058555    10.3500     0.1732     0.0426     0.1269 1.7234e+02    -0.4002      0.341      0.496    28.1150 0.0000e+00
      0.354      0.020     6.5118     82.961    116.789 124.054584    10.3500     0.1923     0.0426     0.1269 1.6970e+02    -0.2944      0.347      0.503    28.1153 0.0000e+00
      0.358      0.016     6.4754     83.184    116.794 124.045674    10.3500     0.1618     0.0426     0.1269 1.6758e+02    -0.4002      0.351      0.510    28.1145 0.0000e+00
      0.362      0.013     6.4603     83.375    116.796 124.033447    10.4400     0.1656     0.0852     0.0846 1.7171e+02    -0.3851      0.355      0.515    28.1126 0.0000e+00
      0.365      0.010     6.4643     83.551    116.799 124.022645    10.4400     0.2304     0.0852     0.0846 1.6537e+02    -0.2642      0.358      0.519    28.1090 0.0000e+00
      0.367      0.007     6.4800     83.776    116.803 124.014390    10.4400     0.2419     0.0852     0.0846 1.6711e+02    -0.2340      0.360      0.522    28.1038 0.0000e+00
      0.369      0.004     6.4981     84.115    116.803 124.002476    10.4400     0.2113     0.0852     0.0846 1.6860e+02    -0.3549      0.361      0.524    28.0977 0.0000e+00
      0.369      0.001     6.5137     84.591    116.796 123.983727    10.4400     0.2495     0.0426     0.0846 1.7074e+02    -0.2793      0.362      0.525    28.0915 0.0000e+00
      0.369     -0.001     6.5281     85.195    116.791 123.969148    10.4400     0.1656     0.0426     0.0846 1.6591e+02    -0.2944      0.362      0.525    28.0856 0.0000e+00
      0.368     -0.004     6.5463     85.875    116.796 123.966854    10.4400     0.1541     0.0426     0.0846 1.7370e+02    -0.3700      0.361      0.524    28.0801 0.0000e+00
      0.367     -0.006     6.5734     86.544    116.804 123.968232    10.4400     0.1808     0.0426     0.0846 1.5951e+02    -0.2793      0.360      0.522    28.0750 0.0000e+00
      0.365     -0.009     6.6111     87.096    116.800 123.957642    10.4400     0.1770     0.0852     0.2115 1.7655e+02    -0.3246      0.358      0.519    28.0705 0.0000e+00
      0.363     -0.011     6.6588     87.436    116.782 123.932261    10.4400     0.2190     0.0852     0.2115 1.5389e+02    -0.4606      0.356      0.516    28.0665 0.0000e+00
      0.360     -0.014     6.7123     87.515    116.762 123.905326    10.4400     0.2304     0.0852     0.2115 1.7302e+02    -0.3700      0.353      0.511    28.0630 0.0000e+00
      0.356     -0.017     6.7650     87.354    116.753 123.889662    10.4400     0.2571     0.0852     0.2115 1.6787e+02    -0.2944      0.349      0.506    28.0600 0.0000e+00
      0.352     -0.021     6.8085     87.028    116.761 123.893095    10.4400     0.2266     0.0852     0.2115 1.6937e+02    -0.3246      0.345      0.500    28.0572 0.0000e+00
      0.346     -0.024     6.8353     86.616    116.774 123.904536    10.5300     0.1656     0.0426     0.2115 1.6433e+02    -0.4153      0.340      0.493    28.0547 0.0000e+00
      0.340     -0.026     6.8418     86.153    116.766 123.895026    10.5300     0.2037     0.0426     0.2115 1.7137e+02    -0.3095      0.333      0.483    28.0523 0.0000e+00
      0.332     -0.027     6.8295     85.588    116.717 123.842021    10.5300     0.1694     0.0426     0.2115 1.6667e+02    -0.3549      0.325      0.472    28.0498 0.0000e+00
      0.323     -0.027     6.8043     84.828    116.628 123.743392    10.5300     0.1618     0.0426     0.2115 1.9191e+02    -0.4304      0.317      0.460    28.0475 0.0000e+00
      0.316     -0.026     6.7722     83.827    116.533 123.634858    10.4400     0.1541     0.0426     0.1692 1.7130e+02    -0.3246      0.309      0.449    28.0464 0.0000e+00
      0.309     -0.025     6.7360     82.637    116.482 123.575503    10.4400     0.1579     0.0426     0.1692 1.9905e+02    -0.4002      0.303      0.439    28.0463 0.0000e+00
      0.304     -0.023     6.6919     81.402    116.506 123.599515    10.4400     0.1541     0.0426     0.1692 1.6703e+02    -0.2038      0.298      0.432    28.0457 0.0000e+00
      0.299     -0.020     6.6327     80.332    116.581 123.681286    10.4400     0.1579     0.0426     0.1692 1.8367e+02    -0.3246      0.293      0.425    28.0437 0.0000e+00
      0.294     -0.016     6.5548     79.646    116.642 123.752594    10.3500     0.1732     0.0852     0.1692 1.8051e+02    -0.3246      0.288      0.418    28.0406 0.0000e+00
      0.289     -0.012     6.4621     79.465    116.639 123.756430    10.3500     0.1656     0.0852     0.1692 1.7898e+02    -0.2944      0.283      0.411    28.0381 0.0000e+00
      0.285     -0.007     6.3656     79.732    116.573 123.689816    10.3500     0.1656     0.0852     0.1692 2.0267e+02    -0.2793      0.279      0.405    28.0375 0.0000e+00
      0.283     -0.001     6.2818     80.282    116.495 123.607014    10.3500     0.1846     0.0852     0.1692 1.7686e+02    -0.2944      0.277      0.402    28.0387 0.0000e+00
      0.284      0.005     6.2279     80.926    116.457 123.563966    10.3500     0.1541     0.0852     0.1692 2.0431e+02    -0.3549      0.279      0.404    28.0414 0.0000e+00
      0.288      0.010     6.2133     81.493    116.481 123.585204    10.4400     0.1885     0.0426     0.0846 1.7910e+02    -0.3246      0.282      0.409    28.0443 0.0000e+00
      0.293      0.014     6.2341     81.855    116.552 123.656386    10.4400     0.1808     0.0426     0.0846 1.8347e+02    -0.3246      0.287      0.416    28.0460 0.0000e+00
      0.298      0.016     6.2771     81.944    116.629 123.734472    10.4400     0.1846     0.0426     0.0846 1.9154e+02    -0.4304      0.292      0.423    28.0459 0.0000e+00
      0.302      0.016     6.3276     81.745    116.683 123.792271    10.4400     0.1846     0.0426     0.0846 1.8043e+02    -0.4153      0.296      0.430    28.0448 0.0000e+00
      0.306      0.016     6.3721     81.275    116.714 123.827190    10.4400     0.1846     0.0426     0.1692 1.9075e+02    -0.3549      0.300      0.435    28.0431 0.0000e+00
      0.310      0.015     6.4006     80.584    116.726 123.840538    10.4400     0.1770     0.0426     0.1692 1.7445e+02    -0.3246      0.304      0.441    28.0410 0.0000e+00
      0.313      0.015     6.4078     79.752    116.723 123.837875    10.4400     0.1694     0.0426     0.1692 1.9883e+02    -0.3246      0.307      0.446    28.0397 0.0000e+00
      0.317      0.014     6.3922     78.888    116.721 123.836496    10.4400     0.1541     0.0426     0.1692 1.6552e+02    -0.2944      0.311      0.451    28.0397 0.0000e+00
      0.320      0.014     6.3554     78.107    116.728 123.848039    10.4400     0.1732     0.0426     0.0846 1.9720e+02    -0.4002      0.314      0.456    28.0404 0.0000e+00
      0.324      0.014     6.3013     77.502    116.737 123.863577    10.4400     0.1541     0.0426     0.0846 1.6548e+02    -0.3851      0.318      0.461    28.0408 0.0000e+00
      0.327      0.014     6.2362     77.108    116.729 123.861246    10.4400     0.1770     0.0426     0.0846 1.8568e+02    -0.2491      0.321      0.466    28.0409 0.0000e+00
      0.331      0.014     6.1686     76.887    116.701 123.834423    10.4400     0.1618     0.0426     0.0846 1.7441e+02    -0.3549      0.325      0.471    28.0414 0.0000e+00
      0.334      0.014     6.1073     76.747    116.665 123.791962    10.4400     0.1656     0.0426     0.1692 1.7774e+02    -0.2189      0.328      0.476    28.0431 0.0000e+00
      0.338      0.014     6.0597     76.576    116.626 123.740544    10.4400     0.1732     0.0426     0.1692 1.7510e+02    -0.3549      0.332      0.481    28.0458 0.0000e+00
      0.342      0.014     6.0286     76.286    116.591 123.686465    10.4400     0.1923     0.0426     0.1692 1.7933e+02    -0.3397      0.336      0.486    28.0483 0.0000e+00
      0.346      0.013     6.0112     75.848    116.566 123.641310    10.4400     0.1923     0.0426     0.1692 1.7740e+02    -0.3549      0.339      0.491    28.0494 0.0000e+00
      0.349      0.013     6.0004     75.301    116.562 123.621046    10.4400     0.1579     0.0426     0.1692 1.7867e+02    -0.3549      0.342      0.496    28.0480 0.0000e+00
      0.352      0.013     5.9875     74.734    116.571 123.620267    10.3500     0.1846     0.0426     0.1269 1.7491e+02    -0.3549      0.345      0.501    28.0434 0.0000e+00
      0.355      0.013     5.9656     74.266    116.571 123.614758    10.3500     0.1694     0.0426     0.1269 1.7898e+02    -0.2944      0.348      0.505    28.0363 0.0000e+00
      0.358      0.013     5.9322     73.977    116.555 123.595046    10.3500     0.1579     0.0426     0.1269 1.7536e+02    -0.3851      0.351      0.509    28.0282 0.0000e+00
      0.361      0.014     5.8901     73.867    116.530 123.567880    10.3500     0.2152     0.0426     0.1269 1.6985e+02    -0.3700      0.354      0.514    28.0213 0.0000e+00
      0.365      0.014     5.8463     73.868    116.503 123.538019    10.4400     0.2152     0.0426     0.0846 1.7381e+02    -0.1585      0.358      0.519    28.0167 0.0000e+00
      0.369      0.014     5.8099     73.881    116.472 123.505502    10.4400     0.2495     0.0426     0.0846 1.7026e+02    -0.2793      0.362      0.525    28.0144 0.0000e+00
      0.373      0.014     5.7874     73.801    116.440 123.469662    10.4400     0.2228     0.0426     0.0846 1.7961e+02    -0.3700      0.366      0.531    28.0134 0.0000e+00
      0.377      0.013     5.7789     73.554    116.406 123.428943    10.4400     0.2342     0.0426     0.0846 1.7713e+02    -0.3700      0.370      0.536    28.0128 0.0000e+00
      0.380      0.012     5.7790     73.118    116.372 123.384491    10.4400     0.2152     0.0852     0.1269 1.7189e+02    -0.3095      0.373      0.540    28.0126 0.0000e+00
      0.383      0.011     5.7799     72.531    116.343 123.344457    10.4400     0.2266     0.0852     0.1269 1.8264e+02    -0.3549      0.376      0.545    28.0125 0.0000e+00
      0.385      0.009     5.7738     71.868    116.329 123.318172    10.4400     0.2457     0.0852     0.1269 1.6423e+02    -0.2944      0.378      0.548    28.0117 0.0000e+00
      0.387      0.008     5.7547     71.211    116.326 123.302627    10.4400     0.2152     0.0852     0.1269 1.7949e+02    -0.4002      0.380      0.551    28.0097 0.0000e+00
      0.389      0.007     5.7209     70.626    116.316 123.281672    10.4400     0.2533     0.0852     0.1269 1.6595e+02    -0.3095      0.382      0.554    28.0064 0.0000e+00
      0.391      0.006     5.6754     70.155    116.293 123.245716    10.4400     0.2495     0.0852     0.2115 1.8117e+02    -0.3246      0.384      0.556    28.0021 0.0000e+00
      0.393      0.005     5.6240     69.802    116.267 123.207179    10.4400     0.2304     0.0852     0.2115 1.6645e+02    -0.3700      0.385      0.558    27.9972 0.0000e+00
      0.394      0.004     5.5730     69.534    116.256 123.183791    10.4400     0.2266     0.0852     0.2115 1.8047e+02    -0.3246      0.386      0.560    27.9923 0.0000e+00
      0.395      0.003     5.5277     69.314    116.257 123.173316    10.4400     0.2457     0.0852     0.2115 1.6616e+02    -0.2642      0.387      0.561    27.9875 0.0000e+00
      0.395      0.002     5.4914     69.114    116.255 123.160956    10.5300     0.2075     0.0426     0.2538 1.7242e+02    -0.2038      0.388      0.562    27.9828 0.0000e+00
      0.396      0.001     5.4642     68.917    116.246 123.143415    10.5300     0.2419     0.0426     0.2538 1.7133e+02    -0.3246      0.388      0.563    27.9779 0.0000e+00
      0.396      0.000     5.4438     68.706    116.237 123.128019    10.5300     0.2266     0.0426     0.2538 1.6616e+02    -0.2944      0.388      0.563    27.9727 0.0000e+00
      0.395      0.000     5.4270     68.460    116.226 123.110663    10.5300     0.2381     0.0426     0.2538 1.7875e+02    -0.3397      0.388      0.563    27.9677 0.0000e+00
      0.395      0.000     5.4118     68.161    116.203 123.078714    10.4400     0.2113     0.0426     0.2115 1.6867e+02    -0.3700      0.388      0.563    27.9634 0.0000e+00
      0.396      0.000     5.3967     67.804    116.176 123.039659    10.4400     0.2495     0.0426     0.2115 1.7567e+02    -0.4002      0.388      0.563    27.9600 0.0000e+00
      0.396      0.001     5.3804     67.387    116.161 123.011090    10.4400     0.2304     0.0426     0.2115 1.7601e+02    -0.2793      0.388      0.563    27.9574 0.0000e+00
      0.396      0.001     5.3613     66.915    116.155 122.991390    10.4400     0.2381     0.0426     0.2115 1.7624e+02    -0.2642      0.388      0.563    27.9549 0.0000e+00
      0.396      0.002     5.3383     66.403    116.151 122.975304    10.5300     0.2457     0.0426     0.0846 1.8090e+02    -0.3397      0.389      0.564    27.9517 0.0000e+00
      0.397      0.002     5.3107     65.884    116.158 122.974546    10.5300     0.2419     0.0426     0.0846 1.6326e+02    -0.2944      0.389      0.564    27.9473 0.0000e+00
      0.397      0.003     5.2786     65.391    116.183 122.996916    10.5300     0.2152     0.0426     0.0846 1.8447e+02    -0.3246      0.389      0.565    27.9418 0.0000e+00
      0.398      0.004     5.2421     64.952    116.211 123.028374    10.5300     0.2228     0.0426     0.0846 1.6849e+02    -0.2642      0.390      0.566    27.9361 0.0000e+00
      0.399      0.005     5.2025     64.583    116.236 123.061304    10.5300     0.2228     0.0426     0.0846 1.7552e+02    -0.2944      0.391      0.567    27.9309 0.0000e+00
      0.400      0.006     5.1621     64.290    116.261 123.096484    10.4400     0.2190     0.0426     0.1269 1.8015e+02    -0.3851      0.393      0.570    27.9273 0.0000e+00
      0.402      0.007     5.1236     64.071    116.279 123.125293    10.4400     0.2228     0.0426     0.1269 1.6649e+02    -0.2642      0.394      0.572    27.9259 0.0000e+00
      0.404      0.008     5.0891     63.911    116.289 123.145411    10.4400     0.2228     0.0426     0.1269 1.7716e+02    -0.3095      0.396      0.575    27.9266 0.0000e+00
      0.406      0.008     5.0600     63.784    116.295 123.158200    10.4400     0.2419     0.0426     0.1269 1.6729e+02    -0.3246      0.398      0.578    27.9292 0.0000e+00
      0.408      0.009     5.0367     63.664    116.290 123.157070    10.4400     0.2457     0.0852     0.1269 1.6967e+02    -0.3549      0.401      0.581    27.9330 0.0000e+00
      0.411      0.009     5.0191     63.534    116.273 123.141719    10.4400     0.2495     0.0852     0.1269 1.7411e+02    -0.3246      0.403      0.584    27.9372 0.0000e+00
      0.413      0.009     5.0063     63.373    116.255 123.120057    10.4400     0.2152     0.0852     0.1269 1.6875e+02    -0.3246      0.405      0.588    27.9410 0.0000e+00
      0.415      0.008     4.9961     63.158    116.234 123.090310    10.4400     0.2419     0.0852     0.1269 1.7801e+02    -0.4304      0.407      0.591    27.9439 0.0000e+00
      0.418      0.008     4.9866     62.875    116.215 123.058548    10.4400     0.2457     0.0426     0.0846 1.7018e+02    -0.3549      0.409      0.594    27.9459 0.0000e+00
      0.420      0.007     4.9763     62.523    116.214 123.042309    10.4400     0.2381     0.0426     0.0846 1.7559e+02    -0.3246      0.411      0.597    27.9467 0.0000e+00
      0.421      0.007     4.9637     62.121    116.224 123.039261    10.4400     0.2190     0.0426     0.0846 1.7701e+02    -0.2793      0.413      0.599    27.9458 0.0000e+00
      0.423      0.006     4.9472     61.700    116.240 123.044588    10.4400     0.2304     0.0426     0.0846 1.7479e+02    -0.3700      0.415      0.601    27.9427 0.0000e+00
      0.424      0.006     4.9255     61.287    116.265 123.063713    10.4400     0.2495     0.0426     0.0846 1.7586e+02    -0.2642      0.416      0.603    27.9376 0.0000e+00
      0.426      0.006     4.8984     60.899    116.291 123.087731    10.5300     0.2304     0.0426     0.0846 1.7328e+02    -0.2642      0.417      0.605    27.9313 0.0000e+00
      0.427      0.005     4.8674     60.553    116.303 123.101040    10.5300     0.2152     0.0426     0.0846 1.7052e+02    -0.4153      0.419      0.607    27.9251 0.0000e+00
      0.428      0.005     4.8349     60.256    116.306 123.105189    10.5300     0.2152     0.0426     0.0846 1.8015e+02    -0.3095      0.420      0.609    27.9202 0.0000e+00
      0.430      0.005     4.8028     60.003    116.313 123.111288    10.5300     0.2419     0.0426     0.0846 1.6319e+02    -0.3549      0.421      0.611    27.9172 0.0000e+00
      0.431      0.005     4.7725     59.784    116.323 123.120962    10.5300     0.2266     0.0426     0.1269 1.8355e+02    -0.4153      0.422      0.613    27.9160 0.0000e+00
      0.432      0.005     4.7454     59.595    116.330 123.128790    10.5300     0.2228     0.0426     0.1269 1.6104e+02    -0.3549      0.424      0.615    27.9160 0.0000e+00
      0.434      0.004     4.7221     59.428    116.332 123.132856    10.5300     0.2571     0.0426     0.1269 1.7902e+02    -0.2944      0.425      0.616    27.9162 0.0000e+00
      0.435      0.004     4.7023     59.279    116.332 123.134247    10.5300     0.2419     0.0426     0.1269 1.6820e+02    -0.3095      0.426      0.618    27.9160 0.0000e+00
      0.435      0.004     4.6852     59.143    116.331 123.133333    10.4400     0.2152     0.0852     0.1269 1.7617e+02    -0.4002      0.427      0.619    27.9156 0.0000e+00
      0.436      0.003     4.6704     59.013    116.334 123.133870    10.4400     0.2342     0.0852     0.1269 1.7018e+02    -0.3095      0.428      0.620    27.9156 0.0000e+00
      0.437      0.003     4.6572     58.883    116.343 123.140005    10.4400     0.2152     0.0852     0.1269 1.7156e+02    -0.3549      0.428      0.621    27.9161 0.0000e+00
      0.438      0.002     4.6455     58.744    116.356 123.149371    10.4400     0.2419     0.0852     0.1269 1.7674e+02    -0.3549      0.429      0.622    27.9167 0.0000e+00
      0.438      0.001     4.6348     58.595    116.370 123.160464    10.5300     0.2228     0.0426     0.2961 1.6809e+02    -0.3549      0.430      0.623    27.9168 0.0000e+00
      0.438      0.001     4.6247     58.447    116.380 123.170240    10.5300     0.2152     0.0426     0.2961 1.7453e+02    -0.3700      0.430      0.623    27.9159 0.0000e+00
      0.438      0.000     4.6147     58.310    116.383 123.175305    10.5300     0.2342     0.0426     0.2961 1.6871e+02    -0.2944      0.430      0.623    27.9142 0.0000e+00
      0.438      0.000     4.6039     58.193    116.382 123.177010    10.5300     0.2495     0.0426     0.2961 1.7186e+02    -0.1887      0.430      0.624    27.9123 0.0000e+00
      0.438      0.000     4.5923     58.095    116.376 123.173808    10.5300     0.2113     0.0426     0.2961 1.7525e+02    -0.4002      0.430      0.624    27.9110 0.0000e+00
      0.438      0.000     4.5807     58.010    116.368 123.166847    10.4400     0.2342     0.0426     0.2115 1.6915e+02    -0.3549      0.430      0.624    27.9107 0.0000e+00
      0.438      0.000     4.5700     57.929    116.366 123.164273    10.4400     0.2304     0.0426     0.2115 1.7926e+02    -0.3700      0.430      0.623    27.9114 0.0000e+00
      0.438      0.000     4.5607     57.847    116.373 123.171402    10.4400     0.2152     0.0426     0.2115 1.6671e+02    -0.3549      0.430      0.623    27.9126 0.0000e+00
      0.438     -0.001     4.5530     57.765    116.382 123.180132    10.4400     0.2266     0.0426     0.2115 1.7674e+02    -0.3851      0.430      0.623    27.9137 0.0000e+00
      0.438     -0.001     4.5463     57.689    116.386 123.184788    10.4400     0.2457     0.0426     0.2538 1.6794e+02    -0.3397      0.429      0.623    27.9144 0.0000e+00
      0.438     -0.001     4.5399     57.633    116.392 123.194613    10.4400     0.2342     0.0426     0.2538 1.7891e+02    -0.3549      0.429      0.623    27.9144 0.0000e+00
      0.437     -0.001     4.5335     57.608    116.404 123.212229    10.4400     0.2342     0.0426     0.2538 1.7404e+02    -0.3700      0.429      0.622    27.9139 0.0000e+00
      0.437      0.000     4.5271     57.612    116.417 123.230330    10.4400     0.2190     0.0426     0.2538 1.7115e+02    -0.2944      0.429      0.622    27.9137 0.0000e+00
      0.437      0.000     4.5211     57.647    116.426 123.243740    10.3500     0.2228     0.0426     0.1692 1.7879e+02    -0.2944      0.429      0.622    27.9142 0.0000e+00
      0.437      0.000     4.5166     57.708    116.431 123.252034    10.3500     0.2304     0.0426     0.1692 1.6678e+02    -0.2944      0.429      0.622    27.9157 0.0000e+00
      0.437      0.000     4.5144     57.781    116.431 123.253422    10.3500     0.2152     0.0426     0.1692 1.8181e+02    -0.2793      0.429      0.622    27.9177 0.0000e+00
      0.437     -0.000     4.5146     57.852    116.422 123.244275    10.3500     0.2419     0.0426     0.1692 1.5910e+02    -0.3246      0.429      0.622    27.9197 0.0000e+00
      0.437     -0.000     4.5173     57.913    116.413 123.234155    10.3500     0.2304     0.0426     0.1692 1.8276e+02    -0.3549      0.429      0.622    27.9213 0.0000e+00
      0.437     -0.000     4.5219     57.955    116.419 123.238370    10.5300     0.2419     0.0426     0.1692 1.6494e+02    -0.3246      0.429      0.622    27.9225 0.0000e+00
      0.437     -0.000     4.5276     57.974    116.434 123.252042    10.5300     0.2495     0.0426     0.1692 1.7992e+02    -0.3549      0.429      0.622    27.9231 0.0000e+00
      0.437      0.000     4.5332     57.972    116.444 123.260811    10.5300     0.2266     0.0426     0.1692 1.6143e+02    -0.3851      0.429      0.622    27.9233 0.0000e+00
      0.437      0.000     4.5380     57.951    116.455 123.269017    10.5300     0.2419     0.0426     0.1692 1.8836e+02    -0.3700      0.429      0.622    27.9230 0.0000e+00
      0.437      0.000     4.5413     57.920    116.470 123.282847    10.4400     0.2228     0.0426     0.0846 1.5625e+02    -0.3549      0.429      0.621    27.9224 0.0000e+00
      0.437      0.000     4.5429     57.887    116.482 123.293988    10.4400     0.2419     0.0426     0.0846 1.8371e+02    -0.4304      0.428      0.621    27.9215 0.0000e+00
      0.437      0.000     4.5428     57.863    116.486 123.297406    10.4400     0.2342     0.0426     0.0846 1.5585e+02    -0.3549      0.428      0.621    27.9203 0.0000e+00
      0.436      0.000     4.5413     57.848    116.483 123.294013    10.4400     0.2152     0.0426     0.0846 1.8443e+02    -0.3851      0.428      0.621    27.9190 0.0000e+00
      0.436      0.000     4.5389     57.838    116.480 123.290908    10.4400     0.2075     0.0852     0.1269 1.6154e+02    -0.3549      0.428      0.621    27.9179 0.0000e+00
      0.436      0.001     4.5364     57.830    116.486 123.295264    10.4400     0.2190     0.0852     0.1269 1.7502e+02    -0.3549      0.428      0.621    27.9172 0.0000e+00
      0.437      0.001     4.5345     57.819    116.496 123.304242    10.4400     0.2419     0.0852     0.1269 1.6937e+02    -0.3397      0.429      0.621    27.9170 0.0000e+00
      0.437      0.001     4.5333     57.805    116.506 123.312234    10.4400     0.2304     0.0852     0.1269 1.7426e+02    -0.2944      0.429      0.622    27.9170 0.0000e+00
      0.437      0.001     4.5326     57.793    116.512 123.317369    10.3500     0.2495     0.0426     0.1269 1.7122e+02    -0.3246      0.429      0.622    27.9168 0.0000e+00
      0.437      0.001     4.5320     57.786    116.519 123.325017    10.3500     0.2228     0.0426     0.1269 1.7358e+02    -0.2793      0.429      0.622    27.9161 0.0000e+00
      0.438      0.001     4.5311     57.785    116.527 123.333217    10.3500     0.2266     0.0426     0.1269 1.7601e+02    -0.2340      0.429      0.623    27.9151 0.0000e+00
      0.438      0.002     4.5301     57.794    116.530 123.336154    10.3500     0.2304     0.0426     0.1269 1.7059e+02    -0.2793      0.430      0.623    27.9142 0.0000e+00
      0.439      0.002     4.5292     57.812    116.533 123.338611    10.3500     0.2266     0.0426     0.1269 1.7152e+02    -0.4304      0.430      0.624    27.9137 0.0000e+00
      0.439      0.002     4.5287     57.841    116.539 123.345245    10.4400     0.2304     0.0426     0.0000 1.7223e+02    -0.1887      0.431      0.624    27.9136 0.0000e+00
      0.439      0.002     4.5286     57.889    116.550 123.357824    10.4400     0.2266     0.0426     0.0000 1.7152e+02    -0.3095      0.431      0.625    27.9137 0.0000e+00
      0.440      0.003     4.5293     57.964    116.566 123.375704    10.4400     0.2190     0.0426     0.0000 1.7283e+02    -0.2944      0.432      0.626    27.9136 0.0000e+00
      0.440      0.003     4.5307     58.074    116.582 123.395648    10.4400     0.2304     0.0426     0.0000 1.7257e+02    -0.3246      0.432      0.627    27.9134 0.0000e+00
      0.441      0.004     4.5330     58.234    116.590 123.406970    10.3500     0.2304     0.0426     0.2115 1.7786e+02    -0.3397      0.433      0.628    27.9134 0.0000e+00
      0.442      0.004     4.5368     58.454    116.582 123.400686    10.3500     0.1999     0.0426     0.2115 1.6886e+02    -0.3246      0.434      0.629    27.9137 0.0000e+00
      0.443      0.005     4.5426     58.723    116.572 123.391127    10.3500     0.2190     0.0426     0.2115 1.7682e+02    -0.3549      0.435      0.631    27.9145 0.0000e+00
      0.445      0.006     4.5511     59.028    116.571 123.391746    10.3500     0.2228     0.0426     0.2115 1.7362e+02    -0.2944      0.436      0.633    27.9156 0.0000e+00
      0.446      0.006     4.5636     59.370    116.567 123.394707    10.4400     0.2228     0.0426     0.0846 1.7230e+02    -0.3246      0.438      0.635    27.9169 0.0000e+00
      0.448      0.007     4.5807     59.756    116.545 123.380793    10.4400     0.2152     0.0426     0.0846 1.7290e+02    -0.2642      0.440      0.638    27.9178 0.0000e+00
      0.450      0.007     4.6018     60.164    116.501 123.342294    10.4400     0.2457     0.0426     0.0846 1.7968e+02    -0.2340      0.441      0.640    27.9181 0.0000e+00
      0.452      0.006     4.6256     60.513    116.459 123.300954    10.4400     0.2495     0.0426     0.0846 1.7234e+02    -0.3095      0.443      0.643    27.9191 0.0000e+00
      0.454      0.005     4.6521     60.722    116.435 123.277759    10.4400     0.2075     0.0426     0.0846 1.7624e+02    -0.3246      0.445      0.646    27.9219 0.0000e+00
      0.456      0.004     4.6821     60.770    116.431 123.276526    10.5300     0.2266     0.0426     0.0846 1.6820e+02    -0.2793      0.447      0.648    27.9261 0.0000e+00
      0.456      0.003     4.7137     60.704    116.444 123.294926    10.5300     0.2190     0.0426     0.0846 1.7015e+02    -0.3397      0.448      0.649    27.9294 0.0000e+00
      0.456      0.002     4.7410     60.596    116.462 123.319859    10.5300     0.2190     0.0426     0.0846 1.7468e+02    -0.3397      0.447      0.649    27.9308 0.0000e+00
      0.456      0.001     4.7573     60.512    116.474 123.335970    10.5300     0.2113     0.0426     0.0846 1.7298e+02    -0.3095      0.447      0.648    27.9317 0.0000e+00
      0.456      0.001     4.7610     60.476    116.474 123.335550    10.3500     0.2419     0.0426     0.1692 1.7392e+02    -0.2491      0.447      0.648    27.9332 0.0000e+00
      0.456      0.001     4.7555     60.486    116.465 123.322489    10.3500     0.2419     0.0426     0.1692 1.7193e+02    -0.2340      0.447      0.648    27.9353 0.0000e+00
      0.456      0.001     4.7469     60.529    116.464 123.313311    10.3500     0.2152     0.0426     0.1692 1.7115e+02    -0.4002      0.447      0.649    27.9375 0.0000e+00
      0.457      0.001     4.7402     60.594    116.475 123.317571    10.3500     0.2228     0.0426     0.1692 1.7411e+02    -0.2944      0.448      0.649    27.9391 0.0000e+00
      0.457      0.001     4.7374     60.682    116.492 123.332402    10.5300     0.2228     0.0000     0.1269 1.6787e+02    -0.3095      0.448      0.650    27.9391 0.0000e+00
      0.457      0.001     4.7384     60.804    116.504 123.345753    10.5300     0.2075     0.0000     0.1269 1.7290e+02    -0.2944      0.448      0.649    27.9373 0.0000e+00
      0.457      0.001     4.7420     60.963    116.500 123.345182    10.5300     0.2228     0.0000     0.1269 1.7253e+02    -0.3397      0.448      0.649    27.9341 0.0000e+00
      0.457      0.001     4.7473     61.140    116.485 123.330536    10.5300     0.2075     0.0000     0.1269 1.7655e+02    -0.3095      0.448      0.649    27.9309 0.0000e+00
      0.457      0.001     4.7543     61.312    116.473 123.313915    10.4400     0.2304     0.0426     0.1269 1.7089e+02    -0.2944      0.448      0.650    27.9294 0.0000e+00
      0.457      0.001     4.7639     61.456    116.476 123.310893    10.4400     0.2266     0.0426     0.1269 1.7118e+02    -0.2944      0.448      0.650    27.9299 0.0000e+00
      0.457      0.001     4.7762     61.561    116.491 123.320662    10.4400     0.2381     0.0426     0.1269 1.7690e+02    -0.2189      0.449      0.651    27.9312 0.0000e+00
      0.457      0.001     4.7901     61.624    116.508 123.333825    10.4400     0.2228     0.0426     0.1269 1.7186e+02    -0.2491      0.449      0.651    27.9315 0.0000e+00
      0.457      0.000     4.8037     61.642    116.522 123.345887    10.4400     0.2419     0.0426     0.1269 1.7617e+02    -0.3549      0.449      0.651    27.9301 0.0000e+00
      0.457      0.000     4.8152     61.619    116.529 123.352064    10.3500     0.2228     0.0852     0.1692 1.7438e+02    -0.3549      0.449      0.651    27.9273 0.0000e+00
      0.458      0.001     4.8237     61.565    116.528 123.350001    10.3500     0.2037     0.0852     0.1692 1.7377e+02    -0.3700      0.449      0.651    27.9244 0.0000e+00
      0.458      0.001     4.8288     61.495    116.523 123.343150    10.3500     0.2075     0.0852     0.1692 1.7426e+02    -0.4153      0.449      0.651    27.9224 0.0000e+00
      0.458      0.001     4.8303     61.422    116.520 123.337685    10.3500     0.2342     0.0852     0.1692 1.7126e+02    -0.3700      0.450      0.652    27.9215 0.0000e+00
      0.458      0.001     4.8285     61.355    116.523 123.340153    10.5300     0.2190     0.0426     0.0846 1.7594e+02    -0.3549      0.450      0.652    27.9210 0.0000e+00
      0.459      0.002     4.8242     61.300    116.530 123.347209    10.5300     0.2457     0.0426     0.0846 1.7193e+02    -0.3246      0.450      0.653    27.9204 0.0000e+00
      0.459      0.002     4.8188     61.265    116.529 123.348731    10.5300     0.2228     0.0426     0.0846 1.7381e+02    -0.2944      0.451      0.653    27.9197 0.0000e+00
      0.460      0.002     4.8132     61.247    116.527 123.349127    10.5300     0.2228     0.0426     0.0846 1.7774e+02    -0.3246      0.451      0.654    27.9189 0.0000e+00
      0.460      0.003     4.8080     61.238    116.528 123.352504    10.4400     0.2113     0.0426     0.1692 1.7219e+02    -0.3549      0.452      0.655    27.9183 0.0000e+00
      0.461      0.003     4.8037     61.226    116.527 123.351761    10.4400     0.2495     0.0426     0.1692 1.7055e+02    -0.2642      0.453      0.656    27.9185 0.0000e+00
      0.462      0.002     4.8009     61.201    116.528 123.350700    10.4400     0.2075     0.0426     0.1692 1.7249e+02    -0.3397      0.453      0.657    27.9195 0.0000e+00
      0.463      0.002     4.7994     61.169    116.545 123.365042    10.4400     0.2152     0.0426     0.1692 1.7468e+02    -0.3549      0.454      0.659    27.9208 0.0000e+00
      0.463      0.001     4.7986     61.163    116.581 123.402614    10.4400     0.2304     0.0426     0.1692 1.7111e+02    -0.2944      0.455      0.659    27.9218 0.0000e+00
      0.464      0.000     4.7976     61.250    116.618 123.445425    10.4400     0.2381     0.0426     0.1269 1.7483e+02    -0.3549      0.455      0.660    27.9218 0.0000e+00
      0.464     -0.001     4.7958     61.506    116.630 123.464879    10.4400     0.2228     0.0426     0.1269 1.6992e+02    -0.3549      0.455      0.660    27.9207 0.0000e+00
      0.463     -0.004     4.7934     61.966    116.620 123.458164    10.4400     0.2419     0.0426     0.1269 1.7582e+02    -0.3246      0.455      0.659    27.9193 0.0000e+00
      0.463     -0.008     4.7930     62.605    116.599 123.431491    10.4400     0.2190     0.0426     0.1269 1.7074e+02    -0.3397      0.454      0.658    27.9189 0.0000e+00
      0.462     -0.013     4.7996     63.389    116.558 123.373748    10.4400     0.2113     0.0852     0.1269 1.7317e+02    -0.4002      0.453      0.656    27.9206 0.0000e+00
      0.459     -0.022     4.8195     64.325    116.511 123.295543    10.4400     0.2419     0.0852     0.1269 1.7037e+02    -0.4304      0.450      0.652    27.9237 0.0000e+00
      0.454     -0.032     4.8554     65.496    116.512 123.248044    10.4400     0.2037     0.0852     0.1269 1.7385e+02    -0.2793      0.445      0.645    27.9253 0.0000e+00
      0.445     -0.044     4.9056     67.109    116.594 123.264596    10.4400     0.1732     0.0852     0.1269 1.7081e+02    -0.3397      0.436      0.633    27.9233 0.0000e+00
      0.433     -0.055     4.9677     69.428    116.717 123.327599    10.5300     0.1579     0.0426     0.1269 1.6809e+02    -0.3700      0.424      0.615    27.9172 0.0000e+00
      0.415     -0.065     5.0421     72.551    116.820 123.401832    10.5300     0.1923     0.0426     0.1269 1.6595e+02    -0.3246      0.407      0.591    27.9052 0.0000e+00
      0.394     -0.070     5.1359     76.240    116.876 123.473075    10.5300     0.1579     0.0426     0.1269 1.5114e+02    -0.2642      0.387      0.561    27.8842 0.0000e+00
      0.372     -0.072     5.2652     79.988    116.896 123.544323    10.5300     0.1732     0.0426     0.1269 1.6827e+02    -0.4153      0.365      0.529    27.8544 0.0000e+00
      0.351     -0.069     5.4497     83.263    116.885 123.600572    10.4400     0.1770     0.0852     0.0846 1.7472e+02    -0.3246      0.345      0.500    27.8257 0.0000e+00
      0.334     -0.064     5.6961     85.694    116.828 123.604809    10.4400     0.1579     0.0852     0.0846 1.7487e+02    -0.2944      0.328      0.475    27.8108 0.0000e+00
      0.320     -0.059     5.9850     87.108    116.720 123.538164    10.4400     0.1732     0.0852     0.0846 1.6122e+02    -0.3397      0.313      0.455    27.8158 0.0000e+00
      0.307     -0.056     6.2767     87.518    116.592 123.430883    10.4400     0.1885     0.0852     0.0846 1.6703e+02    -0.4153      0.302      0.437    27.8371 0.0000e+00
      0.296     -0.055     6.5303     87.105    116.495 123.334385    10.4400     0.1846     0.0852     0.0846 1.6512e+02    -0.3246      0.291      0.421    27.8659 0.0000e+00
      0.284     -0.057     6.7178     86.143    116.457 123.282955    10.4400     0.1541     0.0852     0.1269 1.7260e+02    -0.3095      0.279      0.404    27.8934 0.0000e+00
      0.270     -0.060     6.8263     84.946    116.488 123.292885    10.4400     0.1923     0.0852     0.1269 1.9524e+02    -0.2491      0.265      0.384    27.9141 0.0000e+00
      0.252     -0.063     6.8570     83.814    116.565 123.352817    10.4400     0.1808     0.0852     0.1269 1.9707e+02    -0.3246      0.248      0.359    27.9260 0.0000e+00
      0.234     -0.062     6.8243     82.945    116.648 123.426715    10.4400     0.1389     0.0852     0.1269 2.4570e+02    -0.3397      0.229      0.332    27.9290 0.0000e+00
      0.215     -0.058     6.7497     82.371    116.711 123.488271    10.4400     0.1656     0.0426     0.1269 2.8806e+02    -0.3397      0.211      0.306    27.9238 0.0000e+00
      0.198     -0.049     6.6571     81.984    116.762 123.545895    10.4400     0.1694     0.0426     0.1269 3.0223e+02    -0.2944      0.195      0.282    27.9142 0.0000e+00
      0.186     -0.036     6.5695     81.630    116.817 123.618957    10.4400     0.1656     0.0426     0.1269 3.4001e+02    -0.3095      0.182      0.264    27.9049 0.0000e+00
      0.177     -0.019     6.5021     81.207    116.869 123.702931    10.4400     0.1732     0.0426     0.1269 3.6976e+02    -0.4002      0.174      0.252    27.8988 0.0000e+00
      0.174     -0.000     6.4574     80.685    116.899 123.778198    10.4400     0.1923     0.0426     0.0846 3.7829e+02    -0.4002      0.171      0.247    27.8967 0.0000e+00
      0.176      0.020     6.4269     80.063    116.901 123.832822    10.4400     0.1503     0.0426     0.0846 3.8871e+02    -0.2642      0.173      0.250    27.8984 0.0000e+00
      0.184      0.039     6.3984     79.362    116.886 123.871369    10.4400     0.1618     0.0426     0.0846 3.4665e+02    -0.2944      0.180      0.261    27.9046 0.0000e+00
      0.197      0.058     6.3639     78.658    116.855 123.888118    10.4400     0.1770     0.0426     0.0846 3.2839e+02    -0.3397      0.194      0.281    27.9169 0.0000e+00
      0.216      0.073     6.3210     78.073    116.790 123.859528    10.4400     0.1923     0.0426     0.0846 2.9936e+02    -0.3549      0.212      0.307    27.9355 0.0000e+00
      0.239      0.084     6.2698     77.721    116.682 123.773974    10.5300     0.1618     0.0426     0.0846 2.4736e+02    -0.2491      0.234      0.339    27.9581 0.0000e+00
      0.264      0.090     6.2123     77.655    116.563 123.662663    10.5300     0.1541     0.0426     0.0846 2.2721e+02    -0.4002      0.259      0.375    27.9815 0.0000e+00
      0.290      0.091     6.1549     77.876    116.492 123.583941    10.5300     0.1732     0.0426     0.0846 1.8027e+02    -0.3549      0.285      0.413    28.0027 0.0000e+00
      0.316      0.088     6.1073     78.396    116.493 123.566831    10.5300     0.1618     0.0426     0.0846 1.6900e+02    -0.4153      0.310      0.449    28.0200 0.0000e+00
      0.339      0.083     6.0783     79.236    116.540 123.594765    10.4400     0.1694     0.0426     0.1692 1.6440e+02    -0.3700      0.332      0.482    28.0326 0.0000e+00
      0.358      0.077     6.0725     80.304    116.591 123.631173    10.4400     0.1885     0.0426     0.1692 1.6845e+02    -0.2793      0.352      0.510    28.0388 0.0000e+00
      0.375      0.072     6.0899     81.384    116.630 123.661758    10.4400     0.1503     0.0426     0.1692 1.6937e+02    -0.2642      0.368      0.534    28.0371 0.0000e+00
      0.391      0.069     6.1315     82.267    116.665 123.698674    10.4400     0.1808     0.0426     0.1692 1.7506e+02    -0.3095      0.384      0.557    28.0293 0.0000e+00
      0.407      0.070     6.1982     82.845    116.711 123.755767    10.4400     0.1579     0.0426     0.1269 1.7178e+02    -0.2491      0.399      0.579    28.0198 0.0000e+00
      0.424      0.073     6.2825     83.095    116.775 123.840261    10.4400     0.1732     0.0426     0.1269 1.8495e+02    -0.1585      0.416      0.603    28.0123 0.0000e+00
      0.442      0.080     6.3675     83.055    116.839 123.932674    10.4400     0.1808     0.0426     0.1269 1.9129e+02    -0.2642      0.434      0.629    28.0081 0.0000e+00
      0.462      0.088     6.4366     82.783    116.876 124.001631    10.4400     0.1999     0.0426     0.1269 1.9992e+02    -0.3095      0.454      0.658    28.0077 0.0000e+00
      0.485      0.097     6.4815     82.309    116.900 124.055522    10.5300     0.1694     0.0852     0.0846 2.0564e+02    -0.2642      0.476      0.691    28.0113 0.0000e+00
      0.512      0.106     6.5002     81.686    116.937 124.120722    10.5300     0.1732     0.0852     0.0846 1.9866e+02    -0.4002      0.502      0.728    28.0184 0.0000e+00
      0.541      0.115     6.4958     81.030    116.981 124.190611    10.5300     0.1656     0.0852     0.0846 2.0105e+02    -0.3397      0.530      0.769    28.0289 0.0000e+00
      0.572      0.122     6.4731     80.455    117.018 124.247814    10.5300     0.1618     0.0852     0.0846 2.0166e+02    -0.3700      0.561      0.814    28.0416 0.0000e+00
      0.605      0.127     6.4347     80.012    117.047 124.291582    10.5300     0.1885     0.0852     0.0846 2.0462e+02    -0.2793      0.593      0.861    28.0537 0.0000e+00
      0.639      0.130     6.3848     79.699    117.071 124.323582    10.5300     0.2457     0.0852     0.2115 1.9494e+02    -0.3700      0.626      0.909    28.0646 0.0000e+00
      0.673      0.133     6.3323     79.529    117.091 124.344345    10.5300     0.2304     0.0852     0.2115 2.0236e+02    -0.3700      0.660      0.957    28.0745 0.0000e+00
      0.707      0.134     6.2866     79.544    117.111 124.359409    10.5300     0.2228     0.0852     0.2115 1.9570e+02    -0.2944      0.693      1.006    28.0825 0.0000e+00
      0.741      0.135     6.2513     79.801    117.123 124.362785    10.5300     0.2457     0.0852     0.2115 1.9562e+02    -0.3549      0.727      1.055    28.0880 0.0000e+00
      0.776      0.136     6.2266     80.311    117.109 124.333366    10.6200     0.2381     0.0000     0.2115 1.9200e+02    -0.0074      0.761      1.103    28.0906 0.0000e+00
      0.810      0.137     6.2133     80.972    117.075 124.279311    10.6200     0.2457     0.0000     0.2115 1.9158e+02    -0.0225      0.795      1.153    28.0905 0.0000e+00
      0.845      0.137     6.2147     81.639    117.060 124.246225    10.6200     0.2266     0.0000     0.2115 1.9162e+02    -0.1131      0.829      1.203    28.0881 0.0000e+00
      0.881      0.137     6.2352     82.253    117.087 124.255295    10.6200     0.2342     0.0000     0.2115 1.9042e+02    -0.0074      0.864      1.254    28.0837 0.0000e+00
      0.916      0.138     6.2758     82.836    117.133 124.278930    10.6200     0.2495     0.0852     0.1269 1.9025e+02    -0.1434      0.899      1.304    28.0775 0.0000e+00
      0.951      0.139     6.3283     83.371    117.175 124.287418    10.6200     0.2342     0.0852     0.1269 1.8976e+02    -0.0527      0.932      1.353    28.0702 0.0000e+00
      0.985      0.140     6.3813     83.774    117.207 124.269019    10.6200     0.2457     0.0852     0.1269 1.9154e+02    -0.1283      0.966      1.401    28.0625 0.0000e+00
      1.020      0.141     6.4303     83.955    117.226 124.216821    10.6200     0.2419     0.0852     0.1269 1.8861e+02    -0.0074      1.001      1.451    28.0541 0.0000e+00
      1.057      0.141     6.4770     83.876    117.224 124.136907    10.6200     0.2075     0.0852     0.1269 1.8791e+02    -0.0678      1.037      1.503    28.0436 0.0000e+00
      1.095      0.140     6.5206     83.579    117.213 124.057978    10.6200     0.2304     0.0426     0.1692 1.8681e+02    -0.0376      1.074      1.557    28.0285 0.0000e+00
      1.132      0.137     6.5548     83.144    117.211 124.006998    10.6200     0.2152     0.0426     0.1692 1.8519e+02    -0.0678      1.110      1.610    28.0058 0.0000e+00
      1.168      0.132     6.5724     82.651    117.220 123.986375    10.6200     0.2152     0.0426     0.1692 1.8519e+02    -0.0980      1.146      1.662    27.9753 0.0000e+00
      1.202      0.126     6.5701     82.185    117.243 123.990610    10.6200     0.2419     0.0426     0.1692 1.8637e+02    -0.0829      1.178      1.709    27.9421 0.0000e+00
      1.232      0.120     6.5501     81.843    117.277 124.004827    10.9800     0.2342     0.0852     0.1692 1.8572e+02    -0.0376      1.208      1.752    27.9133 0.0000e+00
      1.259      0.117     6.5184     81.694    117.307 124.004809    10.9800     0.2228     0.0852     0.1692 1.8632e+02    -0.0980      1.235      1.791    27.8926 0.0000e+00
      1.287      0.116     6.4813     81.714    117.335 123.982549    10.9800     0.2152     0.0852     0.1692 1.8544e+02    -0.1434      1.261      1.830    27.8797 0.0000e+00
      1.314      0.118     6.4458     81.781    117.367 123.944113    10.9800     0.2457     0.0852     0.1692 1.8447e+02    -0.1131      1.289      1.870    27.8710 0.0000e+00
      1.344      0.121     6.4200     81.746    117.405 123.899252    10.9800     0.2228     0.0000     0.1692 1.8467e+02     0.0077      1.318      1.912    27.8619 0.0000e+00
      1.376      0.124     6.4098     81.515    117.446 123.860005    10.9800     0.2228     0.0000     0.1692 1.8220e+02    -0.0829      1.350      1.958    27.8481 0.0000e+00
      1.410      0.126     6.4139     81.070    117.487 123.831905    10.9800     0.2342     0.0000     0.1692 1.8276e+02    -0.0376      1.383      2.006    27.8263 0.0000e+00
      1.444      0.126     6.4227     80.462    117.525 123.813459    10.9800     0.2991     0.0000     0.1692 1.8319e+02    -0.0678      1.416      2.054    27.7953 0.0000e+00
      1.477      0.123     6.4240     79.787    117.558 123.803745    10.9800     0.3143     0.0426     0.1269 1.8244e+02    -0.0527      1.449      2.101    27.7590 0.0000e+00
      1.509      0.119     6.4099     79.146    117.581 123.796171    10.9800     0.2724     0.0426     0.1269 1.8264e+02    -0.0678      1.480      2.147    27.7239 0.0000e+00
      1.539      0.113     6.3783     78.613    117.590 123.782712    10.9800     0.3029     0.0426     0.1269 1.8236e+02    -0.2038      1.509      2.189    27.6936 0.0000e+00
      1.567      0.107     6.3331     78.221    117.590 123.763783    10.9800     0.2991     0.0426     0.1269 1.8256e+02    -0.0980      1.536      2.228    27.6690 0.0000e+00
      1.592      0.102     6.2821     77.974    117.579 123.736334    10.9800     0.2838     0.0426     0.1269 1.8169e+02    -0.0980      1.562      2.265    27.6500 0.0000e+00
      1.616      0.099     6.2332     77.863    117.553 123.693045    10.9800     0.2876     0.0000     0.1269 1.8236e+02    -0.1736      1.585      2.299    27.6363 0.0000e+00
      1.640      0.098     6.1924     77.875    117.509 123.626375    10.9800     0.2648     0.0000     0.1269 1.8224e+02    -0.0678      1.608      2.332    27.6264 0.0000e+00
      1.663      0.101     6.1624     78.043    117.449 123.536549    10.9800     0.2876     0.0000     0.1269 1.8236e+02     0.1739      1.631      2.365    27.6187 0.0000e+00
      1.687      0.108     6.1437     78.426    117.395 123.443627    10.9800     0.3105     0.0000     0.1269 1.8129e+02     0.2947      1.655      2.400    27.6119 0.0000e+00
      1.714      0.117     6.1357     79.024    117.361 123.366841    10.8900     0.2991     0.0426     0.1269 1.8145e+02     0.1437      1.681      2.438    27.6048 0.0000e+00
      1.745      0.127     6.1377     79.758    117.344 123.309719    10.8900     0.2953     0.0426     0.1269 1.8094e+02     0.2192      1.711      2.481    27.5963 0.0000e+00
      1.779      0.137     6.1522     80.516    117.341 123.273032    10.8900     0.3029     0.0426     0.1269 1.8371e+02    -0.2038      1.745      2.530    27.5846 0.0000e+00
      1.817      0.145     6.1840     81.177    117.350 123.254995    10.8900     0.3143     0.0426     0.1269 1.8395e+02    -0.0527      1.782      2.584    27.5694 0.0000e+00
      1.857      0.151     6.2331     81.633    117.362 123.246797    10.9800     0.2724     0.0426     0.1692 1.8677e+02    -0.0980      1.821      2.641    27.5522 0.0000e+00
      1.898      0.152     6.2929     81.844    117.376 123.246251    10.9800     0.2876     0.0426     0.1692 1.8771e+02    -0.1283      1.862      2.700    27.5354 0.0000e+00
      1.939      0.151     6.3544     81.855    117.390 123.249210    10.9800     0.3105     0.0426     0.1692 1.8984e+02     0.1588      1.901      2.757    27.5208 0.0000e+00
      1.977      0.147     6.4079     81.774    117.391 123.240457    10.9800     0.2800     0.0426     0.1692 1.9100e+02     0.2192      1.939      2.812    27.5091 0.0000e+00
      2.014      0.142     6.4448     81.728    117.375 123.213657    10.9800     0.2648     0.0426     0.1692 1.9254e+02     0.2192      1.975      2.864    27.5003 0.0000e+00
      2.049      0.138     6.4622     81.824    117.355 123.179669    10.9800     0.3067     0.0426     0.2115 1.9279e+02     0.1286      2.009      2.914    27.4938 0.0000e+00
      2.082      0.136     6.4636     82.081    117.345 123.153436    10.9800     0.3830     0.0426     0.2115 1.9338e+02     0.1588      2.042      2.961    27.4889 0.0000e+00
      2.115      0.135     6.4576     82.403    117.350 123.137965    10.9800     0.3563     0.0426     0.2115 1.9338e+02     0.1890      2.074      3.008    27.4849 0.0000e+00
      2.149      0.135     6.4545     82.650    117.361 123.129128    10.9800     0.3639     0.0426     0.2115 1.9507e+02     0.1890      2.107      3.056    27.4806 0.0000e+00
      2.184      0.136     6.4627     82.727    117.380 123.128569    10.9800     0.3601     0.0000     0.1692 1.9737e+02     0.2041      2.142      3.106    27.4752 0.0000e+00
      2.219      0.136     6.4838     82.615    117.407 123.138139    10.9800     0.3792     0.0000     0.1692 1.9788e+02     0.2494      2.177      3.157    27.4682 0.0000e+00
      2.255      0.135     6.5102     82.361    117.431 123.148383    10.9800     0.3525     0.0000     0.1692 1.9996e+02     0.2192      2.211      3.207    27.4597 0.0000e+00
      2.290      0.133     6.5308     82.046    117.440 123.144029    10.9800     0.3220     0.0000     0.1692 2.0157e+02     0.1588      2.245      3.257    27.4506 0.0000e+00
      2.324      0.130     6.5379     81.776    117.427 123.115911    11.1600     0.3296     0.0426     0.1269 2.0329e+02     0.0681      2.279      3.305    27.4419 0.0000e+00
      2.356      0.129     6.5300     81.669    117.396 123.066536    11.1600     0.4212     0.0426     0.1269 2.0426e+02     0.1286      2.310      3.351    27.4341 0.0000e+00
      2.387      0.129     6.5106     81.806    117.360 123.006743    11.1600     0.4440     0.0426     0.1269 2.0431e+02     0.1588      2.341      3.395    27.4275 0.0000e+00
      2.418      0.130     6.4864     82.131    117.335 122.954596    11.1600     0.4364     0.0426     0.1269 2.0440e+02     0.2192      2.372      3.440    27.4216 0.0000e+00
      2.451      0.133     6.4657     82.442    117.337 122.928196    11.4300     0.3945     0.0426     0.1692 2.0573e+02     0.1437      2.403      3.485    27.4156 0.0000e+00
      2.485      0.136     6.4581     82.515    117.370 122.936506    11.4300     0.4364     0.0426     0.1692 2.0771e+02     0.4156      2.437      3.534    27.4085 0.0000e+00
      2.521      0.139     6.4701     82.213    117.420 122.969736    11.4300     0.4250     0.0426     0.1692 2.1080e+02     0.3249      2.473      3.586    27.3993 0.0000e+00
      2.559      0.141     6.4971     81.516    117.458 122.996735    11.4300     0.3945     0.0426     0.1692 2.1227e+02     0.3400      2.509      3.640    27.3880 0.0000e+00
      2.596      0.140     6.5231     80.505    117.460 122.990692    11.4300     0.4135     0.0426     0.1692 2.1427e+02     0.4911      2.546      3.693    27.3758 0.0000e+00
      2.633      0.138     6.5301     79.365    117.421 122.943994    11.5200     0.4135     0.0000     0.0846 2.1403e+02     0.2645      2.582      3.744    27.3648 0.0000e+00
      2.667      0.136     6.5072     78.359    117.358 122.874198    11.5200     0.4288     0.0000     0.0846 2.1487e+02     0.1739      2.615      3.793    27.3565 0.0000e+00
      2.700      0.135     6.4526     77.725    117.309 122.816706    11.5200     0.4173     0.0000     0.0846 2.1450e+02     0.2192      2.648      3.841    27.3510 0.0000e+00
      2.733      0.134     6.3730     77.521    117.290 122.788196    11.5200     0.4135     0.0000     0.0846 2.1492e+02     0.1286      2.680      3.887    27.3475 0.0000e+00
      2.767      0.133     6.2830     77.625    117.297 122.785067    11.4300     0.4364     0.0426     0.2115 2.1675e+02     0.1739      2.713      3.935    27.3453 0.0000e+00
      2.802      0.133     6.2036     77.843    117.327 122.806481    11.4300     0.4784     0.0426     0.2115 2.1883e+02     0.3854      2.747      3.985    27.3437 0.0000e+00
      2.837      0.131     6.1536     78.027    117.372 122.846146    11.4300     0.4440     0.0426     0.2115 2.2112e+02     0.4005      2.782      4.035    27.3412 0.0000e+00
      2.871      0.128     6.1379     78.105    117.416 122.886631    11.4300     0.4822     0.0426     0.2115 2.2122e+02     0.4005      2.816      4.084    27.3373 0.0000e+00
      2.904      0.124     6.1467     78.078    117.444 122.910723    11.4300     0.4860     0.0426     0.1692 2.2257e+02     0.3552      2.848      4.130    27.3327 0.0000e+00
      2.935      0.120     6.1644     78.005    117.447 122.908843    11.4300     0.4517     0.0426     0.1692 2.2276e+02     0.4609      2.878      4.174    27.3286 0.0000e+00
      2.964      0.116     6.1793     77.998    117.421 122.876489    11.4300     0.4593     0.0426     0.1692 2.2378e+02     0.4911      2.906      4.216    27.3255 0.0000e+00
      2.992      0.114     6.1858     78.186    117.370 122.817034    11.4300     0.4860     0.0426     0.1692 2.2466e+02     0.4005      2.934      4.255    27.3231 0.0000e+00
      3.019      0.114     6.1839     78.646    117.313 122.750635    11.4300     0.4593     0.0426     0.1692 2.2579e+02     0.3249      2.961      4.294    27.3209 0.0000e+00
      3.047      0.116     6.1783     79.315    117.271 122.699597    11.5200     0.5089     0.0426     0.2538 2.2583e+02     0.4760      2.988      4.334    27.3187 0.0000e+00
      3.076      0.120     6.1780     80.011    117.251 122.670313    11.5200     0.5280     0.0426     0.2538 2.2726e+02     0.3854      3.017      4.376    27.3164 0.0000e+00
      3.107      0.124     6.1932     80.562    117.244 122.654974    11.5200     0.5394     0.0426     0.2538 2.2855e+02     0.3400      3.047      4.420    27.3139 0.0000e+00
      3.140      0.128     6.2300     80.878    117.242 122.645488    11.5200     0.5394     0.0426     0.2538 2.3090e+02     0.3552      3.080      4.467    27.3110 0.0000e+00
      3.174      0.131     6.2833     80.976    117.247 122.643327    11.5200     0.5776     0.0426     0.0846 2.3225e+02     0.4911      3.113      4.515    27.3078 0.0000e+00
      3.209      0.132     6.3388     80.966    117.254 122.643912    11.5200     0.5661     0.0426     0.0846 2.3256e+02     0.3703      3.147      4.564    27.3044 0.0000e+00
      3.243      0.133     6.3828     80.969    117.249 122.631394    11.5200     0.5738     0.0426     0.0846 2.3515e+02     0.4156      3.181      4.613    27.3009 0.0000e+00
      3.277      0.134     6.4083     81.054    117.224 122.598435    11.5200     0.5661     0.0426     0.0846 2.3372e+02     0.3249      3.214      4.661    27.2977 0.0000e+00
      3.311      0.134     6.4164     81.263    117.192 122.558250    11.7000     0.6386     0.0426     0.2115 2.3494e+02     0.6724      3.247      4.710    27.2946 0.0000e+00
      3.345      0.135     6.4159     81.606    117.172 122.528130    11.7000     0.6348     0.0426     0.2115 2.3633e+02     0.6724      3.280      4.757    27.2916 0.0000e+00
      3.379      0.138     6.4165     82.006    117.160 122.506046    11.7000     0.6348     0.0426     0.2115 2.3995e+02     0.5817      3.313      4.805    27.2888 0.0000e+00
      3.413      0.141     6.4236     82.328    117.147 122.482106    11.7000     0.6653     0.0426     0.2115 2.4194e+02     0.7026      3.347      4.855    27.2859 0.0000e+00
      3.450      0.144     6.4405     82.479    117.135 122.457927    11.7000     0.6272     0.0426     0.1692 2.4485e+02     0.7026      3.383      4.906    27.2826 0.0000e+00
      3.488      0.148     6.4681     82.489    117.126 122.435064    11.7000     0.6348     0.0426     0.1692 2.4517e+02     0.6573      3.420      4.960    27.2790 0.0000e+00
      3.526      0.152     6.5003     82.508    117.118 122.411421    11.7000     0.6272     0.0426     0.1692 2.4168e+02     0.6120      3.458      5.015    27.2751 0.0000e+00
      3.565      0.156     6.5263     82.698    117.117 122.392695    11.7000     0.6424     0.0426     0.1692 2.3612e+02     0.6271      3.496      5.070    27.2707 0.0000e+00
      3.605      0.158     6.5389     83.115    117.118 122.373890    11.7000     0.6996     0.0426     0.1692 2.3387e+02     0.5817      3.535      5.127    27.2658 0.0000e+00
      3.646      0.160     6.5403     83.798    117.098 122.329987    12.0600     0.6844     0.0852     0.0846 2.2930e+02     0.6875      3.576      5.186    27.2600 0.0000e+00
      3.689      0.161     6.5427     84.955    117.041 122.241275    12.0600     0.6920     0.0852     0.0846 2.2569e+02     0.7328      3.617      5.246    27.2532 0.0000e+00
      3.731      0.162     6.5587     86.996    116.974 122.130109    12.0600     0.7073     0.0852     0.0846 2.2349e+02     0.5817      3.658      5.306    27.2455 0.0000e+00
      3.771      0.163     6.5928     90.241    116.933 122.034860    12.0600     0.6424     0.0852     0.0846 2.2335e+02     0.5817      3.698      5.364    27.2372 0.0000e+00
      3.812      0.164     6.6482     94.524    116.909 121.956130    12.3300     0.6615     0.0852     0.1692 2.2383e+02     0.7932      3.738      5.422    27.2276 0.0000e+00
      3.853      0.164     6.7417     99.236    116.894 121.892926    12.3300     0.6157     0.0852     0.1692 2.2002e+02     0.6422      3.779      5.481    27.2150 0.0000e+00
      3.896      0.163     6.9060    103.739    116.899 121.860397    12.3300     0.6233     0.0852     0.1692 2.1163e+02     0.6120      3.820      5.541    27.1973 0.0000e+00
      3.939      0.163     7.1666    107.561    116.908 121.839867    12.3300     0.6233     0.0852     0.1692 2.0726e+02     0.2343      3.863      5.602    27.1750 0.0000e+00
      3.981      0.161     7.5098    110.367    116.895 121.799853    12.1500     0.6424     0.0852     0.2115 2.0347e+02     0.1437      3.904      5.662    27.1519 0.0000e+00
      4.022      0.159     7.8869    111.943    116.865 121.743686    12.1500     0.6233     0.0852     0.2115 2.0149e+02     0.0983      3.944      5.720    27.1318 0.0000e+00
      4.061      0.155     8.2471    112.242    116.843 121.694398    12.1500     0.6577     0.0852     0.2115 1.9966e+02     0.2192      3.983      5.776    27.1156 0.0000e+00
      4.100      0.151     8.5528    111.453    116.834 121.658848    12.1500     0.7454     0.0852     0.2115 1.9724e+02     0.8386      4.021      5.832    27.1026 0.0000e+00
      4.139      0.146     8.7775    109.943    116.821 121.619553    12.1500     0.7492     0.0852     0.2115 1.9137e+02     0.8386      4.058      5.887    27.0913 0.0000e+00
      4.177      0.140     8.9043    108.108    116.795 121.570033    11.9700     0.7302     0.0426     0.1692 1.8758e+02     0.8990      4.096      5.941    27.0806 0.0000e+00
      4.213      0.133     8.9298    106.253    116.772 121.525088    11.9700     0.7416     0.0426     0.1692 1.8303e+02     0.8839      4.131      5.992    27.0696 0.0000e+00
      4.247      0.124     8.8687    104.596    116.761 121.496736    11.9700     0.7645     0.0426     0.1692 1.8252e+02     0.8386      4.164      6.040    27.0584 0.0000e+00
      4.277      0.116     8.7502    103.256    116.765 121.487420    11.9700     0.7492     0.0426     0.1692 1.7883e+02     0.9141      4.194      6.084    27.0475 0.0000e+00
      4.305      0.107     8.6056    102.232    116.780 121.492653    11.9700     0.7683     0.0426     0.1692 1.7887e+02     0.9443      4.222      6.123    27.0376 0.0000e+00
      4.330      0.101     8.4592    101.474    116.795 121.499828    11.9700     0.7416     0.0426     0.1692 1.7821e+02     0.8839      4.246      6.159    27.0289 0.0000e+00
      4.354      0.096     8.3285    100.956    116.796 121.492854    11.9700     0.7530     0.0426     0.1692 1.7659e+02     0.9594      4.269      6.192    27.0216 0.0000e+00
      4.376      0.094     8.2226    100.657    116.784 121.471871    11.9700     0.7683     0.0426     0.1692 1.7732e+02     0.8537      4.291      6.224    27.0158 0.0000e+00
      4.399      0.093     8.1417    100.522    116.785 121.463291    12.3300     0.7607     0.0426     0.2115 1.7510e+02     0.8990      4.314      6.257    27.0114 0.0000e+00
      4.423      0.094     8.0819    100.484    116.792 121.460823    12.3300     0.7607     0.0426     0.2115 1.7275e+02     0.8990      4.337      6.291    27.0077 0.0000e+00
      4.447      0.095     8.0412    100.487    116.778 121.433802    12.3300     0.6996     0.0426     0.2115 1.7100e+02     0.9443      4.361      6.326    27.0042 0.0000e+00
      4.472      0.097     8.0179    100.501    116.761 121.401029    12.3300     0.7187     0.0426     0.2115 1.6911e+02     0.8990      4.386      6.361    27.0006 0.0000e+00
      4.497      0.098     8.0077    100.512    116.755 121.373768    12.5100     0.6958     0.0426     0.2538 1.6758e+02     0.8839      4.410      6.397    26.9966 0.0000e+00
      4.522      0.099     8.0053    100.500    116.725 121.312742    12.5100     0.7111     0.0426     0.2538 1.6580e+02     0.8990      4.435      6.432    26.9922 0.0000e+00
      4.547      0.100     8.0063    100.438    116.663 121.205678    12.5100     0.7569     0.0426     0.2538 1.6505e+02     1.0954      4.460      6.468    26.9870 0.0000e+00
      4.573      0.102     8.0084    100.311    116.599 121.080035    12.5100     0.7721     0.0426     0.2538 1.6362e+02     1.1407      4.484      6.504    26.9804 0.0000e+00
      4.598      0.105     8.0106    100.107    116.534 120.936313    12.5100     0.7569     0.0426     0.2538 1.6312e+02     1.1407      4.509      6.540    26.9715 0.0000e+00
      4.624      0.109     8.0114     99.812    116.472 120.778191    12.6900     0.7530     0.0426     0.2961 1.6115e+02     1.1558      4.535      6.578    26.9587 0.0000e+00
      4.652      0.113     8.0091     99.403    116.431 120.631511    12.6900     0.8217     0.0426     0.2961 1.6066e+02     2.1226      4.562      6.617    26.9403 0.0000e+00
      4.682      0.117     8.0025     98.864    116.412 120.511160    12.6900     0.8141     0.0426     0.2961 1.5868e+02     2.1679      4.591      6.659    26.9150 0.0000e+00
      4.713      0.121     7.9910     98.196    116.414 120.425045    12.6900     0.8293     0.0426     0.2961 1.5420e+02     2.2132      4.622      6.704    26.8824 0.0000e+00
      4.746      0.123     7.9731     97.429    116.430 120.362201    12.6900     0.8446     0.0426     0.3807 1.5029e+02     2.1830      4.654      6.751    26.8422 0.0000e+00
      4.779      0.122     7.9468     96.614    116.457 120.313869    12.6900     0.8103     0.0426     0.3807 1.4812e+02     3.0139      4.686      6.797    26.7974 0.0000e+00
      4.811      0.120     7.9098     95.813    116.511 120.289162    12.6900     0.8293     0.0426     0.3807 1.4614e+02     3.0139      4.718      6.842    26.7543 0.0000e+00
      4.841      0.117     7.8617     95.099    116.581 120.271486    12.6900     0.8217     0.0426     0.3807 1.4446e+02     3.0139      4.748      6.886    26.7163 0.0000e+00
      4.871      0.113     7.8050     94.537    116.654 120.244121    13.3200     0.8141     0.0852     0.2538 1.4272e+02     2.9837      4.776      6.927    26.6825 0.0000e+00
      4.899      0.109     7.7443     94.156    116.754 120.229771    13.3200     0.9323     0.0852     0.2538 1.4124e+02     2.7269      4.804      6.967    26.6498 0.0000e+00
      4.926      0.106     7.6849     93.975    116.904 120.242609    13.3200     0.9438     0.0852     0.2538 1.3929e+02     2.8175      4.830      7.006    26.6151 0.0000e+00
      4.952      0.104     7.6330     94.007    117.115 120.276054    13.3200     0.9438     0.0852     0.2538 1.3835e+02     2.6815      4.856      7.043    26.5766 0.0000e+00
      4.977      0.104     7.5940     94.239    117.407 120.327017    13.3200     0.9705     0.0852     0.2538 1.3778e+02     2.7571      4.880      7.078    26.5329 0.0000e+00
      5.002      0.105     7.5704     94.635    117.751 120.371070    14.4900     1.3024     0.0852     0.3384 1.3745e+02     1.6241      4.905      7.114    26.4829 0.0000e+00
      5.028      0.107     7.5642     95.209    118.079 120.371933    14.4900     1.3253     0.0852     0.3384 1.3597e+02     1.5486      4.931      7.151    26.4229 0.0000e+00
      5.056      0.110     7.5776     96.039    118.373 120.337818    14.4900     1.3253     0.0852     0.3384 1.3161e+02     1.5939      4.958      7.191    26.3448 0.0000e+00
      5.085      0.112     7.6111     97.163    118.628 120.271615    14.4900     1.3062     0.0852     0.3384 1.2987e+02     1.6241      4.987      7.233    26.2394 0.0000e+00
      5.115      0.112     7.6616     98.519    118.802 120.135650    14.8500     1.7449     0.1278     0.2961 1.2697e+02     0.4156      5.017      7.276    26.1087 0.0000e+00
      5.145      0.111     7.7281    100.001    118.882 119.919656    14.8500     1.7296     0.1278     0.2961 1.2392e+02     0.4156      5.045      7.318    25.9672 0.0000e+00
      5.173      0.109     7.8158    101.495    118.901 119.658036    14.8500     1.7525     0.1278     0.2961 1.2194e+02     0.4005      5.073      7.358    25.8259 0.0000e+00
      5.200      0.107     7.9274    102.878    118.858 119.351024    14.8500     1.7601     0.1278     0.2961 1.2010e+02     0.4156      5.100      7.397    25.6884 0.0000e+00
      5.226      0.105     8.0575    104.016    118.717 118.958745    16.3800     1.6228     0.1278     0.4653 1.1922e+02     0.6422      5.125      7.434    25.5564 0.0000e+00
      5.252      0.104     8.1974    104.790    118.555 118.550597    16.3800     1.6228     0.1278     0.4653 1.1798e+02     0.5969      5.150      7.470    25.4308 0.0000e+00
      5.278      0.105     8.3378    105.125    118.504 118.259752    16.3800     1.6381     0.1278     0.4653 1.1693e+02     0.6875      5.175      7.506    25.3123 0.0000e+00
      5.304      0.106     8.4684    105.013    118.572 118.100648    16.3800     1.6190     0.1278     0.4653 1.1402e+02     0.8083      5.201      7.544    25.2010 0.0000e+00
      5.332      0.107     8.5784    104.480    118.680 117.994844    19.1700     1.5084     0.0852     0.3384 1.0977e+02     1.0954      5.228      7.583    25.0953 0.0000e+00
      5.360      0.108     8.6582    103.596    118.757 117.868116    19.1700     1.5084     0.0852     0.3384 1.0755e+02     1.2011      5.256      7.623    24.9920 0.0000e+00
      5.388      0.109     8.7017    102.523    118.784 117.700661    19.1700     1.4931     0.0852     0.3384 1.0556e+02     1.1709      5.284      7.663    24.8911 0.0000e+00
      5.415      0.109     8.7074    101.498    118.785 117.519819    19.1700     1.5084     0.0852     0.3384 1.0374e+02     1.1407      5.311      7.703    24.7955 0.0000e+00
      5.443      0.109     8.6773    100.746    118.763 117.327360    19.1700     1.5732     0.0852     0.3384 1.0116e+02     0.9292      5.338      7.742    24.7056 0.0000e+00
      5.471      0.109     8.6174    100.405    118.689 117.093955    21.9600     1.5580     0.0426     0.4230 9.9067e+01     0.9745      5.365      7.782    24.6198 0.0000e+00
      5.499      0.108     8.5409    100.517    118.578 116.831358    21.9600     1.5503     0.0426     0.4230 9.6141e+01     0.8083      5.393      7.822    24.5383 0.0000e+00
      5.527      0.108     8.4676    101.069    118.466 116.575537    21.9600     1.5694     0.0426     0.4230 9.4402e+01     0.9745      5.420      7.861    24.4615 0.0000e+00
      5.554      0.108     8.4163    102.000    118.375 116.340268    21.9600     1.5732     0.0426     0.4230 9.3341e+01     0.6271      5.447      7.900    24.3896 0.0000e+00
      5.581      0.108     8.3987    103.190    118.332 116.148804    22.3200     1.5580     0.0426     0.4230 9.2292e+01     0.6724      5.473      7.938    24.3218 0.0000e+00
      5.608      0.109     8.4184    104.482    118.335 115.996081    22.3200     1.5770     0.0426     0.4230 9.1513e+01     0.6724      5.499      7.976    24.2575 0.0000e+00
      5.636      0.110     8.4746    105.719    118.321 115.821367    22.3200     1.5885     0.0426     0.4230 9.0171e+01     0.7630      5.526      8.016    24.1958 0.0000e+00
      5.664      0.112     8.5626    106.768    118.253 115.584066    22.3200     4.3504     0.0426     0.4230 8.8175e+01     0.6271      5.554      8.056    24.1346 0.0000e+00
      5.693      0.113     8.6728    107.548    118.135 115.280887    22.7700     4.3427     0.0852     0.5922 8.6618e+01     0.6422      5.583      8.097    24.0715 0.0000e+00
      5.722      0.115     8.7922    108.009    117.985 114.922972    22.7700     4.3389     0.0852     0.5922 8.5925e+01     0.7630      5.611      8.139    24.0059 0.0000e+00
      5.751      0.117     8.9075    108.124    117.882 114.576853    22.7700     4.3504     0.0852     0.5922 8.4425e+01     0.6271      5.640      8.180    23.9378 0.0000e+00
      5.781      0.119     9.0080    107.903    117.908 114.318205    22.7700    24.6639     0.0852     0.5922 8.2970e+01     2.1981      5.670      8.223    23.8655 0.0000e+00
      5.812      0.121     9.0871    107.418    118.034 114.126039    22.7700    24.7021     0.0852     0.5922 8.2038e+01     2.1377      5.699      8.266    23.7861 0.0000e+00
      5.843      0.123     9.1413    106.793    118.206 113.963092    23.2200    24.6716     0.0426     0.4653 8.0188e+01     2.1377      5.730      8.310    23.6964 0.0000e+00
      5.874      0.125     9.1686    106.175    118.393 113.815890    23.2200    24.6639     0.0426     0.4653 7.8754e+01     2.2435      5.761      8.355    23.5926 0.0000e+00
      5.907      0.127     9.1703    105.668    118.545 113.635169    23.2200    26.3424     0.0426     0.4653 7.7045e+01     2.7722      5.793      8.401    23.4729 0.0000e+00
      5.940      0.129     9.1518    105.288    118.636 113.376724    23.2200    26.3081     0.0426     0.4653 7.5470e+01     2.7873      5.825      8.448    23.3401 0.0000e+00
      5.973      0.130     9.1224    105.004    118.703 113.049614    23.4900    26.2966     0.0426     0.5922 7.3640e+01     2.8326      5.858      8.496    23.2011 0.0000e+00
      6.007      0.131     9.0933    104.793    118.787 112.676579    23.4900    26.3501     0.0426     0.5922 7.2214e+01     2.7571      5.891      8.544    23.0626 0.0000e+00
      6.040      0.132     9.0736    104.608    118.891 112.258107    23.4900    11.3695     0.0426     0.5922 7.1170e+01     2.5607      5.924      8.591    22.9247 0.0000e+00
      6.073      0.132     9.0660    104.316    119.009 111.794561    23.4900    11.3390     0.0426     0.5922 6.9989e+01     2.5305      5.956      8.639    22.7792 0.0000e+00
      6.107      0.133     9.0700    103.715    119.124 111.282276    24.8400    11.3542     0.1278     3.3840 6.9158e+01     2.4398      5.989      8.686    22.6147 0.0000e+00
      6.141      0.134     9.0846    102.609    119.239 110.724583    24.8400    11.3504     0.1278     3.3840 6.7495e+01     2.6513      6.022      8.735    22.4244 0.0000e+00
      6.175      0.135     9.1058    100.871    119.394 110.148692    24.8400     7.3793     0.1278     3.3840 6.5987e+01     1.9111      6.056      8.784    22.2070 0.0000e+00
      6.210      0.137     9.1216     98.401    119.616 109.590944    24.8400     7.3716     0.1278     3.3840 6.5019e+01     1.8809      6.090      8.833    21.9658 0.0000e+00
      6.245      0.139     9.1130     95.072    119.877 109.048524    25.7400     7.3945     0.1278     4.7376 6.3898e+01     1.8960      6.125      8.883    21.7061 0.0000e+00
      6.281      0.140     9.0624     90.735    120.134 108.490713    25.7400     7.3793     0.1278     4.7376 6.1487e+01     1.7903      6.159      8.933    21.4278 0.0000e+00
      6.317      0.142     8.9583     85.319    120.418 107.942665    25.7400     6.9482     0.1278     4.7376 5.9039e+01     1.6845      6.195      8.984    21.1272 0.0000e+00
      6.353      0.143     8.7901     78.955    120.750 107.444123    25.7400     6.9444     0.1278     4.7376 5.5638e+01     1.5939      6.231      9.036    20.8091 0.0000e+00
      6.390      0.143     8.5433     71.991    121.077 106.972061    25.7400     6.9482     0.1278     4.7376 5.0774e+01     1.6543      6.267      9.089    20.4840 0.0000e+00
      6.427      0.144     8.2025     64.885    121.379 106.492527    26.1900     6.9291     0.1278     2.2842 4.7261e+01     1.6392      6.303      9.141    20.1548 0.0000e+00
      6.464      0.145     7.7598     58.119    121.718 106.031546    26.1900     4.7356     0.1278     2.2842 4.5162e+01     1.7449      6.339      9.193    19.8213 0.0000e+00
      6.500      0.146     7.2245     52.159    122.082 105.592099    26.1900     4.7356     0.1278     2.2842 4.4019e+01     1.6090      6.374      9.245    19.4923 0.0000e+00
      6.537      0.147     6.6260     47.391    122.394 105.124931    26.1900     4.7509     0.1278     2.2842 4.1619e+01     1.5183      6.410      9.297    19.1772 0.0000e+00
      6.574      0.149     6.0070     44.040    122.651 104.627373    26.6400     4.7585     0.1278     1.2690 3.8840e+01     1.6543      6.447      9.351    18.8695 0.0000e+00
      6.613      0.151     5.4139     42.134    122.880 104.128623    26.6400     3.7324     0.1278     1.2690 3.7229e+01     1.4730      6.485      9.406    18.5583 0.0000e+00
      6.652      0.152     4.8905     41.520    123.088 103.649564    26.6400     3.7286     0.1278     1.2690 3.5607e+01     1.3824      6.524      9.462    18.2481 0.0000e+00
      6.692      0.152     4.4735     41.922    123.294 103.200341    26.6400     3.7171     0.1278     1.2690 3.4174e+01     1.4881      6.563      9.518    17.9466 0.0000e+00
      6.731      0.152     4.1860     43.006    123.503 102.769070    27.1800     3.7095     0.1704     1.0998 3.3302e+01     1.4126      6.601      9.574    17.6530 0.0000e+00
      6.770      0.152     4.0325     44.435    123.685 102.324670    27.1800     3.7362     0.1704     1.0998 3.2572e+01     1.4579      6.639      9.629    17.3701 0.0000e+00
      6.808      0.152     3.9998     45.916    123.826 101.858540    27.1800     3.8316     0.1704     1.0998 3.1671e+01     1.5788      6.676      9.683    17.1035 0.0000e+00
      6.846      0.152     4.0631     47.204    123.959 101.398252    27.1800     3.8316     0.1704     1.0998 3.0676e+01     1.6845      6.714      9.737    16.8507 0.0000e+00
      6.885      0.153     4.1918     48.106    124.107 100.960942    27.1800     3.8316     0.1704     1.0998 2.9595e+01     1.6241      6.752      9.793    16.6050 0.0000e+00
      6.924      0.154     4.3541     48.472    124.265 100.545888    27.6300     3.8316     0.1278     0.8037 2.8448e+01     1.6694      6.791      9.848    16.3639 0.0000e+00
      6.964      0.154     4.5218     48.170    124.424 100.152305    27.6300     2.8740     0.1278     0.8037 2.7488e+01     2.1377      6.829      9.905    16.1283 0.0000e+00
      7.003      0.155     4.6707     47.102    124.570  99.775142    27.6300     2.8740     0.1278     0.8037 2.6629e+01     2.1679      6.868      9.961    15.8983 0.0000e+00
      7.043      0.155     4.7816     45.261    124.707  99.415724    27.6300     2.8550     0.1278     0.8037 2.5820e+01     2.1075      6.907     10.017    15.6734 0.0000e+00
      7.082      0.157     4.8390     42.750    124.841  99.072113    27.8100     2.8397     0.1704     0.7191 2.4992e+01     2.1377      6.945     10.073    15.4546 0.0000e+00
      7.122      0.158     4.8288     39.766    124.968  98.744588    27.8100     2.2980     0.1704     0.7191 2.4690e+01     2.9081      6.984     10.129    15.2447 0.0000e+00
      7.162      0.160     4.7401     36.572    125.120  98.475680    27.8100     2.2942     0.1704     0.7191 2.3997e+01     2.9081      7.023     10.186    15.0459 0.0000e+00
      7.203      0.161     4.5718     33.467    125.291  98.279592    27.8100     2.3171     0.1704     0.7191 2.2941e+01     2.6664      7.063     10.245    14.8577 0.0000e+00
      7.245      0.162     4.3338     30.729    125.390  98.092033    27.8100     2.3018     0.1704     0.7614 2.1908e+01     2.7571      7.105     10.305    14.6773 0.0000e+00
      7.288      0.162     4.0454     28.590    125.384  97.868973    27.8100     1.4855     0.1704     0.7614 2.0849e+01     2.7722      7.147     10.366    14.5059 0.0000e+00
      7.330      0.163     3.7329     27.198    125.332  97.630855    27.8100     1.4817     0.1704     0.7614 2.0260e+01     2.8175      7.188     10.426    14.3502 0.0000e+00
      7.371      0.163     3.4261     26.589    125.286  97.400099    27.8100     1.5046     0.1704     0.7614 1.9997e+01     2.7420      7.228     10.484    14.2182 0.0000e+00
      7.411      0.164     3.1538     26.729    125.276  97.199089    27.8100     1.5007     0.2130     0.4653 1.9906e+01     2.7873      7.268     10.541    14.1120 0.0000e+00
      7.451      0.167     2.9409     27.559    125.303  97.038154    27.8100     1.2451     0.2130     0.4653 1.9230e+01     2.5758      7.307     10.599    14.0247 0.0000e+00
      7.494      0.170     2.8034     29.017    125.327  96.896350    27.8100     1.2490     0.2130     0.4653 1.8501e+01     2.6060      7.349     10.659    13.9458 0.0000e+00
      7.538      0.174     2.7464     31.022    125.332  96.763831    27.8100     1.2566     0.2130     0.4653 1.7435e+01     2.5003      7.392     10.721    13.8680 0.0000e+00
      7.584      0.179     2.7663     33.451    125.314  96.629232    27.8100     1.2490     0.2130     0.4653 1.6510e+01     2.5607      7.437     10.787    13.7910 0.0000e+00
      7.630      0.183     2.8575     36.133    125.300  96.502613    27.9000     0.8217     0.2130     0.5076 1.5732e+01     2.3945      7.483     10.853    13.7184 0.0000e+00
      7.678      0.187     3.0134     38.862    125.334  96.418141    27.9000     0.8217     0.2130     0.5076 1.5294e+01     2.3643      7.529     10.920    13.6543 0.0000e+00
      7.726      0.190     3.2257     41.430    125.407  96.375265    27.9000     0.8370     0.2130     0.5076 1.4264e+01     2.2132      7.576     10.989    13.5998 0.0000e+00
      7.775      0.192     3.4822     43.642    125.471  96.342564    27.9000     0.8141     0.2130     0.5076 1.3202e+01     2.3039      7.624     11.058    13.5517 0.0000e+00
      7.825      0.193     3.7651     45.345    125.497  96.291338    27.7200     0.5852     0.2130     0.3807 1.2230e+01     2.3039      7.673     11.129    13.5056 0.0000e+00
      7.875      0.194     4.0533     46.449    125.490  96.215915    27.7200     0.5852     0.2130     0.3807 1.1545e+01     2.3945      7.722     11.200    13.4613 0.0000e+00
      7.924      0.196     4.3245     46.949    125.485  96.138142    27.7200     0.5852     0.2130     0.3807 1.1028e+01     2.3039      7.771     11.271    13.4219 0.0000e+00
      7.973      0.197     4.5584     46.918    125.508  96.083230    27.7200     0.5776     0.2130     0.3807 1.0700e+01     2.3341      7.819     11.341    13.3892 0.0000e+00
      8.023      0.199     4.7388     46.477    125.544  96.044525    27.4500     0.5547     0.1704     0.2961 1.0174e+01     2.5305      7.868     11.411    13.3609 0.0000e+00
      8.074      0.201     4.8569     45.767    125.565  96.005709    27.4500     0.5738     0.1704     0.2961 9.4635e+00     2.4549      7.918     11.484    13.3329 0.0000e+00
      8.126      0.204     4.9122     44.924    125.547  95.948437    27.4500     0.6081     0.1704     0.2961 8.7229e+00     2.5607      7.969     11.558    13.3036 0.0000e+00
      8.179      0.206     4.9119     44.059    125.493  95.867426    27.4500     0.5890     0.1704     0.2961 7.9829e+00     2.5305      8.021     11.634    13.2745 0.0000e+00
      8.232      0.209     4.8684     43.256    125.469  95.803012    27.3600     0.4631     0.1704     0.1692 7.6351e+00     2.5909      8.073     11.709    13.2481 0.0000e+00
      8.285      0.213     4.7963     42.562    125.509  95.779974    27.3600     0.4746     0.1704     0.1692 7.4547e+00     2.5003      8.125     11.784    13.2263 0.0000e+00
      8.339      0.216     4.7097     41.989    125.588  95.788171    27.3600     0.4555     0.1704     0.1692 7.0040e+00     2.6966      8.177     11.860    13.2090 0.0000e+00
      8.394      0.220     4.6206     41.516    125.698  95.825789    27.3600     0.4555     0.1704     0.1692 6.4685e+00     2.5305      8.231     11.938    13.1931 0.0000e+00
      8.451      0.224     4.5382     41.094    125.813  95.874886    27.3600     0.5470     0.1704     0.1692 5.8851e+00     3.2707      8.287     12.020    13.1747 0.0000e+00
      8.510      0.228     4.4675     40.650    125.898  95.908592    27.2700     0.5165     0.0852     0.1692 5.4387e+00     3.2405      8.345     12.103    13.1536 0.0000e+00
      8.569      0.231     4.4094     40.125    125.956  95.923907    27.2700     0.5547     0.0852     0.1692 4.8523e+00     3.2556      8.403     12.188    13.1327 0.0000e+00
      8.628      0.232     4.3616     39.475    125.995  95.924915    27.2700     0.5470     0.0852     0.1692 4.6703e+00     3.1801      8.461     12.272    13.1142 0.0000e+00
      8.688      0.233     4.3187     38.680    126.028  95.923870    27.2700     0.5699     0.0852     0.1692 4.3114e+00     3.6786      8.520     12.357    13.0992 0.0000e+00
      8.748      0.233     4.2733     37.757    126.049  95.918496    27.2700     0.5928     0.0852     0.1692 3.8734e+00     3.7994      8.579     12.442    13.0868 0.0000e+00
      8.808      0.234     4.2191     36.757    126.050  95.897367    27.2700     0.5547     0.0852     0.1692 3.5975e+00     3.7692      8.637     12.527    13.0753 0.0000e+00
      8.867      0.236     4.1519     35.750    126.067  95.884821    27.2700     0.6005     0.0852     0.1692 3.5034e+00     3.6786      8.695     12.611    13.0638 0.0000e+00
      8.926      0.238     4.0692     34.825    126.106  95.887500    27.2700     0.6233     0.0852     0.1692 3.2995e+00     3.4822      8.753     12.695    13.0535 0.0000e+00
      8.986      0.241     3.9729     34.081    126.153  95.898125    27.6300     0.6424     0.1278     0.0846 3.0598e+00     3.4822      8.812     12.780    13.0448 0.0000e+00
      9.048      0.244     3.8684     33.590    126.254  95.955491    27.6300     0.6348     0.1278     0.0846 2.7157e+00     3.4973      8.873     12.869    13.0362 0.0000e+00
      9.111      0.246     3.7632     33.387    126.423  96.068903    27.6300     0.6310     0.1278     0.0846 2.3957e+00     3.5124      8.935     12.959    13.0261 0.0000e+00
      9.176      0.247     3.6668     33.449    126.562  96.162705    27.6300     0.8179     0.1278     0.0846 2.1920e+00     4.8871      8.998     13.051    13.0155 0.0000e+00
      9.240      0.246     3.5892     33.693    126.601  96.181990    27.6300     0.8103     0.1278     0.0846 2.0671e+00     4.9324      9.061     13.142    13.0057 0.0000e+00
      9.303      0.241     3.5382     33.990    126.585  96.161871    27.5400     0.8179     0.1278     0.2115 1.8434e+00     4.8267      9.123     13.232    12.9979 0.0000e+00
      9.366      0.233     3.5172     34.205    126.571  96.146933    27.5400     0.8065     0.1278     0.2115 1.6124e+00     4.9022      9.185     13.321    12.9921 0.0000e+00
      9.425      0.222     3.5242     34.230    126.574  96.147181    27.5400     1.1307     0.1278     0.2115 1.4699e+00     6.1711      9.243     13.406    12.9874 0.0000e+00
      9.482      0.209     3.5502     34.016    126.603  96.166676    27.5400     1.1231     0.1278     0.2115 1.3691e+00     6.1107      9.299     13.486    12.9833 0.0000e+00
      9.533      0.194     3.5818     33.588    126.643  96.194631    27.8100     1.1421     0.1278     0.1692 1.2970e+00     6.1560      9.349     13.560    12.9802 0.0000e+00
      9.581      0.177     3.6046     33.018    126.649  96.198541    27.8100     1.1421     0.1278     0.1692 1.2278e+00     6.2013      9.396     13.627    12.9783 0.0000e+00
      9.624      0.159     3.6073     32.400    126.612  96.173453    27.8100     1.9242     0.1278     0.1692 1.1152e+00    17.4556      9.438     13.689    12.9774 0.0000e+00
      9.663      0.140     3.5848     31.831    126.578  96.154637    27.8100     1.9509     0.1278     0.1692 1.0414e+00    17.4405      9.476     13.744    12.9765 0.0000e+00
      9.697      0.121     3.5397     31.394    126.583  96.169043    28.2600     1.9204     0.1278     0.1692 9.7523e-01    17.4103      9.510     13.793    12.9756 0.0000e+00
      9.725      0.102     3.4798     31.129    126.625  96.212523    28.2600     1.9509     0.1278     0.1692 1.0067e+00    17.5010      9.537     13.833    12.9753 0.0000e+00
      9.748      0.084     3.4145     31.041    126.659  96.248718    28.2600     2.6642     0.1278     0.1692 9.9817e-01    43.6200      9.559     13.865    12.9763 0.0000e+00
      9.766      0.067     3.3543     31.103    126.647  96.249316    28.2600     2.6719     0.1278     0.1692 9.3538e-01    43.7861      9.577     13.891    12.9792 0.0000e+00
      9.780      0.052     3.3079     31.270    126.607  96.230462    28.3500     2.6681     0.1704     0.2961 9.5759e-01    43.7106      9.591     13.911    12.9834 0.0000e+00
      9.791      0.039     3.2797     31.496    126.566  96.215103    28.3500     2.6566     0.1704     0.2961 9.3315e-01    43.6351      9.601     13.926    12.9879 0.0000e+00
      9.799      0.027     3.2701     31.750    126.514  96.195145    28.3500     3.0877     0.1704     0.2961 9.5739e-01    89.4680      9.609     13.937    12.9921 0.0000e+00
      9.804      0.016     3.2763     32.012    126.433  96.153280    28.3500     3.0877     0.1704     0.2961 9.3031e-01    89.4378      9.614     13.944    12.9960 0.0000e+00
      9.806      0.005     3.2936     32.266    126.359  96.116307    28.3500     3.1258     0.1704     0.2961 9.0716e-01    89.6191      9.616     13.948    13.0007 0.0000e+00
      9.806     -0.006     3.3169     32.521    126.337  96.118324    28.3500     3.1067     0.1278     0.1269 9.0933e-01    89.5586      9.617     13.948    13.0069 0.0000e+00
      9.804     -0.016     3.3431     32.793    126.332  96.135894    28.3500     2.1302     0.1278     0.1269 9.4581e-01    33.7404      9.614     13.944    13.0145 0.0000e+00
      9.798     -0.026     3.3701     33.094    126.311  96.143732    28.3500     2.1111     0.1278     0.1269 9.6616e-01    33.6799      9.609     13.936    13.0225 0.0000e+00
      9.790     -0.036     3.3963     33.431    126.294  96.147925    28.3500     2.1149     0.1278     0.1269 1.0126e+00    33.6195      9.601     13.925    13.0299 0.0000e+00
      9.779     -0.043     3.4226     33.800    126.278  96.135608    28.0800     2.1225     0.1278     0.2115 1.0108e+00    33.6044      9.590     13.909    13.0374 0.0000e+00
      9.765     -0.047     3.4505     34.174    126.248  96.089510    28.0800     1.0048     0.1278     0.2115 1.1474e+00     7.7422      9.576     13.889    13.0459 0.0000e+00
      9.750     -0.048     3.4814     34.512    126.206  96.019316    28.0800     1.0315     0.1278     0.2115 1.1807e+00     7.7573      9.562     13.868    13.0551 0.0000e+00
      9.736     -0.046     3.5164     34.767    126.126  95.920290    28.0800     0.9896     0.1278     0.2115 1.2488e+00     7.8328      9.548     13.848    13.0620 0.0000e+00
      9.724     -0.042     3.5552     34.892    125.956  95.762027    27.9000     0.9934     0.1704     0.1269 1.2494e+00     7.7120      9.536     13.831    13.0617 0.0000e+00
      9.714     -0.036     3.5953     34.858    125.644  95.506319    27.9000     1.5618     0.1704     0.1269 1.2496e+00     8.2407      9.526     13.816    13.0525 0.0000e+00
      9.706     -0.030     3.6322     34.665    125.113  95.092968    27.9000     1.5656     0.1704     0.1269 1.2556e+00     8.2407      9.518     13.805    13.0376 0.0000e+00
      9.700     -0.023     3.6602     34.342    124.230  94.415745    27.9000     1.5351     0.1704     0.1269 1.2578e+00     8.2105      9.512     13.796    13.0225 0.0000e+00
      9.695     -0.016     3.6743     33.945    122.749  93.284065    27.9000     1.5465     0.1704     0.1269 1.2818e+00     8.2558      9.507     13.789    13.0109 0.0000e+00
      9.691     -0.010     3.6713     33.534    120.268  91.392153    28.1700     1.1994     0.1278     0.2961 1.3289e+00     7.3343      9.504     13.784    13.0035 0.0000e+00
      9.689     -0.005     3.6513     33.159    116.131  88.241491    28.1700     1.2108     0.1278     0.2961 1.3020e+00     7.3645      9.502     13.781    12.9994 0.0000e+00
      9.689      0.000     3.6175     32.856    109.244  83.003891    28.1700     1.1956     0.1278     0.2961 1.3257e+00     7.3192      9.501     13.781    12.9970 0.0000e+00
      9.690      0.005     3.5758     32.642     97.804  74.308634    28.1700     1.1994     0.1278     0.2961 1.2927e+00     7.2588      9.503     13.783    12.9944 0.0000e+00
      9.693      0.008     3.5327     32.527     78.760  59.836985    27.9900     1.1727     0.1278     0.2115 1.2606e+00     6.8811      9.505     13.786    12.9914 0.0000e+00
      9.695      0.012     3.4935     32.505     46.995  35.701864    27.9900     1.1994     0.1278     0.2115 1.2456e+00     6.8509      9.508     13.790    12.9886 0.0000e+00
      9.699      0.014     3.4617     32.551     -5.969  -4.536757    27.9900     1.1917     0.1278     0.2115 1.2849e+00     6.7754      9.511     13.795    12.9862 0.0000e+00
      9.703      0.016     3.4394     32.640    -94.249 -71.603184    27.9900     1.1879     0.1278     0.2115 1.2680e+00     6.9113      9.515     13.801    12.9843 0.0000e+00
      9.707      0.019     3.4274     32.749   -241.431-183.415763    28.3500     1.2490     0.1704     0.2538 1.2367e+00     7.3494      9.520     13.807    12.9826 0.0000e+00
      9.712      0.021     3.4252     32.865   -486.794-369.813160    28.3500     1.2375     0.1704     0.2538 1.2302e+00     7.2739      9.524     13.814    12.9810 0.0000e+00
      9.718      0.022     3.4302     32.978   -640.174-486.333545    28.3500     1.2566     0.1704     0.2538 1.2148e+00     7.3645      9.530     13.822    12.9795 0.0000e+00
      9.724      0.023     3.4397     33.080   -486.876-369.879216    28.3500     1.2642     0.1704     0.2538 1.2004e+00     7.2739      9.536     13.831    12.9781 0.0000e+00
      9.731      0.023     3.4514     33.166   -241.559-183.519533    28.1700     1.3291     0.1278     0.2538 1.1652e+00     8.0594      9.543     13.840    12.9768 0.0000e+00
      9.737      0.022     3.4638     33.235    -94.357 -71.692419    28.1700     1.3214     0.1278     0.2538 1.1379e+00     7.9839      9.549     13.850    12.9757 0.0000e+00
      9.743      0.020     3.4758     33.291     -6.011  -4.573315    28.1700     1.2947     0.1278     0.2538 1.1566e+00     8.0594      9.555     13.858    12.9748 0.0000e+00
      9.748      0.018     3.4865     33.340     47.023  35.722221    28.1700     1.3405     0.1278     0.2538 1.1604e+00     8.0141      9.559     13.865    12.9743 0.0000e+00
      9.752      0.014     3.4955     33.385     78.828  59.891712    28.1700     1.2375     0.1278     0.2538 1.1377e+00     9.9931      9.563     13.871    12.9744 0.0000e+00
      9.755      0.011     3.5026     33.425     97.868  74.364371    28.0800     1.2375     0.1278     0.1692 1.1298e+00     9.9175      9.567     13.876    12.9755 0.0000e+00
      9.758      0.007     3.5084     33.460    109.291  83.047530    28.0800     1.2566     0.1278     0.1692 1.1135e+00     9.9326      9.569     13.879    12.9775 0.0000e+00
      9.759      0.004     3.5133     33.492    116.183  88.286666    28.0800     1.2375     0.1278     0.1692 1.1132e+00     9.8571      9.570     13.881    12.9804 0.0000e+00
      9.760      0.001     3.5177     33.522    120.333  91.440922    28.0800     1.5122     0.1278     0.1692 1.1152e+00    35.7646      9.571     13.882    12.9838 0.0000e+00
      9.759     -0.003     3.5217     33.549    122.801  93.315466    28.3500     1.4931     0.1278     0.2538 1.1110e+00    35.8553      9.570     13.881    12.9870 0.0000e+00
      9.758     -0.007     3.5253     33.566    124.279  94.438150    28.3500     1.5084     0.1278     0.2538 1.1144e+00    35.7797      9.569     13.879    12.9894 0.0000e+00
      9.756     -0.011     3.5285     33.566    125.200  95.138326    28.3500     1.5351     0.1278     0.2538 1.0820e+00    35.6589      9.567     13.877    12.9907 0.0000e+00
      9.753     -0.016     3.5316     33.546    125.781  95.580729    28.3500     1.9432     0.1278     0.2538 1.1084e+00    64.2856      9.564     13.873    12.9912 0.0000e+00
      9.749     -0.022     3.5344     33.507    126.144  95.857360    29.1600     1.9280     0.2130     0.2961 1.1149e+00    64.3762      9.560     13.867    12.9912 0.0000e+00
      9.743     -0.029     3.5362     33.454    126.380  96.037991    29.1600     1.9432     0.2130     0.2961 1.1188e+00    64.3460      9.555     13.859    12.9911 0.0000e+00
      9.736     -0.039     3.5362     33.394    126.520  96.146813    29.1600     1.9204     0.2130     0.2961 1.1118e+00    64.3762      9.548     13.848    12.9911 0.0000e+00
      9.726     -0.051     3.5341     33.337    126.576  96.192863    29.1600     2.0424     0.2130     0.2961 1.1273e+00    80.8422      9.538     13.834    12.9915 0.0000e+00
      9.713     -0.066     3.5299     33.297    126.591  96.208404    29.1600     2.0806     0.2130     0.2961 1.1195e+00    80.8724      9.525     13.815    12.9921 0.0000e+00
      9.696     -0.085     3.5243     33.278    126.602  96.223555    29.1600     2.0653     0.1704     0.3384 1.1057e+00    80.7667      9.509     13.791    12.9927 0.0000e+00
      9.674     -0.107     3.5179     33.282    126.600  96.232365    29.1600     2.0501     0.1704     0.3384 1.0848e+00    80.8422      9.487     13.760    12.9936 0.0000e+00
      9.646     -0.132     3.5118     33.312    126.550  96.207213    29.1600     1.3748     0.1704     0.3384 1.1404e+00    33.4231      9.459     13.720    12.9948 0.0000e+00
      9.610     -0.158     3.5074     33.371    126.474  96.159377    29.1600     1.3901     0.1704     0.3384 1.1627e+00    33.3023      9.424     13.668    12.9967 0.0000e+00
      9.565     -0.184     3.5052     33.458    126.419  96.122055    28.9800     1.3863     0.1704     0.2961 1.4095e+00    33.4533      9.380     13.605    12.9994 0.0000e+00
      9.512     -0.206     3.5053     33.579    126.379  96.091290    28.9800     1.3939     0.1704     0.2961 1.5590e+00    33.3325      9.328     13.530    13.0034 0.0000e+00
      9.453     -0.224     3.5081     33.739    126.319  96.042894    28.9800     0.8866     0.1704     0.2961 1.7792e+00     6.0956      9.271     13.446    13.0084 0.0000e+00
      9.391     -0.238     3.5140     33.939    126.252  95.989936    28.9800     0.8866     0.1704     0.2961 2.0783e+00     6.1409      9.210     13.358    13.0124 0.0000e+00
      9.327     -0.247     3.5230     34.180    126.189  95.942269    28.1700     0.8980     0.1704     0.1692 2.1593e+00     6.0201      9.147     13.267    13.0142 0.0000e+00
      9.263     -0.253     3.5358     34.460    126.116  95.889180    28.1700     0.8675     0.1704     0.1692 2.3467e+00     6.1107      9.084     13.175    13.0140 0.0000e+00
      9.198     -0.258     3.5527     34.777    126.048  95.842488    28.1700     0.7607     0.1704     0.1692 2.5710e+00     4.6756      9.021     13.083    13.0130 0.0000e+00
      9.133     -0.263     3.5738     35.130    125.983  95.799731    28.1700     0.7569     0.1704     0.1692 2.6591e+00     4.7511      8.956     12.990    13.0122 0.0000e+00
      9.065     -0.266     3.5992     35.522    125.928  95.767490    27.5400     0.7492     0.1278     0.2115 3.0446e+00     4.6756      8.890     12.894    13.0123 0.0000e+00
      8.996     -0.270     3.6286     35.958    125.923  95.775130    27.5400     0.7607     0.1278     0.2115 3.5540e+00     4.7662      8.822     12.795    13.0133 0.0000e+00
      8.926     -0.274     3.6618     36.435    125.947  95.806708    27.5400     0.6310     0.1278     0.2115 3.8482e+00     3.4973      8.753     12.695    13.0151 0.0000e+00
      8.855     -0.278     3.6987     36.939    125.950  95.824689    27.5400     0.6348     0.1278     0.2115 4.1667e+00     3.4067      8.684     12.595    13.0179 0.0000e+00
      8.785     -0.280     3.7397     37.441    125.937  95.833870    27.5400     0.6157     0.1278     0.2115 4.3698e+00     3.4369      8.615     12.495    13.0215 0.0000e+00
      8.713     -0.282     3.7852     37.902    125.948  95.864672    27.3600     0.6653     0.1278     0.1269 4.8166e+00     3.3915      8.545     12.393    13.0261 0.0000e+00
      8.640     -0.283     3.8350     38.289    125.970  95.907328    27.3600     0.5242     0.1278     0.1269 5.6791e+00     3.2707      8.473     12.289    13.0314 0.0000e+00
      8.567     -0.284     3.8875     38.576    125.954  95.923262    27.3600     0.5165     0.1278     0.1269 6.2461e+00     3.2405      8.401     12.185    13.0378 0.0000e+00
      8.494     -0.285     3.9396     38.750    125.895  95.910731    27.3600     0.5051     0.1278     0.1269 6.7544e+00     3.3160      8.330     12.081    13.0454 0.0000e+00
      8.422     -0.287     3.9873     38.816    125.841  95.908352    27.4500     0.5470     0.1278     0.1692 7.1563e+00     3.2405      8.259     11.978    13.0541 0.0000e+00
      8.350     -0.289     4.0271     38.818    125.824  95.939469    27.4500     0.5165     0.1278     0.1692 7.4031e+00     2.7420      8.188     11.876    13.0642 0.0000e+00
      8.277     -0.291     4.0564     38.816    125.823  95.988406    27.4500     0.5470     0.1278     0.1692 8.2599e+00     2.7420      8.117     11.772    13.0756 0.0000e+00
      8.202     -0.295     4.0735     38.869    125.834  96.052230    27.4500     0.5585     0.1278     0.1692 9.4020e+00     2.8628      8.043     11.666    13.0885 0.0000e+00
      8.125     -0.298     4.0791     39.017    125.866  96.137972    27.3600     0.5280     0.1278     0.1692 1.0289e+01     2.7571      7.968     11.557    13.1036 0.0000e+00
      8.048     -0.302     4.0776     39.281    125.881  96.220546    27.3600     0.6577     0.1278     0.1692 1.1260e+01     2.4398      7.893     11.447    13.1213 0.0000e+00
      7.971     -0.306     4.0756     39.666    125.864  96.292002    27.3600     0.6386     0.1278     0.1692 1.2254e+01     2.5758      7.817     11.338    13.1411 0.0000e+00
      7.894     -0.310     4.0791     40.173    125.848  96.379391    27.3600     0.6386     0.1278     0.1692 1.2542e+01     2.5456      7.741     11.227    13.1630 0.0000e+00
      7.815     -0.313     4.0923     40.789    125.827  96.482042    27.4500     0.6500     0.1704     0.2961 1.4073e+01     2.4852      7.664     11.115    13.1875 0.0000e+00
      7.734     -0.317     4.1173     41.487    125.816  96.611348    27.4500     0.8065     0.1704     0.2961 1.6123e+01     2.3190      7.584     11.000    13.2157 0.0000e+00
      7.652     -0.321     4.1545     42.244    125.859  96.805791    27.4500     0.8370     0.1704     0.2961 1.7012e+01     2.3341      7.504     10.883    13.2490 0.0000e+00
      7.569     -0.325     4.2038     43.039    125.958  97.075269    27.4500     0.8370     0.1704     0.2961 1.8842e+01     2.2586      7.423     10.765    13.2888 0.0000e+00
      7.485     -0.328     4.2637     43.837    126.065  97.397733    27.4500     0.8103     0.1704     0.2961 2.0264e+01     2.3341      7.341     10.647    13.3357 0.0000e+00
      7.402     -0.331     4.3313     44.584    126.159  97.771263    27.7200     1.3062     0.1704     0.2961 2.0986e+01     2.5909      7.259     10.528    13.3905 0.0000e+00
      7.318     -0.333     4.4040     45.214    126.281  98.241526    27.7200     1.3329     0.1704     0.2961 2.2827e+01     2.4398      7.176     10.408    13.4544 0.0000e+00
      7.232     -0.336     4.4792     45.667    126.412  98.814043    27.7200     1.3024     0.1704     0.2961 2.4900e+01     2.5456      7.093     10.287    13.5310 0.0000e+00
      7.146     -0.339     4.5526     45.915    126.511  99.471647    27.7200     1.3214     0.1704     0.2961 2.6102e+01     2.5305      7.008     10.164    13.6263 0.0000e+00
      7.060     -0.341     4.6180     45.973    126.561 100.207872    27.8100     1.3024     0.1704     0.5076 2.8411e+01     2.4096      6.923     10.041    13.7456 0.0000e+00
      6.972     -0.344     4.6681     45.928    126.533 100.995250    27.8100     2.2370     0.1704     0.5076 2.9834e+01     2.3039      6.838      9.917    13.8943 0.0000e+00
      6.884     -0.345     4.6959     45.941    126.400 101.803961    27.8100     2.2408     0.1704     0.5076 3.2963e+01     2.3039      6.751      9.792    14.0808 0.0000e+00
      6.795     -0.345     4.6979     46.233    126.142 102.605872    27.8100     2.2522     0.1704     0.5076 3.7027e+01     2.2737      6.664      9.665    14.3107 0.0000e+00
      6.706     -0.344     4.6755     47.042    125.841 103.454973    27.9000     2.2484     0.2130     0.8037 3.9910e+01     2.1981      6.577      9.538    14.5869 0.0000e+00
      6.618     -0.342     4.6377     48.549    125.575 104.425827    27.9000     3.2899     0.2130     0.8037 4.4762e+01     1.8809      6.490      9.413    14.9086 0.0000e+00
      6.531     -0.338     4.6013     50.823    125.217 105.423580    27.9000     3.2822     0.2130     0.8037 4.9263e+01     1.8809      6.405      9.290    15.2721 0.0000e+00
      6.446     -0.334     4.5882     53.826    124.768 106.406533    27.9000     3.2593     0.2130     0.8037 5.3889e+01     1.8507      6.321      9.168    15.6742 0.0000e+00
      6.361     -0.328     4.6217     57.426    124.385 107.480939    27.9000     3.3013     0.2130     0.8037 6.5245e+01     1.8205      6.238      9.047    16.1105 0.0000e+00
      6.277     -0.322     4.7180     61.475    123.932 108.553523    27.2700     5.2239     0.1704     1.0575 7.0431e+01     1.6090      6.156      8.928    16.5859 0.0000e+00
      6.195     -0.314     4.8816     65.914    123.263 109.444561    27.2700     5.2316     0.1704     1.0575 7.3640e+01     1.5486      6.075      8.811    17.1058 0.0000e+00
      6.115     -0.306     5.1083     70.788    122.538 110.171819    27.2700     5.2430     0.1704     1.0575 7.8413e+01     1.6996      5.997      8.697    17.6528 0.0000e+00
      6.038     -0.295     5.3850     76.165    121.876 110.781338    27.2700     5.2278     0.1704     1.0575 8.2449e+01     1.5637      5.921      8.588    18.2172 0.0000e+00
      5.964     -0.284     5.6944     82.069    121.303 111.291744    26.2800    12.9183     0.0852     2.4111 8.4719e+01     2.2435      5.848      8.482    18.8103 0.0000e+00
      5.892     -0.273     6.0326     88.360    120.887 111.785201    26.2800    12.9259     0.0852     2.4111 9.1077e+01     2.0320      5.779      8.381    19.4108 0.0000e+00
      5.824     -0.262     6.4086     94.701    120.609 112.301345    26.2800    12.9336     0.0852     2.4111 9.5102e+01     2.0773      5.712      8.284    19.9689 0.0000e+00
      5.760     -0.253     6.8313    100.661    120.441 112.877860    26.2800    12.9259     0.0852     2.4111 9.5412e+01     2.0622      5.649      8.193    20.4604 0.0000e+00
      5.699     -0.247     7.3036    105.814    120.339 113.534527    24.5700    15.4894     0.0852     2.2419 9.6664e+01     2.1679      5.589      8.106    20.8822 0.0000e+00
      5.638     -0.243     7.8125    109.882    120.191 114.184533    24.5700    15.4818     0.0852     2.2419 1.0087e+02     2.1679      5.530      8.020    21.2409 0.0000e+00
      5.578     -0.241     8.3258    112.813    120.008 114.789284    24.5700    15.4475     0.0852     2.2419 1.0673e+02     2.1226      5.470      7.933    21.5584 0.0000e+00
      5.516     -0.242     8.8026    114.682    119.885 115.404097    24.5700    15.4971     0.0852     2.2419 1.0891e+02     1.9715      5.410      7.846    21.8605 0.0000e+00
      5.455     -0.242     9.2021    115.621    119.831 116.046961    23.3100     9.0730     0.0852     0.5922 1.1432e+02     1.6241      5.350      7.759    22.1722 0.0000e+00
      5.392     -0.242     9.5001    115.807    119.808 116.687345    23.3100     9.0730     0.0852     0.5922 1.2541e+02     1.6392      5.288      7.670    22.5000 0.0000e+00
      5.329     -0.241     9.6975    115.417    119.796 117.308050    23.3100     9.0540     0.0852     0.5922 1.3380e+02     1.6392      5.226      7.580    22.8235 0.0000e+00
      5.267     -0.238     9.8049    114.585    119.717 117.850615    23.3100     9.0845     0.0852     0.5922 1.3611e+02     1.6090      5.165      7.492    23.1283 0.0000e+00
      5.207     -0.235     9.8342    113.445    119.512 118.263744    23.3100     3.3013     0.0852     0.5922 1.4056e+02     1.2011      5.106      7.406    23.4175 0.0000e+00
      5.147     -0.231     9.8014    112.136    119.198 118.553622    22.2300     3.2822     0.0852     0.5922 1.4857e+02     1.1558      5.048      7.322    23.6936 0.0000e+00
      5.089     -0.227     9.7219    110.762    118.841 118.771577    22.2300     3.2860     0.0852     0.5922 1.5467e+02     1.0803      4.990      7.238    23.9579 0.0000e+00
      5.032     -0.224     9.6066    109.365    118.511 118.991755    22.2300     3.2975     0.0852     0.5922 1.5473e+02     1.0349      4.935      7.158    24.2175 0.0000e+00
      4.977     -0.222     9.4664    107.927    118.193 119.218887    22.2300     1.6877     0.0852     0.5922 1.5493e+02     1.1105      4.881      7.079    24.4755 0.0000e+00
      4.921     -0.220     9.3140    106.419    117.857 119.411556    17.7300     1.6648     0.0852     0.4230 1.6252e+02     1.2011      4.826      7.000    24.7278 0.0000e+00
      4.864     -0.218     9.1592    104.804    117.544 119.561164    17.7300     1.6991     0.0852     0.4230 1.7302e+02     1.2011      4.770      6.919    24.9693 0.0000e+00
      4.807     -0.215     9.0052    103.028    117.319 119.709633    17.7300     1.6610     0.0852     0.4230 1.7945e+02     1.1407      4.714      6.838    25.2014 0.0000e+00
      4.752     -0.212     8.8493    101.098    117.206 119.900569    17.7300     0.8789     0.0852     0.4230 1.8011e+02     2.2283      4.660      6.759    25.4322 0.0000e+00
      4.699     -0.208     8.6896     99.150    117.171 120.122887    14.4900     0.8980     0.0852     0.4653 1.8532e+02     2.2737      4.608      6.683    25.6571 0.0000e+00
      4.647     -0.205     8.5267     97.395    117.145 120.325866    14.4900     0.8713     0.0852     0.4653 1.9300e+02     2.3341      4.557      6.609    25.8548 0.0000e+00
      4.595     -0.202     8.3575     96.032    117.084 120.477627    14.4900     0.8751     0.0852     0.4653 1.9367e+02     2.3341      4.506      6.536    26.0147 0.0000e+00
      4.545     -0.199     8.1812     95.200    116.994 120.586645    14.4900     0.8370     0.0852     0.4653 1.9380e+02     1.3673      4.457      6.465    26.1446 0.0000e+00
      4.495     -0.196     8.0072     94.956    116.918 120.690001    14.4900     0.8217     0.0852     0.4653 1.9996e+02     1.4277      4.408      6.394    26.2544 0.0000e+00
      4.444     -0.192     7.8512     95.263    116.872 120.797264    12.6900     0.8484     0.0852     0.3807 2.1030e+02     1.3220      4.358      6.321    26.3519 0.0000e+00
      4.394     -0.186     7.7281     96.003    116.814 120.869031    12.6900     0.8217     0.0852     0.3807 2.1959e+02     1.4579      4.308      6.249    26.4434 0.0000e+00
      4.345     -0.178     7.6487     97.008    116.745 120.916442    12.6900     0.7645     0.0852     0.3807 2.2204e+02     0.9141      4.261      6.180    26.5296 0.0000e+00
      4.300     -0.166     7.6180     98.087    116.712 120.994153    12.6900     0.7721     0.0852     0.3807 2.2805e+02     0.9292      4.217      6.116    26.6070 0.0000e+00
      4.258     -0.153     7.6332     99.093    116.710 121.092887    12.5100     0.7530     0.0426     0.3384 2.3628e+02     0.8839      4.176      6.056    26.6729 0.0000e+00
      4.221     -0.139     7.6845     99.954    116.703 121.168965    12.5100     0.7340     0.0426     0.3384 2.3730e+02     0.8990      4.139      6.003    26.7292 0.0000e+00
      4.188     -0.128     7.7576    100.658    116.685 121.214673    12.5100     0.6996     0.0426     0.3384 2.3658e+02     0.6422      4.107      5.957    26.7804 0.0000e+00
      4.159     -0.119     7.8372    101.220    116.672 121.246203    12.5100     0.7035     0.0426     0.3384 2.3684e+02     0.6422      4.079      5.916    26.8281 0.0000e+00
      4.133     -0.114     7.9114    101.668    116.671 121.275966    11.9700     0.6920     0.0426     0.1692 2.3602e+02     0.5969      4.053      5.878    26.8711 0.0000e+00
      4.106     -0.112     7.9750    102.030    116.677 121.303897    11.9700     0.6691     0.0426     0.1692 2.3658e+02     0.5515      4.027      5.841    26.9071 0.0000e+00
      4.079     -0.113     8.0273    102.329    116.689 121.333445    11.9700     0.7263     0.0426     0.1692 2.4011e+02     0.6724      4.000      5.801    26.9345 0.0000e+00
      4.049     -0.116     8.0694    102.572    116.711 121.374488    11.9700     0.7149     0.0426     0.1692 2.4731e+02     0.7026      3.971      5.759    26.9537 0.0000e+00
      4.018     -0.119     8.1032    102.757    116.741 121.423969    11.7000     0.6806     0.0852     0.2115 2.5390e+02     0.6573      3.941      5.715    26.9668 0.0000e+00
      3.987     -0.124     8.1307    102.882    116.778 121.479081    11.7000     0.6882     0.0852     0.2115 2.5450e+02     0.5969      3.910      5.671    26.9761 0.0000e+00
      3.956     -0.128     8.1535    102.957    116.808 121.524516    11.7000     0.6233     0.0852     0.2115 2.5247e+02     0.1437      3.880      5.627    26.9837 0.0000e+00
      3.924     -0.134     8.1718    102.989    116.811 121.542384    11.7000     0.6539     0.0852     0.2115 2.5700e+02     0.2494      3.848      5.581    26.9913 0.0000e+00
      3.890     -0.139     8.1854    102.971    116.795 121.541449    11.7000     0.6424     0.0852     0.2115 2.6259e+02     0.0681      3.815      5.533    26.9991 0.0000e+00
      3.853     -0.145     8.1944    102.915    116.779 121.539469    11.9700     0.6424     0.0426     0.3807 2.7000e+02     0.2192      3.778      5.480    27.0062 0.0000e+00
      3.814     -0.152     8.1994    102.863    116.780 121.553921    11.9700     0.6233     0.0426     0.3807 2.7479e+02     0.4458      3.740      5.425    27.0127 0.0000e+00
      3.775     -0.158     8.2010    102.836    116.789 121.574655    11.9700     0.5585     0.0426     0.3807 2.7479e+02     0.3552      3.702      5.369    27.0189 0.0000e+00
      3.734     -0.164     8.1986    102.821    116.781 121.581194    11.9700     0.5890     0.0426     0.3807 2.7593e+02     0.4156      3.662      5.311    27.0254 0.0000e+00
      3.692     -0.168     8.1932    102.807    116.774 121.593288    12.4200     0.5814     0.0426     0.2538 2.8600e+02     0.4609      3.620      5.251    27.0319 0.0000e+00
      3.647     -0.173     8.1883    102.798    116.789 121.632166    12.4200     0.7302     0.0426     0.2538 2.9728e+02     0.6422      3.577      5.188    27.0376 0.0000e+00
      3.602     -0.176     8.1853    102.802    116.796 121.666188    12.4200     0.6996     0.0426     0.2538 2.9761e+02     0.6573      3.532      5.123    27.0427 0.0000e+00
      3.556     -0.179     8.1833    102.815    116.769 121.666420    12.4200     0.7073     0.0426     0.2538 3.0158e+02     0.6724      3.487      5.058    27.0487 0.0000e+00
      3.510     -0.181     8.1809    102.813    116.741 121.664931    12.3300     0.6806     0.0426     0.1692 3.1662e+02     0.6120      3.442      4.993    27.0569 0.0000e+00
      3.464     -0.183     8.1787    102.785    116.745 121.693335    12.3300     0.6424     0.0426     0.1692 3.2231e+02     0.6422      3.397      4.927    27.0670 0.0000e+00
      3.417     -0.186     8.1774    102.757    116.765 121.735201    12.3300     0.6500     0.0426     0.1692 3.2393e+02     0.6724      3.351      4.861    27.0785 0.0000e+00
      3.371     -0.189     8.1766    102.765    116.770 121.761684    12.3300     0.6310     0.0426     0.1692 3.2043e+02     0.6724      3.306      4.795    27.0906 0.0000e+00
      3.323     -0.193     8.1747    102.817    116.764 121.779849    12.3300     0.6424     0.0426     0.1692 3.2811e+02     0.6724      3.259      4.727    27.1024 0.0000e+00
      3.272     -0.194     8.1710    102.901    116.773 121.818545    12.1500     0.5814     0.0852     0.2538 3.3802e+02     0.5515      3.209      4.655    27.1128 0.0000e+00
      3.220     -0.193     8.1674    103.013    116.790 121.868089    12.1500     0.5852     0.0852     0.2538 3.4718e+02     0.6875      3.158      4.580    27.1219 0.0000e+00
      3.168     -0.188     8.1667    103.153    116.787 121.897685    12.1500     0.5776     0.0852     0.2538 3.5112e+02     0.6724      3.107      4.507    27.1310 0.0000e+00
      3.119     -0.180     8.1693    103.302    116.779 121.919226    12.1500     0.5928     0.0852     0.2538 3.6457e+02     0.5817      3.058      4.436    27.1415 0.0000e+00
      3.073     -0.169     8.1742    103.430    116.791 121.956464    11.9700     0.4784     0.0426     0.1692 3.7633e+02     0.4458      3.013      4.370    27.1540 0.0000e+00
      3.031     -0.157     8.1810    103.521    116.799 121.983321    11.9700     0.4784     0.0426     0.1692 3.7821e+02     0.4005      2.973      4.311    27.1678 0.0000e+00
      2.995     -0.147     8.1901    103.591    116.782 121.978953    11.9700     0.4746     0.0426     0.1692 3.6792e+02     0.4307      2.937      4.260    27.1816 0.0000e+00
      2.962     -0.140     8.2002    103.664    116.772 121.978205    11.9700     0.4746     0.0426     0.1692 3.6712e+02     0.4307      2.905      4.213    27.1941 0.0000e+00
      2.930     -0.138     8.2087    103.761    116.798 122.010885    11.6100     0.4288     0.0000     0.0423 3.7194e+02     0.1286      2.874      4.168    27.2046 0.0000e+00
      2.897     -0.138     8.2148    103.890    116.848 122.067703    11.6100     0.4021     0.0000     0.0423 3.6434e+02     0.0832      2.842      4.121    27.2129 0.0000e+00
      2.862     -0.141     8.2195    104.038    116.897 122.123801    11.6100     0.4021     0.0000     0.0423 3.6768e+02     0.1890      2.807      4.071    27.2187 0.0000e+00
      2.824     -0.144     8.2247    104.185    116.925 122.160131    11.6100     0.4402     0.0000     0.0423 3.7813e+02     0.1286      2.770      4.017    27.2224 0.0000e+00
      2.785     -0.147     8.2320    104.308    116.939 122.182379    11.5200     0.3411     0.0426     0.1692 3.9202e+02     0.3098      2.731      3.961    27.2250 0.0000e+00
      2.745     -0.147     8.2420    104.390    116.945 122.196480    11.5200     0.3716     0.0426     0.1692 3.8913e+02     0.4156      2.692      3.905    27.2271 0.0000e+00
      2.708     -0.146     8.2534    104.423    116.949 122.206194    11.5200     0.3563     0.0426     0.1692 3.9390e+02     0.4156      2.656      3.852    27.2293 0.0000e+00
      2.672     -0.144     8.2646    104.408    116.958 122.222114    11.5200     0.3372     0.0426     0.1692 3.8301e+02     0.4156      2.620      3.800    27.2324 0.0000e+00
      2.636     -0.140     8.2739    104.367    116.969 122.240483    11.5200     0.3563     0.0426     0.1692 3.7755e+02     0.4458      2.585      3.750    27.2357 0.0000e+00
      2.600     -0.137     8.2800    104.316    116.980 122.258198    11.6100     0.3716     0.0426     0.1692 3.9596e+02     0.4911      2.550      3.698    27.2387 0.0000e+00
      2.564     -0.134     8.2821    104.255    116.985 122.267980    11.6100     0.3639     0.0426     0.1692 3.8812e+02     0.4458      2.515      3.648    27.2412 0.0000e+00
      2.531     -0.133     8.2806    104.172    116.975 122.260436    11.6100     0.3487     0.0426     0.1692 3.8259e+02     0.4458      2.482      3.600    27.2439 0.0000e+00
      2.499     -0.134     8.2769    104.059    116.967 122.253559    11.6100     0.3601     0.0426     0.1692 3.8745e+02     0.1588      2.451      3.554    27.2468 0.0000e+00
      2.467     -0.138     8.2724    103.932    116.974 122.261520    11.5200     0.3601     0.0000     0.2115 3.8761e+02     0.1890      2.420      3.510    27.2495 0.0000e+00
      2.435     -0.146     8.2673    103.835    116.983 122.270436    11.5200     0.3563     0.0000     0.2115 3.7526e+02     0.1437      2.387      3.463    27.2514 0.0000e+00
      2.398     -0.156     8.2605    103.796    116.992 122.282685    11.5200     0.3601     0.0000     0.2115 3.9100e+02     0.0832      2.352      3.411    27.2527 0.0000e+00
      2.357     -0.166     8.2514    103.805    117.014 122.313538    11.5200     0.2800     0.0000     0.2115 3.8359e+02     0.1890      2.311      3.352    27.2533 0.0000e+00
      2.311     -0.175     8.2414    103.840    117.041 122.355217    11.4300     0.2876     0.0426     0.2115 4.0553e+02     0.1588      2.266      3.286    27.2535 0.0000e+00
      2.262     -0.182     8.2337    103.900    117.049 122.382830    11.4300     0.2762     0.0426     0.2115 3.8998e+02     0.1437      2.218      3.217    27.2537 0.0000e+00
      2.213     -0.185     8.2304    104.002    117.039 122.395737    11.4300     0.2800     0.0426     0.2115 4.0107e+02     0.1890      2.170      3.147    27.2549 0.0000e+00
      2.164     -0.184     8.2307    104.148    117.041 122.425390    11.4300     0.2686     0.0426     0.2115 3.8376e+02     0.1739      2.122      3.078    27.2582 0.0000e+00
      2.117     -0.182     8.2325    104.318    117.071 122.487700    11.4300     0.3067     0.0426     0.2115 4.0159e+02     0.1134      2.076      3.011    27.2639 0.0000e+00
      2.072     -0.182     8.2362    104.489    117.118 122.565276    11.3400     0.3105     0.0426     0.2538 3.8998e+02     0.0983      2.032      2.946    27.2718 0.0000e+00
      2.028     -0.184     8.2428    104.635    117.143 122.618789    11.3400     0.2876     0.0426     0.2538 4.1743e+02     0.1739      1.989      2.884    27.2818 0.0000e+00
      1.984     -0.190     8.2525    104.754    117.124 122.624502    11.3400     0.2228     0.0426     0.2538 3.7024e+02    -0.1283      1.945      2.821    27.2938 0.0000e+00
      1.937     -0.198     8.2641    104.868    117.090 122.613947    11.3400     0.2075     0.0426     0.2538 3.7153e+02    -0.0225      1.899      2.754    27.3068 0.0000e+00
      1.885     -0.206     8.2758    104.986    117.069 122.618319    11.0700     0.2152     0.0426     0.1269 3.9006e+02    -0.0980      1.849      2.681    27.3193 0.0000e+00
      1.829     -0.213     8.2857    105.097    117.053 122.626784    11.0700     0.2228     0.0426     0.1269 3.9785e+02    -0.0980      1.793      2.601    27.3307 0.0000e+00
      1.770     -0.216     8.2935    105.184    117.046 122.643601    11.0700     0.2304     0.0426     0.1269 3.8593e+02    -0.0980      1.736      2.517    27.3416 0.0000e+00
      1.711     -0.214     8.3010    105.238    117.054 122.673256    11.0700     0.2228     0.0426     0.1269 3.9355e+02    -0.0527      1.678      2.434    27.3525 0.0000e+00
      1.655     -0.206     8.3087    105.279    117.054 122.691650    11.0700     0.2266     0.0426     0.2115 4.0325e+02    -0.0829      1.623      2.354    27.3634 0.0000e+00
      1.602     -0.194     8.3159    105.324    117.041 122.693684    11.0700     0.2304     0.0426     0.2115 3.8359e+02    -0.0980      1.572      2.279    27.3743 0.0000e+00
      1.553     -0.179     8.3213    105.372    117.030 122.695908    11.0700     0.2266     0.0426     0.2115 4.3483e+02    -0.0527      1.524      2.209    27.3845 0.0000e+00
      1.509     -0.164     8.3242    105.412    117.023 122.698914    11.0700     0.2342     0.0426     0.2115 4.1014e+02    -0.0678      1.480      2.147    27.3935 0.0000e+00
      1.470     -0.150     8.3262    105.431    117.016 122.699504    10.9800     0.2266     0.0426     0.1269 4.1634e+02    -0.1585      1.442      2.092    27.4015 0.0000e+00
      1.436     -0.140     8.3287    105.422    117.024 122.713839    10.9800     0.1999     0.0426     0.1269 4.0124e+02    -0.0074      1.409      2.043    27.4083 0.0000e+00
      1.405     -0.136     8.3317    105.399    117.049 122.745742    10.9800     0.1465     0.0426     0.1269 3.9811e+02     0.0077      1.378      1.999    27.4139 0.0000e+00
      1.375     -0.138     8.3342    105.375    117.073 122.775714    10.9800     0.1694     0.0426     0.1269 3.9142e+02    -0.0980      1.349      1.956    27.4183 0.0000e+00
      1.343     -0.147     8.3352    105.356    117.094 122.803745    10.9800     0.1846     0.0426     0.1269 4.4198e+02    -0.0980      1.317      1.910    27.4217 0.0000e+00
      1.307     -0.162     8.3341    105.347    117.130 122.849312    10.9800     0.1541     0.0426     0.1692 5.3395e+02    -0.0678      1.282      1.859    27.4245 0.0000e+00
      1.265     -0.179     8.3319    105.347    117.181 122.916566    10.9800     0.1618     0.0426     0.1692 4.6604e+02    -0.0829      1.240      1.799    27.4269 0.0000e+00
      1.215     -0.197     8.3297    105.343    117.224 122.985431    10.9800     0.1656     0.0426     0.1692 5.0925e+02    -0.0829      1.192      1.729    27.4290 0.0000e+00
      1.160     -0.213     8.3279    105.314    117.241 123.040261    10.9800     0.1656     0.0426     0.1692 4.8918e+02    -0.0980      1.138      1.650    27.4314 0.0000e+00
      1.101     -0.225     8.3266    105.259    117.251 123.105681    10.9800     0.1541     0.0000     0.1269 5.7005e+02    -0.0376      1.080      1.566    27.4349 0.0000e+00
      1.041     -0.235     8.3257    105.207    117.282 123.213143    10.9800     0.1656     0.0000     0.1269 6.1482e+02    -0.1283      1.020      1.480    27.4409 0.0000e+00
      0.979     -0.242     8.3239    105.195    117.331 123.357297    10.9800     0.1427     0.0000     0.1269 6.0765e+02    -0.1283      0.960      1.393    27.4510 0.0000e+00
      0.917     -0.248     8.3193    105.259    117.380 123.520572    10.9800     0.1351     0.0000     0.1269 6.6760e+02    -0.1585      0.899      1.304    27.4668 0.0000e+00
      0.854     -0.252     8.3115    105.412    117.429 123.700501    10.8900     0.1846     0.0000     0.1692 6.5781e+02    -0.0980      0.837      1.214    27.4902 0.0000e+00
      0.789     -0.254     8.3027    105.632    117.481 123.891054    10.8900     0.1732     0.0000     0.1692 5.4332e+02     0.1286      0.774      1.123    27.5217 0.0000e+00
      0.722     -0.253     8.2960    105.875    117.518 124.067028    10.8900     0.1732     0.0000     0.1692 4.3930e+02     0.2192      0.708      1.027    27.5614 0.0000e+00
      0.654     -0.249     8.2939    106.109    117.532 124.213336    10.8900     0.1694     0.0000     0.1692 4.2948e+02     0.1588      0.642      0.931    27.6091 0.0000e+00
      0.588     -0.239     8.2979    106.327    117.536 124.334989    10.8900     0.1427     0.0000     0.1692 4.5871e+02     0.2041      0.577      0.837    27.6636 0.0000e+00
      0.526     -0.224     8.3066    106.518    117.527 124.424421    10.7100     0.1694     0.0426     0.1269 6.0818e+02    -0.0376      0.516      0.749    27.7216 0.0000e+00
      0.469     -0.205     8.3171    106.661    117.497 124.471472    10.7100     0.1885     0.0426     0.1269 6.0620e+02    -0.1131      0.460      0.667    27.7799 0.0000e+00
      0.419     -0.183     8.3272    106.751    117.463 124.496695    10.7100     0.1579     0.0426     0.1269 8.9151e+02     0.0077      0.411      0.596    27.8357 0.0000e+00
      0.376     -0.160     8.3369    106.804    117.443 124.526826    10.7100     0.1732     0.0426     0.1269 5.6943e+02    -0.0678      0.369      0.535    27.8858 0.0000e+00
      0.340     -0.138     8.3456    106.838    117.437 124.569900    10.6200     0.1579     0.0426     0.0846 4.8823e+02    -0.0980      0.333      0.483    27.9278 0.0000e+00
      0.308     -0.116     8.3519    106.866    117.448 124.625402    10.6200     0.1160     0.0426     0.0846 6.0095e+02    -0.3095      0.302      0.438    27.9611 0.0000e+00
      0.281     -0.096     8.3552    106.881    117.461 124.676124    10.6200     0.1160     0.0426     0.0846 1.1198e+03    -0.3549      0.275      0.400    27.9871 0.0000e+00
      0.259     -0.079     8.3561    106.854    117.456 124.699580    10.6200     0.1045     0.0426     0.0846 7.8560e+02    -0.3549      0.254      0.369    28.0093 0.0000e+00
      0.243     -0.063     8.3557    106.763    117.431 124.698023    10.6200     0.1045     0.0426     0.1269 8.0881e+02    -0.2944      0.238      0.345    28.0303 0.0000e+00
      0.230     -0.051     8.3552    106.622    117.411 124.699050    10.6200     0.1236     0.0426     0.1269 7.9108e+02    -0.2642      0.226      0.327    28.0491 0.0000e+00
      0.221     -0.043     8.3540    106.453    117.417 124.726944    10.6200     0.1160     0.0426     0.1269 5.5803e+02    -0.3397      0.216      0.314    28.0645 0.0000e+00
      0.213     -0.038     8.3500    106.282    117.441 124.777140    10.6200     0.1045     0.0426     0.1269 1.0728e+03    -0.3549      0.209      0.303    28.0769 0.0000e+00
      0.205     -0.036     8.3414    106.137    117.474 124.843017    10.4400     0.1160     0.0426     0.0846 6.4367e+02    -0.4304      0.201      0.292    28.0873 0.0000e+00
      0.197     -0.037     8.3290    106.043    117.509 124.920134    10.4400     0.1122     0.0426     0.0846 1.1692e+03    -0.3246      0.193      0.280    28.0967 0.0000e+00
      0.187     -0.037     8.3144    106.016    117.519 124.977038    10.4400     0.1007     0.0426     0.0846 6.7783e+02    -0.3700      0.184      0.266    28.1060 0.0000e+00
      0.176     -0.038     8.2995    106.051    117.496 124.994895    10.4400     0.1236     0.0426     0.0846 1.0990e+03    -0.3851      0.173      0.251    28.1165 0.0000e+00
      0.165     -0.037     8.2863    106.111    117.458 124.986473    10.4400     0.1007     0.0426     0.0846 1.0152e+03    -0.2642      0.162      0.235    28.1296 0.0000e+00
      0.155     -0.035     8.2765    106.157    117.426 124.975537    10.6200     0.0397     0.0852     0.0000 1.0640e+03    -0.3095      0.152      0.220    28.1466 0.0000e+00
      0.146     -0.033     8.2716    106.175    117.404 124.965174    10.6200     0.0397     0.0852     0.0000 1.2464e+03    -0.3397      0.144      0.209    28.1662 0.0000e+00
      0.140     -0.031     8.2716    106.172    117.366 124.930612    10.6200     0.0244     0.0852     0.0000 1.0976e+03    -0.3397      0.137      0.199    28.1843 0.0000e+00
      0.133     -0.031     8.2743    106.161    117.323 124.882643    10.6200     0.0702     0.0852     0.0000 1.0290e+03    -0.4304      0.131      0.190    28.1982 0.0000e+00
      0.127     -0.034     8.2765    106.145    117.283 124.834485    10.7100     0.1122     0.0426     0.1269 1.0477e+03    -0.3246      0.125      0.181    28.2077 0.0000e+00
      0.120     -0.042     8.2771    106.109    117.210 124.751285    10.7100     0.1045     0.0426     0.1269 1.7623e+03    -0.3246      0.117      0.170    28.2134 0.0000e+00
      0.110     -0.054     8.2765    106.030    117.071 124.602853    10.7100     0.0931     0.0426     0.1269 1.1720e+03    -0.3095      0.108      0.157    28.2156 0.0000e+00
      0.098     -0.073     8.2757    105.893    116.828 124.351608    10.7100     0.0931     0.0426     0.1269 1.3344e+03    -0.3549      0.096      0.140    28.2149 0.0000e+00
      0.081     -0.096     8.2749    105.683    116.415 123.926550    10.3500     0.0931     0.0426     0.2538 1.1093e+03    -0.2642      0.080      0.115    28.2123 0.0000e+00
      0.056     -0.123     8.2724    105.363    115.725 123.214331    10.3500     0.1084     0.0426     0.2538 6.7946e+02    -0.3549      0.055      0.080    28.2100 0.0000e+00
      0.022     -0.149     8.2662    104.861    114.538 121.979010    10.3500     0.1084     0.0426     0.2538 1.3168e+03    -0.3246      0.022      0.031    28.2098 0.0000e+00
     -0.022     -0.171     8.2551    104.062    112.506 119.845152    10.3500     0.1198     0.0426     0.2538 1.6543e+03    -0.2944     -0.022     -0.032    28.2126 0.0000e+00
     -0.074     -0.187     8.2379    102.854    109.116 116.255737    10.3500     0.0359     0.0426     0.2538 1.7746e+03    -0.2944     -0.072     -0.105    28.2187 0.0000e+00
     -0.128     -0.193     8.2117    101.205    103.493 110.273597    10.1700     0.0282     0.0000     0.1269 1.5041e+03    -0.2642     -0.126     -0.182    28.2277 0.0000e+00
     -0.181     -0.191     8.1710     99.217     94.141 100.303496    10.1700     0.0473     0.0000     0.1269 1.0876e+03    -0.2944     -0.178     -0.258    28.2388 0.0000e+00
     -0.230     -0.180     8.1072     97.113     78.561  83.690740    10.1700     0.0664     0.0000     0.1269 1.0580e+03    -0.3549     -0.226     -0.328    28.2494 0.0000e+00
     -0.273     -0.164     8.0123     95.225     58.665  62.478491    10.1700   245.1034     0.0000     0.1269 1.0883e+03   970.9736     -0.268     -0.389    28.2550 0.0000e+00
     -0.310     -0.146     7.8843     93.984     41.941  44.645309     2.9700   245.1072     0.6390     2.1150 1.0523e+03   970.9283     -0.304     -0.441    28.2518 0.0000e+00
     -0.340     -0.128     7.7314     93.707     31.395  33.391950     2.9700   245.1415     0.6390     2.1150 9.5883e+02   971.1096     -0.334     -0.484    28.2381 0.0000e+00
     -0.364     -0.113     7.5709     94.300     25.024  26.585461     2.9700   245.1263     0.6390     2.1150 6.6993e+02   970.8981     -0.357     -0.518    28.2141 0.0000e+00
     -0.382     -0.100     7.4287     95.348     21.289  22.589889     2.9700   245.0996     0.6390     2.1150 5.3710e+02     4.1167     -0.375     -0.544    28.1787 0.0000e+00
     -0.396     -0.093     7.3387     96.348     19.389  20.552687     0.0000   245.1225     0.5538    -4.1031 3.5814e+02     4.1469     -0.389     -0.564    28.1304 0.0000e+00
     -0.406     -0.090     7.3250     96.773     18.835  19.956468     0.0000   245.1263     0.5538    -4.1031 2.9696e+02     4.2224     -0.399     -0.578    28.0720 0.0000e+00
     -0.414 -9.990e-29     7.3798 -9.990e-29 -9.990e-29 -9.990e-29     0.0000 -9.990e-29     0.5538    -4.1031 2.6790e+02 -9.990e-29     -0.406     -0.589    28.0095 0.0000e+00
     -0.418 -9.990e-29     7.4699 -9.990e-29 -9.990e-29 -9.990e-29     0.0000 -9.990e-29     0.5538    -4.1031 2.5072e+02 -9.990e-29     -0.410     -0.596    27.9502 0.0000e+00
     -0.421 -9.990e-29     7.5546 -9.990e-29 -9.990e-29 -9.990e-29     0.0000 -9.990e-29     0.3408     1.6074 2.4379e+02 -9.990e-29     -0.413     -0.600    27.9044 0.0000e+00
     -0.422 -9.990e-29     7.5903 -9.990e-29 -9.990e-29 -9.990e-29     0.0000 -9.990e-29     0.3408     1.6074 2.5143e+02 -9.990e-29     -0.414     -0.601    27.8864 0.0000e+00
