* Sea-Bird SBE19plus  Data File:
* FileName = C:\R\Reservoirs\Data\DataNotYetUploadedToEDI\Raw_CTD\RawDownloads\081424_ccr50_S8188_0005.hex
* Software version 2.8.0.119
* Temperature SN = 8188
* Conductivity SN = 8188
* System UpLoad Time = Aug 16 2024 10:37:54
* <ApplicationData>
* <Seaterm232>
* <SoftwareVersion>2.8.0.119</SoftwareVersion>
* <BuildDate>07-Nov-2018</BuildDate>
* </Seaterm232>
* </ApplicationData>
* <InstrumentState>
* <HardwareData DeviceType='SBE19plus' SerialNumber='01908188'>
*
*    <Manufacturer>Sea-Bird Electronics, Inc.</Manufacturer>
*
*    <FirmwareVersion>3.1.8</FirmwareVersion>
*
*    <FirmwareDate>Mar  9 2016 16:22:29</FirmwareDate>
*
*    <CommandSetVersion>1.4</CommandSetVersion>
*
*    <PCBAssembly PCBSerialNum='260079' AssemblyNum='41054K'/>
*
*    <PCBAssembly PCBSerialNum='260083' AssemblyNum='41059E'/>
*
*    <PCBAssembly PCBSerialNum='260085' AssemblyNum='41606B'/>
*
*    <PCBAssembly PCBSerialNum='260081' AssemblyNum='41967C'/>
*
*    <MfgDate>30 Mar 2022</MfgDate>
*
*    <InternalSensors>
*
*       <Sensor id='Main Temperature'>
*
*          <type>temperature0</type>
*
*          <SerialNumber>01908188</SerialNumber>
*
*       </Sensor>
*
*       <Sensor id='Main Conductivity'>
*
*          <type>conductivity-0</type>
*
*          <SerialNumber>01908188</SerialNumber>
*
*       </Sensor>
*
*       <Sensor id='Main Pressure'>
*
*          <type>strain-0</type>
*
*          <SerialNumber>12220741</SerialNumber>
*
*       </Sensor>
*
*    </InternalSensors>
*
*    <ExternalSensors>
*
*       <Sensor id='volt 0'>
*
*          <type>CHL</type>
*
*          <SerialNumber>FLNTURT-7096</SerialNumber>
*
*       </Sensor>
*
*       <Sensor id='volt 1'>
*
*          <type>NTU</type>
*
*          <SerialNumber>FLNTURT-7096</SerialNumber>
*
*       </Sensor>
*
*       <Sensor id='volt 2'>
*
*          <type>OXY</type>
*
*          <SerialNumber>43-4269</SerialNumber>
*
*       </Sensor>
*
*       <Sensor id='volt 3'>
*
*          <type>not assigned</type>
*
*          <SerialNumber>not assigned</SerialNumber>
*
*       </Sensor>
*
*       <Sensor id='volt 4'>
*
*          <type>PAR</type>
*
*          <SerialNumber>PARLOGICSW-2209</SerialNumber>
*
*       </Sensor>
*
*       <Sensor id='volt 5'>
*
*          <type>not assigned</type>
*
*          <SerialNumber>not assigned</SerialNumber>
*
*       </Sensor>
*
*       <Sensor id='serial'>
*
*          <type>WETLABS</type>
*
*          <SerialNumber>FL3-7350</SerialNumber>
*
*       </Sensor>
*
*    </ExternalSensors>
*
* </HardwareData>
* <StatusData DeviceType='SBE19plus' SerialNumber='01908188'>
*
*    <DateTime>2024-08-16T10:35:18</DateTime>
*
*    <LoggingState>not logging</LoggingState>
*
*    <EventSummary numEvents='0'/>
*
*    <Power>
*
*       <vMain>12.4</vMain>
*
*       <vLith>8.6</vLith>
*
*       <iMain>61.7</iMain>
*
*       <iPump>49.8</iPump>
*
*       <iExt01>21.9</iExt01>
*
*       <iExt2345>21.1</iExt2345>
*
*       <iSerial>55.5</iSerial>
*
*    </Power>
*
*    <MemorySummary>
*
*       <Bytes>279875</Bytes>
*
*       <Samples>11195</Samples>
*
*       <SamplesFree>2620730</SamplesFree>
*
*       <SampleLength>25</SampleLength>
*
*       <Profiles>7</Profiles>
*
*    </MemorySummary>
*
* </StatusData>
* <ConfigurationData DeviceType='SBE19plus' SerialNumber='01908188'>
*
*    <ProfileMode>
*
*       <ScansToAverage>1</ScansToAverage>
*
*       <MinimumCondFreq>2</MinimumCondFreq>
*
*       <PumpDelay>90</PumpDelay>
*
*       <AutoRun>no</AutoRun>
*
*       <IgnoreSwitch>no</IgnoreSwitch>
*
*    </ProfileMode>
*
*    <Battery>
*
*       <Type>alkaline</Type>
*
*       <CutOff>7.5</CutOff>
*
*    </Battery>
*
*    <DataChannels>
*
*       <ExtVolt0>yes</ExtVolt0>
*
*       <ExtVolt1>yes</ExtVolt1>
*
*       <ExtVolt2>yes</ExtVolt2>
*
*       <ExtVolt3>no</ExtVolt3>
*
*       <ExtVolt4>yes</ExtVolt4>
*
*       <ExtVolt5>no</ExtVolt5>
*
*       <SBE38>no</SBE38>
*
*       <WETLABS>yes</WETLABS>
*
*       <OPTODE>no</OPTODE>
*
*       <SBE63>no</SBE63>
*
*       <SeaFET>no</SeaFET>
*
*       <GTD>no</GTD>
*
*    </DataChannels>
*
*    <EchoCharacters>yes</EchoCharacters>
*
*    <OutputExecutedTag>yes</OutputExecutedTag>
*
*    <OutputFormat>raw HEX</OutputFormat>
*
* </ConfigurationData>
* <CalibrationCoefficients DeviceType='SBE19plus' SerialNumber='01908188'>
*
*    <Calibration format='TEMP1' id='Main Temperature'>
*
*       <SerialNum>01908188</SerialNum>
*
*       <CalDate>07-May-24</CalDate>
*
*       <TA0>1.249325e-03</TA0>
*
*       <TA1>2.751683e-04</TA1>
*
*       <TA2>-1.314205e-06</TA2>
*
*       <TA3>1.914222e-07</TA3>
*
*       <TOFFSET>0.000000e+00</TOFFSET>
*
*    </Calibration>
*
*    <Calibration format='WBCOND0' id='Main Conductivity'>
*
*       <SerialNum>01908188</SerialNum>
*
*       <CalDate>07-May-24</CalDate>
*
*       <G>-1.014855e+00</G>
*
*       <H>1.444624e-01</H>
*
*       <I>-3.430060e-04</I>
*
*       <J>4.842261e-05</J>
*
*       <CPCOR>-9.570000e-08</CPCOR>
*
*       <CTCOR>3.250000e-06</CTCOR>
*
*       <CSLOPE>1.000000e+00</CSLOPE>
*
*    </Calibration>
*
*    <Calibration format='STRAIN0' id='Main Pressure'>
*
*       <SerialNum>12220741</SerialNum>
*
*       <CalDate>03-Apr-24</CalDate>
*
*       <PA0>7.209200e-02</PA0>
*
*       <PA1>4.836684e-04</PA1>
*
*       <PA2>-3.501227e-12</PA2>
*
*       <PTCA0>5.244614e+05</PTCA0>
*
*       <PTCA1>2.020364e+01</PTCA1>
*
*       <PTCA2>-6.074616e-01</PTCA2>
*
*       <PTCB0>2.522087e+01</PTCB0>
*
*       <PTCB1>5.750000e-04</PTCB1>
*
*       <PTCB2>0.000000e+00</PTCB2>
*
*       <PTEMPA0>-5.770713e+01</PTEMPA0>
*
*       <PTEMPA1>5.343973e+01</PTEMPA1>
*
*       <PTEMPA2>-5.775530e-01</PTEMPA2>
*
*       <POFFSET>7.020000e-01</POFFSET>
*
*       <PRANGE>1.600000e+02</PRANGE>
*
*    </Calibration>
*
*    <Calibration format='VOLT0' id='Volt 0'>
*
*       <OFFSET>-4.657200e-02</OFFSET>
*
*       <SLOPE>1.248989e+00</SLOPE>
*
*    </Calibration>
*
*    <Calibration format='VOLT0' id='Volt 1'>
*
*       <OFFSET>-4.600800e-02</OFFSET>
*
*       <SLOPE>1.249849e+00</SLOPE>
*
*    </Calibration>
*
*    <Calibration format='VOLT0' id='Volt 2'>
*
*       <OFFSET>-4.668000e-02</OFFSET>
*
*       <SLOPE>1.250379e+00</SLOPE>
*
*    </Calibration>
*
*    <Calibration format='VOLT0' id='Volt 3'>
*
*       <OFFSET>-4.643200e-02</OFFSET>
*
*       <SLOPE>1.251002e+00</SLOPE>
*
*    </Calibration>
*
*    <Calibration format='VOLT0' id='Volt 4'>
*
*       <OFFSET>-4.606100e-02</OFFSET>
*
*       <SLOPE>1.249962e+00</SLOPE>
*
*    </Calibration>
*
*    <Calibration format='VOLT0' id='Volt 5'>
*
*       <OFFSET>-4.642700e-02</OFFSET>
*
*       <SLOPE>1.248530e+00</SLOPE>
*
*    </Calibration>
*
*    <Calibration format='FREQ0' id='external frequency channel'>
*
*       <EXTFREQSF>1.000018e+00</EXTFREQSF>
*
*    </Calibration>
*
* </CalibrationCoefficients>
* <EventCounters DeviceType='SBE19plus' SerialNumber='01908188'>
*
*    <EventSummary numEvents='0'/>
*
* </EventCounters></InstrumentState>
* <Headers>
*
* cast   5 15 Aug 2024 15:35:21 samples 8434 to 9377, avg = 1, stop = mag switch
*
# nquan = 16
# nvalues = 944                         
# units = specified
# name 0 = depFM: Depth [fresh water, m]
# name 1 = dz/dtM: Descent Rate [m/s]
# name 2 = sbeox0Mg/L: Oxygen, SBE 43 [mg/l]
# name 3 = sbeox0PS: Oxygen, SBE 43 [% saturation]
# name 4 = specc: Specific Conductance [uS/cm]
# name 5 = c0uS/cm: Conductivity [uS/cm]
# name 6 = wetCDOM: Fluorescence, WET Labs CDOM [mg/m^3]
# name 7 = flECO-AFL: Fluorescence, WET Labs ECO-AFL/FL [mg/m^3]
# name 8 = flECO-AFL1: Fluorescence, WET Labs ECO-AFL/FL, 2 [mg/m^3]
# name 9 = flECO-AFL2: Fluorescence, WET Labs ECO-AFL/FL, 3 [mg/m^3]
# name 10 = par/sat/log: PAR/Logarithmic, Satlantic
# name 11 = turbWETntu0: Turbidity, WET Labs ECO [NTU]
# name 12 = prdM: Pressure, Strain Gauge [db]
# name 13 = prdE: Pressure, Strain Gauge [psi]
# name 14 = tv290C: Temperature [ITS-90, deg C]
# name 15 = flag:  0.000e+00
# span 0 =     -0.452,      9.361       
# span 1 =     -0.441,      0.169       
# span 2 =     2.8905,     9.7782       
# span 3 =     28.184,    123.693       
# span 4 =   -638.128,    126.608       
# span 5 =-486.333072, 124.896961       
# span 6 =    -4.5000,    27.8100       
# span 7 =    -2.0584,    23.3784       
# span 8 =    -2.2578,     0.8946       
# span 9 =    -5.7105,     3.6801       
# span 10 = 1.3519e+00, 2.2508e+03      
# span 11 =    -2.2734,    91.5074      
# span 12 =     -0.443,      9.180      
# span 13 =     -0.642,     13.314      
# span 14 =    13.0182,    28.2395      
# span 15 = 0.0000e+00, 0.0000e+00      
# interval = seconds: 0.25
# start_time = Aug 15 2024 15:35:21 [Instrument's time stamp, header]
# bad_flag = -9.990e-29
# <Sensors count="10" >
#   <sensor Channel="1" >
#     <!-- Count, Temperature -->
#     <TemperatureSensor SensorID="58" >
#       <SerialNumber>8188</SerialNumber>
#       <CalibrationDate>07-May-24</CalibrationDate>
#       <A0>1.24932504e-003</A0>
#       <A1>2.75168293e-004</A1>
#       <A2>-1.31420465e-006</A2>
#       <A3>1.91422179e-007</A3>
#       <Slope>1.00000000</Slope>
#       <Offset>0.0000</Offset>
#     </TemperatureSensor>
#   </sensor>
#   <sensor Channel="2" >
#     <!-- Frequency 0, Conductivity -->
#     <ConductivitySensor SensorID="3" >
#       <SerialNumber>8188</SerialNumber>
#       <CalibrationDate>07-May-24</CalibrationDate>
#       <UseG_J>1</UseG_J>
#       <!-- Cell const and series R are applicable only for wide range sensors. -->
#       <SeriesR>0.0000</SeriesR>
#       <CellConst>2000.0000</CellConst>
#       <ConductivityType>0</ConductivityType>
#       <Coefficients equation="0" >
#         <A>0.00000000e+000</A>
#         <B>0.00000000e+000</B>
#         <C>0.00000000e+000</C>
#         <D>0.00000000e+000</D>
#         <M>0.0</M>
#         <CPcor>-9.57000000e-008</CPcor>
#       </Coefficients>
#       <Coefficients equation="1" >
#         <G>-1.01485473e+000</G>
#         <H>1.44462400e-001</H>
#         <I>-3.43006030e-004</I>
#         <J>4.84226116e-005</J>
#         <CPcor>-9.57000000e-008</CPcor>
#         <CTcor>3.2500e-006</CTcor>
#         <!-- WBOTC not applicable unless ConductivityType = 1. -->
#         <WBOTC>0.00000000e+000</WBOTC>
#       </Coefficients>
#       <Slope>1.00000000</Slope>
#       <Offset>0.00000</Offset>
#     </ConductivitySensor>
#   </sensor>
#   <sensor Channel="3" >
#     <!-- Count, Pressure, Strain Gauge -->
#     <PressureSensor SensorID="46" >
#       <SerialNumber>8188</SerialNumber>
#       <CalibrationDate>03-Apr-24</CalibrationDate>
#       <PA0>7.20920045e-002</PA0>
#       <PA1>4.83668449e-004</PA1>
#       <PA2>-3.50122678e-012</PA2>
#       <PTEMPA0>-5.77071299e+001</PTEMPA0>
#       <PTEMPA1>5.34397285e+001</PTEMPA1>
#       <PTEMPA2>-5.77553003e-001</PTEMPA2>
#       <PTCA0>5.24461366e+005</PTCA0>
#       <PTCA1>2.02036405e+001</PTCA1>
#       <PTCA2>-6.07461634e-001</PTCA2>
#       <PTCB0>2.52208750e+001</PTCB0>
#       <PTCB1>5.75000000e-004</PTCB1>
#       <PTCB2>0.00000000e+000</PTCB2>
#       <Offset>0.000000</Offset>
#     </PressureSensor>
#   </sensor>
#   <sensor Channel="4" >
#     <!-- A/D voltage 0, Fluorometer, WET Labs ECO-AFL/FL -->
#     <FluoroWetlabECO_AFL_FL_Sensor SensorID="20" >
#       <SerialNumber>FLNTURT-7096</SerialNumber>
#       <CalibrationDate>21-Mar-2024</CalibrationDate>
#       <ScaleFactor>5.00000000e+001</ScaleFactor>
#       <!-- Dark output -->
#       <Vblank>0.0710</Vblank>
#     </FluoroWetlabECO_AFL_FL_Sensor>
#   </sensor>
#   <sensor Channel="5" >
#     <!-- A/D voltage 1, Turbidity Meter, WET Labs, ECO-NTU -->
#     <TurbidityMeter SensorID="67" >
#       <SerialNumber>FLNTURT-7096</SerialNumber>
#       <CalibrationDate>21-Mar-2024</CalibrationDate>
#       <ScaleFactor>198.000000</ScaleFactor>
#       <!-- Dark output -->
#       <DarkVoltage>0.070000</DarkVoltage>
#     </TurbidityMeter>
#   </sensor>
#   <sensor Channel="6" >
#     <!-- A/D voltage 2, Oxygen, SBE 43 -->
#     <OxygenSensor SensorID="38" >
#       <SerialNumber>4269</SerialNumber>
#       <CalibrationDate>08-May-24</CalibrationDate>
#       <Use2007Equation>1</Use2007Equation>
#       <CalibrationCoefficients equation="0" >
#         <!-- Coefficients for Owens-Millard equation. -->
#         <Boc>0.0000</Boc>
#         <Soc>0.0000e+000</Soc>
#         <offset>0.0000</offset>
#         <Pcor>0.00e+000</Pcor>
#         <Tcor>0.0000</Tcor>
#         <Tau>0.0</Tau>
#       </CalibrationCoefficients>
#       <CalibrationCoefficients equation="1" >
#         <!-- Coefficients for Sea-Bird equation - SBE calibration in 2007 and later. -->
#         <Soc>4.3983e-001</Soc>
#         <offset>-0.4978</offset>
#         <A>-4.5504e-003</A>
#         <B> 2.4929e-004</B>
#         <C>-4.1306e-006</C>
#         <D0> 2.5826e+000</D0>
#         <D1> 1.92634e-004</D1>
#         <D2>-4.64803e-002</D2>
#         <E> 3.6000e-002</E>
#         <Tau20> 1.9700</Tau20>
#         <H1>-3.3000e-002</H1>
#         <H2> 5.0000e+003</H2>
#         <H3> 1.4500e+003</H3>
#       </CalibrationCoefficients>
#     </OxygenSensor>
#   </sensor>
#   <sensor Channel="7" >
#     <!-- A/D voltage 3, PAR/Logarithmic, Satlantic -->
#     <PARLog_SatlanticSensor SensorID="76" >
#       <SerialNumber>2209</SerialNumber>
#       <CalibrationDate>14-Jan-2022</CalibrationDate>
#       <a0>9.8861e-001</a0>
#       <a1>8.0845e-001</a1>
#       <Im>1.3589e+000</Im>
#       <Multiplier>1.0000e+000</Multiplier>
#     </PARLog_SatlanticSensor>
#   </sensor>
#   <sensor Channel="8" >
#     <!-- Serial RS-232, Fluorometer, WET Labs ECO-AFL/FL, 2 -->
#     <FluoroWetlabECO_AFL_FL_Sensor SensorID="20" >
#       <SerialNumber>FL3-7350</SerialNumber>
#       <CalibrationDate>10-Mar-2022</CalibrationDate>
#       <ScaleFactor>4.26000000e-002</ScaleFactor>
#       <!-- Dark output -->
#       <Vblank>50.0000</Vblank>
#     </FluoroWetlabECO_AFL_FL_Sensor>
#   </sensor>
#   <sensor Channel="9" >
#     <!-- Serial RS-232, Fluorometer, WET Labs ECO-AFL/FL, 3 -->
#     <FluoroWetlabECO_AFL_FL_Sensor SensorID="20" >
#       <SerialNumber>FL3-7350</SerialNumber>
#       <CalibrationDate>10-Mar-2022</CalibrationDate>
#       <ScaleFactor>4.23000000e-002</ScaleFactor>
#       <!-- Dark output -->
#       <Vblank>48.0000</Vblank>
#     </FluoroWetlabECO_AFL_FL_Sensor>
#   </sensor>
#   <sensor Channel="10" >
#     <!-- Serial RS-232, Fluorometer, WET Labs ECO CDOM -->
#     <FluoroWetlabCDOM_Sensor SensorID="19" >
#       <SerialNumber>FL3-7350</SerialNumber>
#       <CalibrationDate>10-Mar-2022</CalibrationDate>
#       <ScaleFactor>0.090</ScaleFactor>
#       <!-- Dark output -->
#       <Vblank>50.000</Vblank>
#     </FluoroWetlabCDOM_Sensor>
#   </sensor>
# </Sensors>
# datcnv_date = Aug 29 2024 11:54:56, 7.26.7.129 [datcnv_vars = 15]
# datcnv_in = C:\R\Reservoirs\Data\DataNotYetUploadedToEDI\Raw_CTD\RawDownloads\081524_ccr88_S8188005.hex C:\R\Reservoirs\Data\DataNotYetUploadedToEDI\Raw_CTD\RawDownloads\SBE19plusV2_8188_start20240601.xmlcon
# datcnv_skipover = 0
# datcnv_ox_hysteresis_correction = yes
# datcnv_ox_tau_correction = yes
# filter_date = Aug 29 2024 11:57:17, 7.26.7.129
# filter_in = C:\R\Reservoirs\Data\DataNotYetUploadedToEDI\Raw_CTD\RawDownloads\081524_ccr88_S8188005.cnv
# filter_low_pass_tc_A = 0.500
# filter_low_pass_tc_B = 1.000
# filter_low_pass_A_vars = sbeox0Mg/L sbeox0PS specc c0uS/cm tv290C
# filter_low_pass_B_vars = depFM dz/dtM prdM prdE
# alignctd_date = Aug 29 2024 11:58:45, 7.26.7.129
# alignctd_in = C:\R\Reservoirs\Data\DataNotYetUploadedToEDI\Raw_CTD\RawDownloads\081524_ccr88_S8188005.cnv
# alignctd_adv = dz/dtM 1.000, sbeox0PS 1.000, specc 1.000, c0uS/cm 1.000, flECO-AFL 1.000, turbWETntu0 1.000                                                                                                                        
# file_type = ascii
*END*
     -0.452      0.003     8.3881    105.072      2.698   2.804813    -4.5000    -0.5859    -2.1300    -2.0304 1.3446e+03    -2.1978     -0.443     -0.642    26.9191 0.0000e+00
     -0.451      0.003     8.3875    105.060      2.776   2.888464    -4.5000    -0.5783    -2.1300    -2.0304 2.1485e+03    -2.2432     -0.442     -0.641    26.9166 0.0000e+00
     -0.450      0.004     8.3868    105.050      2.921   3.042885    -4.5000    -0.5630    -2.1300    -2.0304 2.1697e+03    -2.2734     -0.441     -0.640    26.9142 0.0000e+00
     -0.449      0.005     8.3861    105.044      3.190   3.329142     0.0000    -0.2617     0.0426     0.1692 1.6760e+03    16.3378     -0.440     -0.638    26.9122 0.0000e+00
     -0.447      0.007     8.3853    105.040      3.682   3.851414     0.0000    -0.2579     0.0426     0.1692 1.3903e+03    16.3529     -0.439     -0.636    26.9107 0.0000e+00
     -0.445      0.009     8.3845    105.034      4.559   4.780793     0.0000    -0.2579     0.0426     0.1692 1.3792e+03    16.3831     -0.437     -0.634    26.9096 0.0000e+00
     -0.443      0.012     8.3837    105.024      6.069   6.381025     0.0000    -0.2541     0.0426     0.1692 1.2209e+03    16.3982     -0.435     -0.630    26.9097 0.0000e+00
     -0.440      0.015     8.3829    105.010      8.592   9.054972     0.0000    -2.0584     0.0426     0.1692 1.0707e+03    -1.8202     -0.432     -0.626    26.9118 0.0000e+00
     -0.436      0.019     8.3817    104.993     12.746  13.458013     0.0000    -2.0508     0.2130     0.0846 9.7162e+02    -1.6993     -0.428     -0.620    26.9175 0.0000e+00
     -0.431      0.025     8.3794    104.973     19.600  20.724515     0.0000    -2.0432     0.2130     0.0846 9.5633e+02    -1.8202     -0.423     -0.613    26.9294 0.0000e+00
     -0.425      0.032     8.3754    104.949     30.938  32.744478     0.0000    -2.0355     0.2130     0.0846 1.0128e+03    -1.8353     -0.417     -0.604    26.9516 0.0000e+00
     -0.417      0.041     8.3684    104.923     47.738  50.569681     0.0000     0.0435     0.2130     0.0846 1.0594e+03    -0.0980     -0.409     -0.593    26.9910 0.0000e+00
     -0.406      0.051     8.3569    104.901     67.729  71.818444     0.0000     0.0855    -0.2982     1.3959 1.1359e+03    -0.1131     -0.398     -0.578    27.0592 0.0000e+00
     -0.393      0.062     8.3380    104.886     85.843  91.124901     0.0000     0.0664    -0.2982     1.3959 1.2361e+03     0.0228     -0.385     -0.558    27.1745 0.0000e+00
     -0.376      0.074     8.3109    104.885     98.411 104.568819     0.0000     0.0778    -0.2982     1.3959 1.3361e+03    -0.1585     -0.368     -0.534    27.3429 0.0000e+00
     -0.355      0.085     8.2798    104.900    105.940 112.659541     0.0000    -0.0099    -0.2982     1.3959 1.5018e+03    -0.3549     -0.348     -0.504    27.5378 0.0000e+00
     -0.330      0.095     8.2505    104.929    110.455 117.534594     0.0000     0.0206     0.8946    -2.2419 1.6016e+03    -0.3851     -0.324     -0.469    27.7229 0.0000e+00
     -0.303      0.102     8.2262    104.977    113.175 120.481992     0.0000    -0.0214     0.8946    -2.2419 1.5971e+03    -0.4002     -0.297     -0.431    27.8783 0.0000e+00
     -0.275      0.108     8.2082    105.060    114.817 122.265701     0.0000    -0.0061     0.8946    -2.2419 1.5774e+03    -0.3851     -0.270     -0.391    27.9987 0.0000e+00
     -0.247      0.112     8.1963    105.191    115.813 123.343371     0.0000    -0.0061     0.8946    -2.2419 1.5325e+03    -0.2340     -0.242     -0.351    28.0868 0.0000e+00
     -0.218      0.115     8.1894    105.391    116.421 123.994380     2.0700    -0.0137    -2.2578    -5.7105 1.4966e+03    -0.2642     -0.213     -0.310    28.1492 0.0000e+00
     -0.189      0.119     8.1870    105.676    116.794 124.386325     2.0700    -0.0137    -2.2578    -5.7105 1.4705e+03    -0.2944     -0.185     -0.268    28.1917 0.0000e+00
     -0.159      0.124     8.1894    106.058    117.029 124.625726     2.0700     0.0206    -2.2578    -5.7105 1.4603e+03    -0.3549     -0.155     -0.226    28.2186 0.0000e+00
     -0.128      0.130     8.1975    106.554    117.181 124.776421     2.0700     0.0702    -2.2578    -5.7105 1.4515e+03    -0.3549     -0.125     -0.181    28.2332 0.0000e+00
     -0.094      0.136     8.2122    107.151    117.270 124.862589     2.0700     0.0511    -2.2578    -5.7105 1.4859e+03    -0.3246     -0.092     -0.134    28.2392 0.0000e+00
     -0.058      0.141     8.2343    107.799    117.305 124.895201     9.9000     0.0778     0.0000     0.0423 1.7723e+03    -0.2189     -0.057     -0.083    28.2395 0.0000e+00
     -0.020      0.144     8.2646    108.433    117.310 124.896961     9.9000     0.0359     0.0000     0.0423 1.5716e+03    -0.2642     -0.019     -0.028    28.2367 0.0000e+00
      0.020      0.144     8.3038    108.991    117.306 124.886345     9.9000     0.0588     0.0000     0.0423 1.2950e+03    -0.4002      0.020      0.029    28.2328 0.0000e+00
      0.059      0.141     8.3508    109.418    117.308 124.872526     9.9000     0.0473     0.0000     0.0423 4.2189e+02    -0.4002      0.058      0.084    28.2296 0.0000e+00
      0.096      0.134     8.4015    109.669    117.318 124.859823     9.9900     0.0359     0.0426     0.0846 4.8211e+02    -0.4002      0.094      0.136    28.2279 0.0000e+00
      0.130      0.125     8.4511    109.703    117.328 124.840843     9.9900     0.0435     0.0426     0.0846 6.6312e+02    -0.2944      0.127      0.184    28.2268 0.0000e+00
      0.160      0.115     8.4951    109.475    117.335 124.816528     9.9900     0.1160     0.0426     0.0846 4.6919e+02    -0.2944      0.157      0.227    28.2239 0.0000e+00
      0.187      0.104     8.5293    108.926    117.347 124.798396     9.9900     0.1312     0.0426     0.0846 6.5014e+02    -0.2793      0.184      0.266    28.2175 0.0000e+00
      0.212      0.094     8.5503    107.949    117.363 124.785614    10.1700     0.1351     0.0852     0.0846 4.9560e+02    -0.3700      0.208      0.302    28.2075 0.0000e+00
      0.235      0.086     8.5548    106.381    117.374 124.770768    10.1700     0.1007     0.0852     0.0846 6.7666e+02    -0.2491      0.230      0.334    28.1949 0.0000e+00
      0.255      0.078     8.5390    104.127    117.381 124.753902    10.1700     0.1351     0.0852     0.0846 5.8893e+02    -0.3549      0.250      0.362    28.1815 0.0000e+00
      0.273      0.072     8.4982    101.302    117.382 124.734516    10.1700     0.1312     0.0852     0.0846 9.7141e+02    -0.4002      0.268      0.388    28.1683 0.0000e+00
      0.290      0.067     8.4238     98.150    117.381 124.715443    10.1700     0.1236     0.0852     0.0846 4.8527e+02    -0.2340      0.284      0.412    28.1557 0.0000e+00
      0.306      0.063     8.3031     94.949    117.384 124.703602    10.2600     0.1351     0.0000     0.0846 4.9121e+02    -0.2944      0.300      0.435    28.1440 0.0000e+00
      0.322      0.060     8.1286     92.019    117.393 124.699835    10.2600     0.1160     0.0000     0.0846 7.2981e+02    -0.2340      0.316      0.458    28.1337 0.0000e+00
      0.337      0.055     7.9093     89.727    117.405 124.699135    10.2600     0.1351     0.0000     0.0846 1.2305e+03    -0.3700      0.331      0.479    28.1250 0.0000e+00
      0.352      0.051     7.6642     88.416    117.414 124.697315    10.2600     0.1389     0.0000     0.0846 1.3326e+03    -0.3095      0.345      0.500    28.1175 0.0000e+00
      0.365      0.045     7.4151     88.149    117.424 124.697890    10.2600     0.1007     0.0426     0.1269 1.3298e+03    -0.3246      0.358      0.519    28.1110 0.0000e+00
      0.376      0.039     7.1870     88.552    117.436 124.701011    10.2600     0.1007     0.0426     0.1269 1.2351e+03    -0.3700      0.368      0.534    28.1051 0.0000e+00
      0.384      0.032     7.0088     89.055    117.441 124.699510    10.2600     0.1236     0.0426     0.1269 1.1431e+03    -0.3397      0.377      0.547    28.0997 0.0000e+00
      0.391      0.025     6.9069     89.260    117.436 124.688982    10.2600     0.1274     0.0426     0.1269 1.0270e+03    -0.2944      0.384      0.557    28.0948 0.0000e+00
      0.397      0.020     6.8867     89.004    117.429 124.678625    10.1700     0.0931     0.0000     0.2115 1.0221e+03    -0.3549      0.389      0.564    28.0904 0.0000e+00
      0.401      0.015     6.9186     88.227    117.434 124.681683    10.1700     0.1312     0.0000     0.2115 7.9990e+02    -0.3549      0.393      0.570    28.0866 0.0000e+00
      0.403      0.010     6.9583     86.925    117.445 124.690968    10.1700     0.1312     0.0000     0.2115 6.9393e+02    -0.3246      0.395      0.574    28.0835 0.0000e+00
      0.405      0.006     6.9746     85.161    117.450 124.692951    10.1700     0.1007     0.0000     0.2115 6.8628e+02    -0.3549      0.397      0.577    28.0815 0.0000e+00
      0.406      0.002     6.9547     83.104    117.446 124.684158    10.1700     0.1198     0.0426     0.1692 6.8494e+02    -0.3549      0.399      0.578    28.0802 0.0000e+00
      0.407     -0.003     6.8942     81.002    117.436 124.670248    10.1700     0.1351     0.0426     0.1692 7.8322e+02    -0.3397      0.399      0.578    28.0792 0.0000e+00
      0.406     -0.008     6.7926     79.066    117.432 124.663518    10.1700     0.1312     0.0426     0.1692 8.3980e+02    -0.3851      0.398      0.577    28.0780 0.0000e+00
      0.403     -0.013     6.6548     77.431    117.437 124.666173    10.1700     0.1160     0.0426     0.1692 8.3271e+02    -0.3397      0.396      0.574    28.0765 0.0000e+00
      0.400     -0.018     6.4943     76.199    117.439 124.666917    10.1700     0.1198     0.0426     0.1692 8.5434e+02    -0.2642      0.392      0.568    28.0750 0.0000e+00
      0.394     -0.022     6.3302     75.480    117.436 124.661947    10.2600     0.1236     0.0426     0.2115 7.9470e+02    -0.4002      0.386      0.560    28.0736 0.0000e+00
      0.387     -0.024     6.1791     75.346    117.435 124.657941    10.2600     0.1084     0.0426     0.2115 6.6500e+02    -0.4153      0.380      0.551    28.0723 0.0000e+00
      0.380     -0.026     6.0514     75.768    117.437 124.657831    10.2600     0.1427     0.0426     0.2115 5.7841e+02    -0.2944      0.372      0.540    28.0713 0.0000e+00
      0.372     -0.026     5.9552     76.601    117.438 124.657588    10.2600     0.1007     0.0426     0.2115 5.2772e+02    -0.3851      0.365      0.529    28.0704 0.0000e+00
      0.366     -0.024     5.8991     77.656    117.427 124.645142    10.2600     0.1351     0.0852     0.1269 4.6625e+02    -0.3700      0.358      0.520    28.0696 0.0000e+00
      0.360     -0.023     5.8887     78.788    117.404 124.621174    10.2600     0.1198     0.0852     0.1269 4.6151e+02    -0.2793      0.353      0.511    28.0687 0.0000e+00
      0.354     -0.020     5.9218     79.896    117.385 124.603303    10.2600     0.1236     0.0852     0.1269 4.9099e+02    -0.3095      0.347      0.504    28.0678 0.0000e+00
      0.350     -0.018     5.9870     80.853    117.382 124.602769    10.2600     0.0969     0.0852     0.1269 4.8558e+02    -0.2642      0.343      0.497    28.0670 0.0000e+00
      0.345     -0.017     6.0694     81.485    117.393 124.615428    10.2600     0.1007     0.0426     0.1692 4.6635e+02    -0.2340      0.338      0.491    28.0666 0.0000e+00
      0.341     -0.016     6.1579     81.651    117.405 124.628651    10.2600     0.1084     0.0426     0.1692 4.6201e+02    -0.2491      0.334      0.485    28.0669 0.0000e+00
      0.338     -0.015     6.2444     81.346    117.412 124.633960    10.2600     0.0931     0.0426     0.1692 4.8086e+02    -0.3700      0.331      0.480    28.0678 0.0000e+00
      0.334     -0.015     6.3191     80.709    117.412 124.632769    10.2600     0.1160     0.0426     0.1692 4.9078e+02    -0.3700      0.328      0.475    28.0688 0.0000e+00
      0.331     -0.014     6.3684     79.984    117.420 124.640766    10.2600     0.1045     0.0426     0.1692 5.1965e+02    -0.3095      0.324      0.470    28.0694 0.0000e+00
      0.327     -0.013     6.3814     79.433    117.450 124.672089    10.1700     0.1045     0.0000     0.1692 4.7992e+02    -0.2793      0.320      0.464    28.0694 0.0000e+00
      0.323     -0.010     6.3576     79.215    117.498 124.723086    10.1700     0.1160     0.0000     0.1692 4.5247e+02    -0.3246      0.316      0.458    28.0687 0.0000e+00
      0.319     -0.007     6.3080     79.345    117.542 124.769342    10.1700     0.1351     0.0000     0.1692 4.3549e+02    -0.2642      0.313      0.454    28.0680 0.0000e+00
      0.318     -0.004     6.2513     79.779    117.551 124.779176    10.1700     0.1045     0.0000     0.1692 4.8023e+02    -0.3397      0.311      0.451    28.0678 0.0000e+00
      0.318     -0.001     6.2082     80.512    117.520 124.747206    10.1700     0.1084     0.0426     0.1692 5.6967e+02    -0.2944      0.312      0.452    28.0680 0.0000e+00
      0.319      0.001     6.1912     81.568    117.474 124.700921    10.1700     0.1160     0.0426     0.1692 6.8598e+02    -0.4002      0.313      0.454    28.0680 0.0000e+00
      0.320      0.003     6.2014     82.859    117.445 124.673996    10.1700     0.1084     0.0426     0.1692 6.9559e+02    -0.3549      0.314      0.455    28.0678 0.0000e+00
      0.321      0.005     6.2353     84.115    117.447 124.679259    10.1700     0.1198     0.0426     0.1692 6.4116e+02    -0.3549      0.314      0.456    28.0676 0.0000e+00
      0.321      0.007     6.2925     85.009    117.471 124.706108    10.2600     0.1236     0.0426     0.1269 6.3977e+02    -0.1887      0.315      0.457    28.0680 0.0000e+00
      0.322      0.009     6.3749     85.328    117.502 124.737696    10.2600     0.1045     0.0426     0.1269 6.8673e+02    -0.3246      0.316      0.459    28.0692 0.0000e+00
      0.325      0.011     6.4757     85.011    117.523 124.758435    10.2600     0.1160     0.0426     0.1269 8.8303e+02    -0.4304      0.319      0.463    28.0708 0.0000e+00
      0.329      0.013     6.5737     84.081    117.525 124.757850    10.2600     0.1045     0.0426     0.1269 1.0919e+03    -0.2793      0.323      0.468    28.0721 0.0000e+00
      0.333      0.014     6.6434     82.624    117.515 124.743789    10.2600     0.0969     0.0426     0.1269 1.1118e+03    -0.3095      0.327      0.474    28.0726 0.0000e+00
      0.337      0.014     6.6684     80.797    117.514 124.740512    10.2600     0.1236     0.0426     0.1269 1.2545e+03    -0.3246      0.331      0.480    28.0723 0.0000e+00
      0.341      0.014     6.6437     78.818    117.534 124.759148    10.2600     0.0855     0.0426     0.1269 1.2093e+03    -0.3397      0.334      0.485    28.0714 0.0000e+00
      0.344      0.014     6.5712     76.890    117.562 124.784662    10.2600     0.1084     0.0426     0.1269 1.3120e+03    -0.3246      0.338      0.490    28.0703 0.0000e+00
      0.348      0.013     6.4574     75.146    117.579 124.799845    10.2600     0.1084     0.0426     0.1269 1.3068e+03    -0.3549      0.341      0.495    28.0691 0.0000e+00
      0.351      0.012     6.3148     73.661    117.577 124.794743    10.1700     0.1084     0.0426     0.1269 1.3226e+03    -0.2793      0.344      0.500    28.0679 0.0000e+00
      0.354      0.010     6.1603     72.481    117.556 124.769995    10.1700     0.1007     0.0426     0.1269 1.3080e+03    -0.2944      0.347      0.504    28.0666 0.0000e+00
      0.357      0.009     6.0097     71.625    117.538 124.749013    10.1700     0.1045     0.0426     0.1269 1.3080e+03    -0.2793      0.350      0.507    28.0652 0.0000e+00
      0.359      0.009     5.8736     71.049    117.546 124.756212    10.1700     0.1122     0.0426     0.1269 1.3634e+03    -0.4002      0.352      0.510    28.0638 0.0000e+00
      0.360      0.008     5.7577     70.646    117.576 124.785510    10.2600     0.0931     0.0426     0.1269 1.3329e+03    -0.2340      0.353      0.513    28.0626 0.0000e+00
      0.362      0.007     5.6655     70.290    117.600 124.808705    10.2600     0.1427     0.0426     0.1269 1.3364e+03    -0.3246      0.355      0.515    28.0617 0.0000e+00
      0.364      0.006     5.5987     69.895    117.606 124.811976    10.2600     0.1007     0.0426     0.1269 1.4215e+03    -0.3095      0.357      0.518    28.0609 0.0000e+00
      0.365      0.006     5.5538     69.438    117.597 124.800196    10.2600     0.1007     0.0426     0.1269 1.2724e+03    -0.4002      0.358      0.520    28.0601 0.0000e+00
      0.367      0.005     5.5223     68.923    117.585 124.786230    10.2600     0.1007     0.0426     0.0846 1.3543e+03    -0.3700      0.360      0.522    28.0592 0.0000e+00
      0.368      0.004     5.4946     68.367    117.583 124.782359    10.2600     0.1351     0.0426     0.0846 1.2950e+03    -0.3397      0.361      0.523    28.0580 0.0000e+00
      0.369      0.004     5.4638     67.782    117.589 124.787552    10.2600     0.1351     0.0426     0.0846 1.3414e+03    -0.2642      0.362      0.525    28.0568 0.0000e+00
      0.370      0.003     5.4282     67.180    117.599 124.795189    10.2600     0.0931     0.0426     0.0846 1.3516e+03    -0.2340      0.363      0.526    28.0558 0.0000e+00
      0.370      0.003     5.3880     66.581    117.611 124.803306    10.2600     0.1160     0.0426     0.0846 1.4305e+03    -0.4002      0.363      0.527    28.0553 0.0000e+00
      0.371      0.003     5.3445     66.003    117.629 124.818070    10.1700     0.1198     0.0426     0.1269 1.2757e+03    -0.3397      0.364      0.528    28.0549 0.0000e+00
      0.372      0.003     5.2989     65.446    117.648 124.833411    10.1700     0.1312     0.0426     0.1269 1.3128e+03    -0.2491      0.365      0.529    28.0541 0.0000e+00
      0.373      0.002     5.2519     64.904    117.649 124.829413    10.1700     0.1236     0.0426     0.1269 1.2257e+03    -0.3095      0.366      0.530    28.0528 0.0000e+00
      0.373      0.002     5.2053     64.386    117.626 124.801008    10.1700     0.0778     0.0426     0.1269 1.2981e+03    -0.4304      0.366      0.531    28.0510 0.0000e+00
      0.374      0.003     5.1603     63.925    117.602 124.772631    10.3500     0.1274     0.0000     0.1269 1.2699e+03    -0.2642      0.367      0.532    28.0490 0.0000e+00
      0.374      0.004     5.1169     63.563    117.605 124.774731    10.3500     0.1236     0.0000     0.1269 1.3145e+03    -0.4002      0.367      0.532    28.0469 0.0000e+00
      0.374      0.005     5.0747     63.317    117.634 124.803866    10.3500     0.1007     0.0000     0.1269 1.3634e+03    -0.3549      0.367      0.533    28.0449 0.0000e+00
      0.375      0.006     5.0344     63.165    117.659 124.829790    10.3500     0.1236     0.0000     0.1269 1.2510e+03    -0.3549      0.368      0.534    28.0433 0.0000e+00
      0.377      0.007     4.9985     63.080    117.658 124.829406    10.2600     0.1045     0.0426     0.0846 1.2922e+03    -0.3246      0.370      0.537    28.0423 0.0000e+00
      0.380      0.008     4.9703     63.030    117.637 124.808613    10.2600     0.1007     0.0426     0.0846 1.2592e+03    -0.3549      0.373      0.540    28.0416 0.0000e+00
      0.382      0.009     4.9510     62.973    117.617 124.787876    10.2600     0.1312     0.0426     0.0846 1.2252e+03    -0.2944      0.375      0.544    28.0410 0.0000e+00
      0.385      0.009     4.9391     62.867    117.612 124.781674    10.2600     0.1351     0.0426     0.0846 1.3026e+03    -0.1887      0.377      0.547    28.0407 0.0000e+00
      0.387      0.009     4.9325     62.672    117.623 124.792354    10.2600     0.0931     0.0426     0.0846 1.2710e+03    -0.2944      0.380      0.551    28.0410 0.0000e+00
      0.389      0.009     4.9286     62.360    117.644 124.810760    10.2600     0.1122     0.0426     0.0846 1.2431e+03    -0.4002      0.382      0.554    28.0414 0.0000e+00
      0.392      0.008     4.9241     61.932    117.666 124.829794    10.2600     0.0969     0.0426     0.0846 1.2488e+03    -0.3549      0.384      0.557    28.0416 0.0000e+00
      0.394      0.008     4.9158     61.420    117.684 124.842529    10.2600     0.1007     0.0426     0.0846 1.2396e+03    -0.4002      0.386      0.560    28.0414 0.0000e+00
      0.396      0.008     4.9006     60.866    117.688 124.840355    10.2600     0.1084     0.0426     0.0846 1.2367e+03    -0.2944      0.388      0.563    28.0408 0.0000e+00
      0.398      0.008     4.8763     60.315    117.684 124.830694    10.2600     0.1351     0.0426     0.1692 1.2622e+03    -0.3095      0.390      0.566    28.0394 0.0000e+00
      0.400      0.007     4.8431     59.811    117.689 124.830979    10.2600     0.1160     0.0426     0.1692 1.2782e+03    -0.2491      0.392      0.568    28.0373 0.0000e+00
      0.402      0.007     4.8032     59.392    117.701 124.837282    10.2600     0.1007     0.0426     0.1692 1.2821e+03    -0.3095      0.394      0.571    28.0348 0.0000e+00
      0.403      0.007     4.7601     59.095    117.704 124.835280    10.2600     0.0931     0.0426     0.1692 1.3003e+03    -0.3700      0.395      0.574    28.0322 0.0000e+00
      0.405      0.007     4.7173     58.932    117.699 124.824437    10.2600     0.1122     0.0426     0.0846 1.2193e+03    -0.3397      0.397      0.576    28.0298 0.0000e+00
      0.407      0.006     4.6780     58.876    117.694 124.813866    10.2600     0.0931     0.0426     0.0846 1.2412e+03    -0.3549      0.399      0.579    28.0274 0.0000e+00
      0.409      0.006     4.6455     58.882    117.698 124.812753    10.2600     0.1160     0.0426     0.0846 1.2740e+03    -0.3851      0.400      0.581    28.0250 0.0000e+00
      0.410      0.005     4.6224     58.921    117.706 124.816799    10.2600     0.1465     0.0426     0.0846 1.1606e+03    -0.3246      0.402      0.583    28.0225 0.0000e+00
      0.411      0.005     4.6099     58.979    117.710 124.815079    10.3500     0.1007     0.0852     0.0846 1.2268e+03    -0.2944      0.403      0.585    28.0202 0.0000e+00
      0.413      0.004     4.6056     59.046    117.703 124.803132    10.3500     0.1656     0.0852     0.0846 1.2238e+03    -0.3397      0.405      0.587    28.0180 0.0000e+00
      0.414      0.003     4.6063     59.106    117.691 124.785775    10.3500     0.1656     0.0852     0.0846 1.1823e+03    -0.3549      0.406      0.589    28.0159 0.0000e+00
      0.414      0.002     4.6096     59.131    117.684 124.774385    10.3500     0.1732     0.0852     0.0846 1.2407e+03    -0.3549      0.406      0.590    28.0137 0.0000e+00
      0.415      0.001     4.6142     59.113    117.687 124.773928    10.3500     0.1579     0.0852     0.0846 1.0990e+03    -0.3549      0.407      0.590    28.0115 0.0000e+00
      0.415      0.001     4.6196     59.079    117.701 124.784282    10.2600     0.1427     0.0000     0.0846 1.2067e+03    -0.2793      0.407      0.590    28.0094 0.0000e+00
      0.415      0.000     4.6244     59.075    117.724 124.804206    10.2600     0.1732     0.0000     0.0846 1.2043e+03    -0.4153      0.407      0.590    28.0075 0.0000e+00
      0.415      0.000     4.6266     59.135    117.746 124.823007    10.2600     0.1579     0.0000     0.0846 1.1741e+03    -0.2642      0.407      0.590    28.0058 0.0000e+00
      0.415      0.000     4.6253     59.260    117.756 124.829692    10.2600     0.1885     0.0000     0.0846 1.1779e+03    -0.2642      0.407      0.590    28.0041 0.0000e+00
      0.415     -0.001     4.6228     59.412    117.752 124.822043    10.2600     0.1084     0.0426     0.0846 1.2114e+03    -0.2944      0.407      0.590    28.0023 0.0000e+00
      0.415     -0.001     4.6226     59.552    117.744 124.810023    10.2600     0.1084     0.0426     0.0846 1.1965e+03    -0.3246      0.407      0.590    28.0003 0.0000e+00
      0.414     -0.001     4.6275     59.663    117.752 124.814437    10.2600     0.1084     0.0426     0.0846 1.2453e+03    -0.2642      0.406      0.589    27.9984 0.0000e+00
      0.414     -0.001     4.6374     59.752    117.777 124.836461    10.2600     0.1122     0.0426     0.0846 1.1833e+03    -0.3095      0.406      0.589    27.9967 0.0000e+00
      0.414     -0.001     4.6494     59.840    117.800 124.855958    10.1700     0.1007     0.0426     0.1692 1.2891e+03    -0.3549      0.406      0.588    27.9951 0.0000e+00
      0.413     -0.001     4.6605     59.952    117.806 124.858120    10.1700     0.1160     0.0426     0.1692 1.1130e+03    -0.3246      0.405      0.588    27.9937 0.0000e+00
      0.413     -0.002     4.6693     60.102    117.796 124.843523    10.1700     0.1160     0.0426     0.1692 1.1664e+03    -0.2793      0.405      0.587    27.9921 0.0000e+00
      0.413     -0.002     4.6765     60.276    117.782 124.824281    10.1700     0.1160     0.0426     0.1692 1.2172e+03    -0.3246      0.405      0.587    27.9902 0.0000e+00
      0.412     -0.002     4.6835     60.448    117.771 124.809267    10.3500     0.1885     0.0426     0.1269 1.1980e+03    -0.3246      0.404      0.587    27.9882 0.0000e+00
      0.412     -0.003     4.6925     60.604    117.764 124.798478    10.3500     0.1656     0.0426     0.1269 1.1825e+03    -0.3246      0.404      0.586    27.9863 0.0000e+00
      0.411     -0.004     4.7043     60.750    117.755 124.785037    10.3500     0.1999     0.0426     0.1269 1.1675e+03    -0.3549      0.403      0.584    27.9845 0.0000e+00
      0.410     -0.005     4.7180     60.887    117.739 124.765359    10.3500     0.1656     0.0426     0.1269 1.1746e+03    -0.3549      0.402      0.583    27.9829 0.0000e+00
      0.408     -0.005     4.7316     60.998    117.723 124.746201    10.3500     0.1732     0.0426     0.1269 1.1687e+03    -0.2642      0.401      0.581    27.9815 0.0000e+00
      0.407     -0.006     4.7440     61.066    117.714 124.734458    10.2600     0.1846     0.0426     0.0846 1.1340e+03    -0.2340      0.399      0.578    27.9800 0.0000e+00
      0.405     -0.006     4.7555     61.099    117.717 124.735002    10.2600     0.1618     0.0426     0.0846 1.1923e+03    -0.4002      0.397      0.576    27.9786 0.0000e+00
      0.403     -0.005     4.7664     61.139    117.731 124.747978    10.2600     0.1923     0.0426     0.0846 1.2570e+03    -0.2642      0.396      0.574    27.9772 0.0000e+00
      0.402     -0.004     4.7752     61.238    117.750 124.764842    10.2600     0.1389     0.0426     0.0846 1.2302e+03    -0.4002      0.394      0.572    27.9760 0.0000e+00
      0.401     -0.003     4.7806     61.418    117.760 124.774084    10.3500     0.1389     0.0426     0.0846 1.2124e+03    -0.4153      0.393      0.570    27.9750 0.0000e+00
      0.401     -0.002     4.7832     61.644    117.758 124.770165    10.3500     0.1084     0.0426     0.0846 1.1662e+03    -0.3549      0.393      0.570    27.9741 0.0000e+00
      0.400     -0.000     4.7864     61.852    117.750 124.760044    10.3500     0.1084     0.0426     0.0846 1.1411e+03    -0.3851      0.393      0.569    27.9731 0.0000e+00
      0.401      0.001     4.7943     61.992    117.748 124.757028    10.3500     0.1618     0.0426     0.0846 1.1846e+03    -0.3549      0.393      0.570    27.9721 0.0000e+00
      0.401      0.002     4.8085     62.048    117.752 124.760312    10.1700     0.1579     0.0426     0.1269 1.2143e+03    -0.4002      0.393      0.570    27.9711 0.0000e+00
      0.402      0.004     4.8262     62.037    117.759 124.766770    10.1700     0.1579     0.0426     0.1269 1.2286e+03    -0.3549      0.394      0.571    27.9704 0.0000e+00
      0.403      0.005     4.8426     62.008    117.774 124.782126    10.1700     0.1579     0.0426     0.1269 1.1718e+03    -0.3095      0.395      0.573    27.9699 0.0000e+00
      0.404      0.006     4.8536     62.031    117.785 124.794469    10.1700     0.1732     0.0426     0.1269 1.1478e+03    -0.3246      0.397      0.575    27.9695 0.0000e+00
      0.406      0.006     4.8579     62.154    117.775 124.785082    10.1700     0.1846     0.0426     0.1269 1.1115e+03    -0.2944      0.399      0.578    27.9692 0.0000e+00
      0.409      0.006     4.8571     62.353    117.737 124.749460    10.2600     0.1656     0.0426     0.1269 9.2225e+02    -0.2491      0.401      0.581    27.9689 0.0000e+00
      0.411      0.005     4.8549     62.538    117.689 124.704115    10.2600     0.1694     0.0426     0.1269 5.6646e+02    -0.2340      0.403      0.584    27.9686 0.0000e+00
      0.412      0.004     4.8567     62.620    117.665 124.682972    10.2600     0.1618     0.0426     0.1269 4.6101e+02    -0.2944      0.404      0.586    27.9686 0.0000e+00
      0.413      0.003     4.8662     62.568    117.681 124.704403    10.2600     0.1846     0.0426     0.1269 3.6386e+02    -0.2944      0.405      0.587    27.9695 0.0000e+00
      0.413      0.002     4.8817     62.409    117.718 124.746112    10.3500     0.1656     0.0852     0.1269 3.4983e+02    -0.3246      0.405      0.588    27.9713 0.0000e+00
      0.413      0.001     4.8960     62.201    117.741 124.771204    10.3500     0.1541     0.0852     0.1269 3.4680e+02    -0.4304      0.405      0.588    27.9735 0.0000e+00
      0.414      0.001     4.9022     61.993    117.735 124.766363    10.3500     0.1923     0.0852     0.1269 3.4417e+02    -0.3549      0.406      0.588    27.9757 0.0000e+00
      0.414      0.000     4.8980     61.789    117.715 124.746303    10.3500     0.1503     0.0852     0.1269 3.4545e+02    -0.4002      0.406      0.589    27.9773 0.0000e+00
      0.414      0.000     4.8854     61.570    117.697 124.729685    10.2600     0.1579     0.0426     0.0423 3.3568e+02    -0.3549      0.406      0.589    27.9783 0.0000e+00
      0.414      0.000     4.8691     61.324    117.686 124.720079    10.2600     0.1732     0.0426     0.0423 3.3670e+02    -0.4002      0.406      0.588    27.9788 0.0000e+00
      0.413     -0.001     4.8527     61.050    117.683 124.718927    10.2600     0.1770     0.0426     0.0423 3.3343e+02    -0.3397      0.405      0.588    27.9793 0.0000e+00
      0.413     -0.001     4.8367     60.763    117.689 124.725921    10.2600     0.1618     0.0426     0.0423 3.3227e+02    -0.3549      0.405      0.587    27.9799 0.0000e+00
      0.413      0.000     4.8196     60.481    117.695 124.730922    10.4400     0.1656     0.0000     0.0846 3.3068e+02    -0.2642      0.405      0.587    27.9809 0.0000e+00
      0.413      0.000     4.8002     60.223    117.691 124.723258    10.4400     0.1656     0.0000     0.0846 3.2676e+02    -0.3549      0.405      0.587    27.9819 0.0000e+00
      0.413      0.000     4.7787     60.001    117.676 124.704888    10.4400     0.1465     0.0000     0.0846 3.2252e+02    -0.2793      0.405      0.588    27.9826 0.0000e+00
      0.413      0.000     4.7562     59.815    117.663 124.686919    10.4400     0.1846     0.0000     0.0846 3.2196e+02    -0.3700      0.405      0.588    27.9827 0.0000e+00
      0.413      0.000     4.7342     59.663    117.656 124.676562    10.4400     0.1732     0.0000     0.0846 3.2084e+02    -0.3095      0.405      0.588    27.9821 0.0000e+00
      0.413      0.000     4.7141     59.541    117.666 124.683061    10.2600     0.1694     0.0426     0.1269 3.1593e+02    -0.2340      0.405      0.588    27.9810 0.0000e+00
      0.413      0.000     4.6968     59.450    117.690 124.704146    10.2600     0.1923     0.0426     0.1269 3.1552e+02    -0.2491      0.405      0.588    27.9796 0.0000e+00
      0.413      0.000     4.6824     59.394    117.715 124.725434    10.2600     0.1846     0.0426     0.1269 3.1062e+02    -0.3549      0.405      0.588    27.9782 0.0000e+00
      0.413      0.000     4.6706     59.377    117.730 124.736594    10.2600     0.1846     0.0426     0.1269 3.1422e+02    -0.3549      0.405      0.588    27.9767 0.0000e+00
      0.414     -0.001     4.6612     59.394    117.727 124.728597    10.3500     0.1999     0.0426     0.1269 3.0747e+02    -0.3246      0.406      0.588    27.9752 0.0000e+00
      0.414     -0.001     4.6543     59.426    117.709 124.707314    10.3500     0.1656     0.0426     0.1269 3.1130e+02    -0.2944      0.406      0.588    27.9733 0.0000e+00
      0.413     -0.001     4.6501     59.444    117.691 124.687076    10.3500     0.1579     0.0426     0.1269 3.0355e+02    -0.4002      0.405      0.588    27.9711 0.0000e+00
      0.413     -0.002     4.6489     59.422    117.687 124.682495    10.3500     0.1694     0.0426     0.1269 3.0540e+02    -0.3549      0.405      0.587    27.9690 0.0000e+00
      0.412     -0.002     4.6503     59.355    117.700 124.696350    10.3500     0.1618     0.0426     0.0846 2.9851e+02    -0.3549      0.404      0.586    27.9672 0.0000e+00
      0.411     -0.002     4.6529     59.269    117.715 124.712328    10.3500     0.1503     0.0426     0.0846 3.0014e+02    -0.3397      0.403      0.585    27.9660 0.0000e+00
      0.411     -0.002     4.6544     59.209    117.718 124.714683    10.3500     0.1885     0.0426     0.0846 3.0132e+02    -0.3246      0.403      0.585    27.9654 0.0000e+00
      0.411     -0.002     4.6526     59.204    117.703 124.700042    10.3500     0.1656     0.0426     0.0846 2.9484e+02    -0.2944      0.403      0.584    27.9653 0.0000e+00
      0.411     -0.002     4.6474     59.240    117.679 124.676504    10.3500     0.1656     0.0426     0.0846 2.9741e+02    -0.3549      0.403      0.584    27.9654 0.0000e+00
      0.410     -0.002     4.6407     59.270    117.654 124.653799    10.2600     0.1732     0.0426     0.1692 2.9503e+02    -0.4153      0.403      0.584    27.9653 0.0000e+00
      0.410     -0.003     4.6360     59.252    117.643 124.645879    10.2600     0.1770     0.0426     0.1692 2.9254e+02    -0.2340      0.402      0.583    27.9653 0.0000e+00
      0.409     -0.003     4.6355     59.168    117.650 124.654634    10.2600     0.1579     0.0426     0.1692 2.9216e+02    -0.2642      0.401      0.582    27.9657 0.0000e+00
      0.408     -0.003     4.6383     59.026    117.656 124.662393    10.2600     0.1579     0.0426     0.1692 2.8907e+02    -0.3246      0.400      0.581    27.9667 0.0000e+00
      0.407     -0.004     4.6406     58.839    117.653 124.659218    10.4400     0.1503     0.0426     0.0423 2.8969e+02    -0.2944      0.399      0.579    27.9681 0.0000e+00
      0.406     -0.004     4.6390     58.613    117.654 124.660271    10.4400     0.1579     0.0426     0.0423 2.8230e+02    -0.2944      0.398      0.578    27.9695 0.0000e+00
      0.405     -0.004     4.6323     58.365    117.671 124.677835    10.4400     0.1656     0.0426     0.0423 2.8806e+02    -0.3549      0.397      0.576    27.9705 0.0000e+00
      0.404     -0.003     4.6212     58.146    117.686 124.692586    10.4400     0.1618     0.0426     0.0423 2.8619e+02    -0.3700      0.396      0.575    27.9709 0.0000e+00
      0.403     -0.003     4.6065     58.009    117.683 124.688451    10.3500     0.1618     0.0426     0.0846 2.8236e+02    -0.2944      0.395      0.574    27.9710 0.0000e+00
      0.402     -0.003     4.5889     57.956    117.669 124.672328    10.3500     0.1618     0.0426     0.0846 2.8514e+02    -0.3246      0.395      0.573    27.9710 0.0000e+00
      0.402     -0.003     4.5695     57.936    117.653 124.655924    10.3500     0.1656     0.0426     0.0846 2.7768e+02    -0.4455      0.394      0.572    27.9707 0.0000e+00
      0.401     -0.003     4.5523     57.891    117.645 124.646870    10.3500     0.1846     0.0426     0.0846 2.8576e+02    -0.2189      0.393      0.570    27.9703 0.0000e+00
      0.400     -0.003     4.5416     57.796    117.646 124.646753    10.3500     0.1618     0.0426     0.0423 2.7919e+02    -0.3246      0.392      0.569    27.9697 0.0000e+00
      0.399     -0.003     4.5376     57.664    117.648 124.647538    10.3500     0.1618     0.0426     0.0423 2.8230e+02    -0.2944      0.391      0.567    27.9694 0.0000e+00
      0.398     -0.002     4.5361     57.513    117.648 124.645434    10.3500     0.1885     0.0426     0.0423 2.7689e+02    -0.2944      0.391      0.566    27.9693 0.0000e+00
      0.398     -0.002     4.5325     57.353    117.648 124.643881    10.3500     0.1923     0.0426     0.0423 2.7551e+02    -0.2944      0.390      0.565    27.9693 0.0000e+00
      0.397     -0.000     4.5251     57.184    117.645 124.638462    10.3500     0.1656     0.0426     0.0423 2.7998e+02    -0.3246      0.390      0.565    27.9689 0.0000e+00
      0.397      0.001     4.5148     57.007    117.640 124.631735    10.3500     0.1846     0.0426     0.1269 2.7671e+02    -0.3549      0.389      0.565    27.9681 0.0000e+00
      0.398      0.003     4.5031     56.842    117.640 124.629908    10.3500     0.1770     0.0426     0.1269 2.7840e+02    -0.2793      0.390      0.565    27.9673 0.0000e+00
      0.398      0.005     4.4906     56.715    117.641 124.628492    10.3500     0.1846     0.0426     0.1269 2.7683e+02    -0.2793      0.391      0.567    27.9664 0.0000e+00
      0.400      0.007     4.4774     56.628    117.638 124.623109    10.3500     0.1846     0.0426     0.1269 2.7557e+02    -0.3397      0.392      0.569    27.9657 0.0000e+00
      0.402      0.008     4.4636     56.574    117.640 124.624326    10.3500     0.1846     0.0000     0.1692 2.7165e+02    -0.2491      0.394      0.571    27.9650 0.0000e+00
      0.404      0.010     4.4507     56.564    117.653 124.636471    10.3500     0.1846     0.0000     0.1692 2.7677e+02    -0.2793      0.396      0.575    27.9642 0.0000e+00
      0.407      0.012     4.4409     56.620    117.652 124.634770    10.3500     0.1808     0.0000     0.1692 2.7088e+02    -0.3700      0.399      0.579    27.9633 0.0000e+00
      0.411      0.013     4.4341     56.743    117.621 124.602764    10.3500     0.1732     0.0000     0.1692 2.6830e+02    -0.3700      0.403      0.583    27.9624 0.0000e+00
      0.414      0.013     4.4299     56.898    117.579 124.559929    10.3500     0.1656     0.0426     0.0423 2.6259e+02    -0.3397      0.406      0.589    27.9617 0.0000e+00
      0.418      0.014     4.4292     57.027    117.558 124.538859    10.3500     0.1465     0.0426     0.0423 2.6540e+02    -0.3397      0.409      0.594    27.9612 0.0000e+00
      0.421      0.015     4.4336     57.104    117.570 124.553942    10.3500     0.1923     0.0426     0.0423 2.5970e+02    -0.2642      0.413      0.599    27.9609 0.0000e+00
      0.425      0.015     4.4432     57.153    117.612 124.601197    10.3500     0.1732     0.0426     0.0423 2.6265e+02    -0.3700      0.416      0.604    27.9611 0.0000e+00
      0.429      0.015     4.4553     57.239    117.661 124.657212    10.3500     0.1808     0.0426     0.0423 2.5734e+02    -0.3851      0.420      0.609    27.9616 0.0000e+00
      0.433      0.014     4.4654     57.417    117.674 124.678904    10.3500     0.1999     0.0426     0.1692 2.5622e+02    -0.3246      0.425      0.616    27.9625 0.0000e+00
      0.437      0.013     4.4713     57.687    117.636 124.650049    10.3500     0.1808     0.0426     0.1692 2.5667e+02    -0.4002      0.429      0.622    27.9635 0.0000e+00
      0.441      0.010     4.4751     57.985    117.578 124.600967    10.3500     0.1656     0.0426     0.1692 2.5390e+02    -0.2944      0.432      0.627    27.9647 0.0000e+00
      0.444      0.007     4.4817     58.235    117.543 124.572591    10.3500     0.1579     0.0426     0.1692 2.5093e+02    -0.2793      0.435      0.631    27.9666 0.0000e+00
      0.445      0.003     4.4953     58.407    117.545 124.581363    10.3500     0.1656     0.0000     0.0846 2.4672e+02    -0.1736      0.436      0.633    27.9699 0.0000e+00
      0.445     -0.002     4.5160     58.524    117.580 124.621620    10.3500     0.2037     0.0000     0.0846 2.4394e+02    -0.3397      0.437      0.633    27.9747 0.0000e+00
      0.444     -0.008     4.5390     58.650    117.624 124.672085    10.3500     0.1885     0.0000     0.0846 2.4289e+02    -0.3397      0.436      0.632    27.9797 0.0000e+00
      0.442     -0.015     4.5583     58.878    117.651 124.710201    10.3500     0.1846     0.0000     0.0846 2.3974e+02    -0.4002      0.434      0.629    27.9837 0.0000e+00
      0.438     -0.024     4.5715     59.283    117.667 124.742131    10.3500     0.1808     0.0426     0.2115 2.3530e+02    -0.3851      0.430      0.624    27.9862 0.0000e+00
      0.432     -0.035     4.5805     59.908    117.667 124.758385    10.3500     0.1999     0.0426     0.2115 2.3958e+02    -0.3549      0.424      0.615    27.9877 0.0000e+00
      0.423     -0.049     4.5902     60.783    117.622 124.723284    10.3500     0.1808     0.0426     0.2115 2.3296e+02    -0.2642      0.415      0.602    27.9897 0.0000e+00
      0.410     -0.063     4.6078     61.846    117.548 124.655478    10.3500     0.1579     0.0426     0.2115 2.4173e+02    -0.3397      0.402      0.583    27.9937 0.0000e+00
      0.392     -0.078     4.6389     62.944    117.487 124.596909    10.2600     0.1808     0.0426     0.2115 2.3648e+02    -0.2642      0.384      0.557    28.0000 0.0000e+00
      0.369     -0.090     4.6873     63.960    117.442 124.553966    10.2600     0.1770     0.0426     0.2115 2.4068e+02    -0.3095      0.362      0.525    28.0067 0.0000e+00
      0.342     -0.099     4.7552     64.896    117.429 124.545211    10.2600     0.1465     0.0426     0.2115 2.4607e+02    -0.3397      0.336      0.486    28.0122 0.0000e+00
      0.312     -0.104     4.8380     65.850    117.458 124.586313    10.2600     0.1808     0.0426     0.2115 2.4758e+02    -0.3246      0.307      0.445    28.0163 0.0000e+00
      0.283     -0.102     4.9237     66.930    117.501 124.650219    10.2600     0.1846     0.0426     0.2115 2.8218e+02    -0.3095      0.277      0.402    28.0192 0.0000e+00
      0.254     -0.096     5.0030     68.183    117.514 124.693950    10.3500     0.1694     0.0426     0.0846 2.6477e+02    -0.2944      0.249      0.362    28.0211 0.0000e+00
      0.229     -0.086     5.0760     69.671    117.468 124.687152    10.3500     0.1770     0.0426     0.0846 2.3855e+02    -0.3397      0.225      0.326    28.0233 0.0000e+00
      0.208     -0.074     5.1502     71.539    117.389 124.646024    10.3500     0.1656     0.0426     0.0846 2.7828e+02    -0.3246      0.204      0.296    28.0275 0.0000e+00
      0.192     -0.061     5.2339     73.890    117.340 124.625627    10.3500     0.1656     0.0426     0.0846 2.7372e+02    -0.2642      0.188      0.273    28.0353 0.0000e+00
      0.179     -0.049     5.3306     76.596    117.363 124.670540    10.1700     0.1846     0.0852     0.1269 2.4758e+02    -0.3246      0.176      0.255    28.0484 0.0000e+00
      0.170     -0.041     5.4452     79.333    117.441 124.768732    10.1700     0.1923     0.0852     0.1269 2.3367e+02    -0.2038      0.167      0.241    28.0663 0.0000e+00
      0.163     -0.037     5.5894     81.820    117.490 124.840345    10.1700     0.1885     0.0852     0.1269 2.0596e+02    -0.1131      0.159      0.231    28.0844 0.0000e+00
      0.156     -0.037     5.7718     83.922    117.458 124.836453    10.1700     0.1694     0.0852     0.1269 1.8795e+02    -0.0980      0.153      0.222    28.0979 0.0000e+00
      0.149     -0.039     5.9822     85.536    117.385 124.790032    10.1700     0.1618     0.0426     0.0846 1.7968e+02    -0.1131      0.146      0.212    28.1065 0.0000e+00
      0.139     -0.042     6.1953     86.535    117.323 124.744729    10.1700     0.1656     0.0426     0.0846 2.1783e+02    -0.0829      0.136      0.198    28.1130 0.0000e+00
      0.126     -0.044     6.3885     86.824    117.296 124.722479    10.1700     0.1427     0.0426     0.0846 3.4402e+02    -0.2944      0.123      0.179    28.1215 0.0000e+00
      0.111     -0.041     6.5512     86.384    117.309 124.733353    10.1700     0.1923     0.0426     0.0846 3.7780e+02    -0.2944      0.109      0.157    28.1341 0.0000e+00
      0.097     -0.034     6.6757     85.308    117.350 124.772246    10.1700     0.1579     0.0426     0.0846 1.6713e+03    -0.2944      0.095      0.137    28.1476 0.0000e+00
      0.086     -0.021     6.7526     83.785    117.396 124.821518    10.3500     0.1618     0.0426     0.0846 1.7391e+03    -0.3397      0.085      0.123    28.1564 0.0000e+00
      0.081     -0.004     6.7749     82.028    117.420 124.856293    10.3500     0.1656     0.0426     0.0846 1.8006e+03    -0.3549      0.080      0.116    28.1589 0.0000e+00
      0.083      0.014     6.7408     80.239    117.401 124.853833    10.3500     0.1503     0.0426     0.0846 1.7581e+03    -0.2491      0.081      0.118    28.1577 0.0000e+00
      0.091      0.032     6.6571     78.601    117.356 124.825487    10.3500     0.1694     0.0426     0.0846 1.7581e+03    -0.3700      0.089      0.129    28.1559 0.0000e+00
      0.103      0.048     6.5382     77.267    117.324 124.803715    10.3500     0.1503     0.0426     0.0423 1.6709e+03    -0.3095      0.101      0.147    28.1560 0.0000e+00
      0.119      0.061     6.4007     76.302    117.321 124.804719    10.3500     0.1084     0.0426     0.0423 1.5439e+03    -0.3851      0.117      0.170    28.1599 0.0000e+00
      0.138      0.070     6.2603     75.649    117.337 124.820765    10.3500     0.1236     0.0426     0.0423 2.6140e+02    -0.2038      0.135      0.196    28.1675 0.0000e+00
      0.158      0.075     6.1316     75.176    117.357 124.840123    10.3500     0.1312     0.0426     0.0423 2.8719e+02    -0.3397      0.154      0.224    28.1757 0.0000e+00
      0.178      0.076     6.0269     74.762    117.370 124.853951    10.1700     0.1236     0.0852     0.2115 2.2702e+02    -0.3095      0.175      0.254    28.1811 0.0000e+00
      0.199      0.074     5.9514     74.351    117.355 124.841926    10.1700     0.1579     0.0852     0.2115 2.1694e+02    -0.3397      0.195      0.284    28.1828 0.0000e+00
      0.219      0.070     5.9006     73.961    117.310 124.800842    10.1700     0.1694     0.0852     0.2115 1.6893e+02    -0.3095      0.215      0.312    28.1824 0.0000e+00
      0.238      0.064     5.8638     73.653    117.265 124.759759    10.1700     0.1465     0.0852     0.2115 1.5861e+02    -0.2642      0.233      0.338    28.1816 0.0000e+00
      0.253      0.056     5.8315     73.459    117.245 124.741736    10.2600     0.1808     0.0000     0.0846 1.5006e+02    -0.3246      0.248      0.360    28.1817 0.0000e+00
      0.266      0.047     5.7993     73.342    117.252 124.749968    10.2600     0.1732     0.0000     0.0846 1.5649e+02    -0.2491      0.261      0.378    28.1832 0.0000e+00
      0.277      0.038     5.7685     73.232    117.276 124.774646    10.2600     0.1579     0.0000     0.0846 1.5180e+02    -0.3095      0.271      0.394    28.1861 0.0000e+00
      0.285      0.029     5.7442     73.082    117.288 124.788339    10.2600     0.1770     0.0000     0.0846 1.5420e+02    -0.2189      0.279      0.406    28.1889 0.0000e+00
      0.291      0.020     5.7290     72.893    117.271 124.772689    10.2600     0.1846     0.0000     0.0846 1.5042e+02    -0.3851      0.285      0.414    28.1903 0.0000e+00
      0.295      0.012     5.7198     72.727    117.238 124.741530    10.3500     0.1694     0.0426     0.1269 1.6516e+02    -0.3246      0.289      0.420    28.1904 0.0000e+00
      0.296      0.005     5.7112     72.695    117.211 124.716565    10.3500     0.1465     0.0426     0.1269 1.6178e+02    -0.3397      0.290      0.422    28.1902 0.0000e+00
      0.296      0.000     5.6995     72.881    117.197 124.703141    10.3500     0.1656     0.0426     0.1269 1.8467e+02    -0.2793      0.290      0.421    28.1905 0.0000e+00
      0.293     -0.003     5.6846     73.267    117.190 124.693677    10.3500     0.1732     0.0426     0.1269 1.7674e+02    -0.2491      0.287      0.417    28.1917 0.0000e+00
      0.291     -0.003     5.6715     73.745    117.189 124.689650    10.2600     0.1770     0.0000     0.1269 1.9350e+02    -0.2944      0.285      0.414    28.1935 0.0000e+00
      0.289     -0.001     5.6688     74.177    117.208 124.705994    10.2600     0.1923     0.0000     0.1269 1.8734e+02    -0.2642      0.283      0.411    28.1951 0.0000e+00
      0.288      0.003     5.6833     74.434    117.243 124.739062    10.2600     0.1656     0.0000     0.1269 1.7867e+02    -0.3700      0.283      0.410    28.1956 0.0000e+00
      0.289      0.007     5.7135     74.426    117.264 124.759657    10.2600     0.1579     0.0000     0.1269 2.0061e+02    -0.2340      0.283      0.411    28.1949 0.0000e+00
      0.292      0.013     5.7509     74.155    117.258 124.751265    10.2600     0.1732     0.0426     0.0423 1.7559e+02    -0.4153      0.286      0.415    28.1934 0.0000e+00
      0.296      0.018     5.7848     73.756    117.234 124.725652    10.2600     0.1503     0.0426     0.0423 1.8102e+02    -0.3246      0.291      0.422    28.1917 0.0000e+00
      0.302      0.024     5.8050     73.455    117.217 124.706000    10.2600     0.1770     0.0426     0.0423 1.7290e+02    -0.3397      0.296      0.429    28.1901 0.0000e+00
      0.308      0.031     5.8044     73.457    117.229 124.715077    10.2600     0.1770     0.0426     0.0423 1.8616e+02    -0.4455      0.302      0.438    28.1890 0.0000e+00
      0.316      0.039     5.7834     73.826    117.269 124.751304    10.2600     0.1770     0.0426     0.0423 1.9062e+02    -0.2340      0.310      0.449    28.1885 0.0000e+00
      0.326      0.047     5.7523     74.494    117.305 124.784326    10.3500     0.1465     0.0426     0.1269 1.8419e+02    -0.2944      0.320      0.464    28.1883 0.0000e+00
      0.339      0.056     5.7289     75.335    117.316 124.794936    10.3500     0.1656     0.0426     0.1269 1.7976e+02    -0.2944      0.333      0.482    28.1877 0.0000e+00
      0.355      0.065     5.7292     76.180    117.309 124.789965    10.3500     0.1732     0.0426     0.1269 1.8714e+02    -0.2642      0.348      0.505    28.1860 0.0000e+00
      0.374      0.074     5.7583     76.860    117.298 124.780093    10.3500     0.1694     0.0426     0.1269 1.8161e+02    -0.3246      0.366      0.532    28.1835 0.0000e+00
      0.394      0.081     5.8106     77.245    117.297 124.778693    10.3500     0.1808     0.0426     0.0846 1.8893e+02    -0.3397      0.386      0.561    28.1814 0.0000e+00
      0.416      0.086     5.8762     77.265    117.308 124.789394    10.3500     0.1846     0.0426     0.0846 1.8295e+02    -0.3549      0.408      0.592    28.1809 0.0000e+00
      0.439      0.089     5.9420     76.940    117.307 124.787039    10.3500     0.1885     0.0426     0.0846 1.8665e+02    -0.3851      0.431      0.625    28.1817 0.0000e+00
      0.463      0.092     5.9950     76.387    117.286 124.762995    10.3500     0.2381     0.0426     0.0846 1.8689e+02    -0.3095      0.455      0.659    28.1825 0.0000e+00
      0.487      0.093     6.0250     75.758    117.268 124.742864    10.3500     0.2419     0.0426     0.0846 1.8074e+02    -0.3851      0.478      0.693    28.1825 0.0000e+00
      0.511      0.094     6.0266     75.155    117.280 124.753288    10.3500     0.2228     0.0426     0.0846 1.8935e+02    -0.2642      0.501      0.727    28.1821 0.0000e+00
      0.535      0.094     6.0013     74.591    117.318 124.793047    10.3500     0.2342     0.0426     0.0846 1.7848e+02    -0.3549      0.524      0.760    28.1815 0.0000e+00
      0.559      0.094     5.9582     74.030    117.353 124.830725    10.3500     0.2228     0.0426     0.0846 1.8435e+02    -0.3549      0.548      0.794    28.1809 0.0000e+00
      0.583      0.092     5.9093     73.450    117.358 124.840357    10.4400     0.2228     0.0426     0.0846 1.7479e+02    -0.4002      0.571      0.829    28.1802 0.0000e+00
      0.607      0.090     5.8623     72.876    117.328 124.816508    10.4400     0.2571     0.0426     0.0846 1.7844e+02    -0.3397      0.595      0.864    28.1794 0.0000e+00
      0.631      0.087     5.8184     72.379    117.280 124.776829    10.4400     0.2228     0.0426     0.0846 1.7832e+02    -0.3246      0.619      0.897    28.1788 0.0000e+00
      0.653      0.084     5.7746     72.034    117.236 124.740750    10.4400     0.1694     0.0426     0.0846 1.7682e+02    -0.2944      0.640      0.929    28.1792 0.0000e+00
      0.674      0.080     5.7291     71.879    117.203 124.710656    10.4400     0.1770     0.0426     0.0846 1.8110e+02    -0.2793      0.660      0.958    28.1810 0.0000e+00
      0.693      0.077     5.6840     71.884    117.188 124.694528    10.4400     0.1885     0.0426     0.1269 1.7351e+02    -0.2944      0.679      0.985    28.1847 0.0000e+00
      0.711      0.075     5.6448     71.942    117.196 124.700069    10.4400     0.1808     0.0426     0.1269 1.8184e+02    -0.2038      0.697      1.012    28.1896 0.0000e+00
      0.729      0.073     5.6175     71.921    117.219 124.720754    10.4400     0.2304     0.0426     0.1269 1.7468e+02    -0.3095      0.715      1.037    28.1938 0.0000e+00
      0.747      0.072     5.6052     71.731    117.242 124.742091    10.4400     0.2381     0.0426     0.1269 1.7887e+02    -0.2793      0.733      1.063    28.1960 0.0000e+00
      0.766      0.072     5.6056     71.340    117.247 124.745760    10.4400     0.2571     0.0426     0.0423 1.7747e+02    -0.2340      0.751      1.090    28.1960 0.0000e+00
      0.785      0.072     5.6102     70.752    117.232 124.728738    10.4400     0.2075     0.0426     0.0423 1.7544e+02    -0.3095      0.770      1.116    28.1948 0.0000e+00
      0.803      0.071     5.6087     70.003    117.218 124.714495    10.4400     0.2495     0.0426     0.0423 1.7415e+02    -0.1585      0.788      1.143    28.1932 0.0000e+00
      0.822      0.069     5.5941     69.151    117.224 124.719242    10.4400     0.2419     0.0426     0.0423 1.7298e+02    -0.0678      0.806      1.169    28.1918 0.0000e+00
      0.839      0.067     5.5636     68.263    117.238 124.732241    10.3500     0.2457     0.0426     0.1269 1.7548e+02    -0.0225      0.823      1.194    28.1910 0.0000e+00
      0.856      0.064     5.5178     67.398    117.242 124.732947    10.3500     0.2113     0.0426     0.1269 1.6934e+02    -0.0225      0.840      1.218    28.1907 0.0000e+00
      0.872      0.061     5.4594     66.610    117.227 124.713547    10.3500     0.2342     0.0426     0.1269 1.7223e+02    -0.1131      0.856      1.241    28.1907 0.0000e+00
      0.888      0.058     5.3930     65.955    117.211 124.692876    10.3500     0.2152     0.0426     0.1269 1.6729e+02    -0.0376      0.871      1.263    28.1903 0.0000e+00
      0.902      0.056     5.3238     65.485    117.222 124.701434    10.3500     0.2495     0.0426     0.1269 1.6963e+02    -0.0527      0.885      1.283    28.1893 0.0000e+00
      0.915      0.054     5.2564     65.222    117.260 124.737502    10.4400     0.2304     0.0426     0.1269 1.6860e+02     0.0228      0.898      1.301    28.1879 0.0000e+00
      0.928      0.052     5.1952     65.124    117.294 124.770683    10.4400     0.2495     0.0426     0.1269 1.6930e+02    -0.0829      0.910      1.320    28.1863 0.0000e+00
      0.941      0.052     5.1442     65.126    117.311 124.785816    10.4400     0.2266     0.0426     0.1269 1.6875e+02    -0.0527      0.923      1.338    28.1849 0.0000e+00
      0.954      0.051     5.1077     65.180    117.309 124.782935    10.4400     0.2419     0.0426     0.1269 1.6714e+02    -0.1131      0.936      1.357    28.1834 0.0000e+00
      0.968      0.050     5.0873     65.243    117.293 124.765272    10.4400     0.2228     0.0426     0.1692 1.6787e+02    -0.0376      0.949      1.377    28.1819 0.0000e+00
      0.981      0.049     5.0798     65.271    117.270 124.740123    10.4400     0.2342     0.0426     0.1692 1.6845e+02    -0.1283      0.962      1.395    28.1804 0.0000e+00
      0.993      0.048     5.0800     65.240    117.249 124.716787    10.4400     0.2533     0.0426     0.1692 1.6820e+02    -0.0376      0.974      1.413    28.1793 0.0000e+00
      1.005      0.046     5.0843     65.152    117.236 124.701046    10.4400     0.2152     0.0426     0.1692 1.6656e+02    -0.0527      0.986      1.430    28.1787 0.0000e+00
      1.017      0.044     5.0893     65.039    117.231 124.692702    10.5300     0.2113     0.0426     0.2115 1.6573e+02    -0.0980      0.997      1.446    28.1785 0.0000e+00
      1.028      0.043     5.0915     64.952    117.227 124.685530    10.5300     0.2342     0.0426     0.2115 1.6516e+02    -0.0527      1.008      1.462    28.1783 0.0000e+00
      1.038      0.041     5.0891     64.935    117.218 124.673616    10.5300     0.2571     0.0426     0.2115 1.6721e+02     0.0077      1.018      1.477    28.1777 0.0000e+00
      1.048      0.040     5.0823     64.997    117.206 124.657783    10.5300     0.1961     0.0426     0.2115 1.6616e+02    -0.1131      1.028      1.491    28.1768 0.0000e+00
      1.058      0.040     5.0736     65.128    117.201 124.649815    10.5300     0.1999     0.0426     0.1269 1.6754e+02    -0.0678      1.038      1.505    28.1757 0.0000e+00
      1.068      0.040     5.0669     65.302    117.209 124.655590    10.5300     0.2228     0.0426     0.1269 1.6444e+02     0.0228      1.048      1.519    28.1745 0.0000e+00
      1.078      0.040     5.0657     65.471    117.216 124.660642    10.5300     0.2457     0.0426     0.1269 1.6609e+02    -0.0376      1.058      1.534    28.1733 0.0000e+00
      1.088      0.040     5.0706     65.585    117.213 124.654313    10.5300     0.2419     0.0426     0.1269 1.6469e+02    -0.0376      1.068      1.548    28.1721 0.0000e+00
      1.099      0.041     5.0810     65.617    117.204 124.642919    10.5300     0.2762     0.0426     0.1269 1.6627e+02    -0.0829      1.078      1.563    28.1709 0.0000e+00
      1.109      0.041     5.0947     65.563    117.203 124.639427    10.7100     0.2495     0.0426     0.1269 1.6624e+02     0.0077      1.088      1.578    28.1697 0.0000e+00
      1.120      0.041     5.1080     65.438    117.212 124.646907    10.7100     0.2228     0.0426     0.1269 1.6476e+02     0.0530      1.099      1.593    28.1686 0.0000e+00
      1.130      0.042     5.1169     65.263    117.218 124.651348    10.7100     0.2571     0.0426     0.1269 1.6627e+02    -0.0829      1.109      1.608    28.1677 0.0000e+00
      1.141      0.042     5.1194     65.058    117.219 124.649932    10.7100     0.2381     0.0426     0.1269 1.6437e+02    -0.0074      1.119      1.623    28.1668 0.0000e+00
      1.151      0.042     5.1154     64.826    117.222 124.650285    10.8000     0.2190     0.0426     0.1692 1.6798e+02    -0.0527      1.130      1.638    28.1659 0.0000e+00
      1.162      0.042     5.1057     64.558    117.222 124.648500    10.8000     0.2190     0.0426     0.1692 1.6606e+02     0.0379      1.140      1.653    28.1650 0.0000e+00
      1.173      0.042     5.0921     64.252    117.219 124.644099    10.8000     0.2228     0.0426     0.1692 1.6743e+02    -0.0376      1.151      1.669    28.1640 0.0000e+00
      1.184      0.043     5.0762     63.914    117.217 124.639912    10.8000     0.2228     0.0426     0.1692 1.6562e+02     0.0077      1.161      1.684    28.1629 0.0000e+00
      1.195      0.043     5.0582     63.561    117.217 124.638822    10.8000     0.2381     0.0426     0.1692 1.6516e+02    -0.2038      1.172      1.700    28.1619 0.0000e+00
      1.206      0.043     5.0374     63.216    117.224 124.644541    10.8000     0.2419     0.0426     0.1692 1.6562e+02    -0.0980      1.183      1.715    28.1610 0.0000e+00
      1.217      0.043     5.0136     62.876    117.235 124.654591    10.8000     0.2419     0.0426     0.1692 1.6401e+02     0.0530      1.193      1.731    28.1602 0.0000e+00
      1.228      0.042     4.9873     62.517    117.240 124.659649    10.8000     0.2419     0.0426     0.1692 1.6426e+02    -0.0376      1.204      1.747    28.1595 0.0000e+00
      1.239      0.041     4.9598     62.140    117.235 124.653060    10.8000     0.2228     0.0426     0.1692 1.6122e+02    -0.0376      1.215      1.762    28.1589 0.0000e+00
      1.250      0.040     4.9329     61.784    117.221 124.637068    10.8000     0.2228     0.0852     0.0846 1.6249e+02    -0.0376      1.226      1.777    28.1583 0.0000e+00
      1.260      0.040     4.9064     61.498    117.208 124.623415    10.8000     0.2228     0.0852     0.0846 1.6196e+02    -0.0678      1.236      1.792    28.1578 0.0000e+00
      1.270      0.039     4.8784     61.324    117.210 124.624466    10.8000     0.2381     0.0852     0.0846 1.6423e+02     0.0681      1.245      1.806    28.1573 0.0000e+00
      1.279      0.038     4.8491     61.253    117.218 124.632498    10.8000     0.2495     0.0852     0.0846 1.6210e+02    -0.1283      1.254      1.819    28.1570 0.0000e+00
      1.288      0.038     4.8213     61.225    117.219 124.633647    10.8900     0.2152     0.0000     0.1692 1.6341e+02    -0.0376      1.263      1.832    28.1568 0.0000e+00
      1.298      0.038     4.7990     61.189    117.210 124.624218    10.8900     0.2457     0.0000     0.1692 1.5896e+02    -0.0980      1.273      1.846    28.1565 0.0000e+00
      1.308      0.038     4.7854     61.134    117.195 124.609699    10.8900     0.2304     0.0000     0.1692 1.6059e+02    -0.0678      1.282      1.860    28.1563 0.0000e+00
      1.317      0.038     4.7799     61.060    117.183 124.598223    10.8900     0.2304     0.0000     0.1692 1.5986e+02    -0.0678      1.292      1.874    28.1560 0.0000e+00
      1.327      0.039     4.7777     60.958    117.177 124.590733    10.8900     0.2457     0.0426     0.2538 1.6199e+02    -0.0980      1.301      1.888    28.1558 0.0000e+00
      1.337      0.039     4.7749     60.817    117.179 124.589230    10.8900     0.2457     0.0426     0.2538 1.5872e+02     0.0228      1.311      1.902    28.1561 0.0000e+00
      1.347      0.039     4.7706     60.630    117.188 124.593316    10.8900     0.2228     0.0426     0.2538 1.6031e+02     0.0077      1.321      1.916    28.1568 0.0000e+00
      1.357      0.039     4.7648     60.406    117.190 124.588073    10.8900     0.2228     0.0426     0.2538 1.5827e+02    -0.0527      1.331      1.930    28.1572 0.0000e+00
      1.367      0.039     4.7569     60.192    117.173 124.560098    10.8900     0.2304     0.0426     0.1692 1.5955e+02     0.0530      1.340      1.944    28.1568 0.0000e+00
      1.377      0.040     4.7461     60.067    117.139 124.509935    10.8900     0.2495     0.0426     0.1692 1.5865e+02    -0.0527      1.350      1.959    28.1553 0.0000e+00
      1.387      0.041     4.7317     60.139    117.093 124.440211    10.8900     0.2495     0.0426     0.1692 1.5892e+02     0.0077      1.360      1.973    28.1530 0.0000e+00
      1.397      0.043     4.7145     60.554    117.039 124.348341    10.8900     0.2457     0.0426     0.1692 1.5704e+02    -0.0074      1.370      1.987    28.1498 0.0000e+00
      1.407      0.045     4.6983     61.514    116.967 124.217827    10.8900     0.3220     0.0426     0.1692 1.5751e+02    -0.0527      1.380      2.002    28.1455 0.0000e+00
      1.418      0.049     4.6892     63.284    116.857 124.013866    10.8900     0.2648     0.0000     0.0846 1.5765e+02    -0.0376      1.391      2.018    28.1395 0.0000e+00
      1.431      0.053     4.6959     66.221    116.719 123.724082    10.8900     0.3220     0.0000     0.0846 1.5551e+02    -0.0074      1.403      2.035    28.1304 0.0000e+00
      1.445      0.057     4.7300     70.864    116.638 123.423245    10.8900     0.2838     0.0000     0.0846 1.5673e+02     0.0228      1.417      2.055    28.1160 0.0000e+00
      1.461      0.060     4.8077     77.710    116.682 123.205175    10.8900     0.2152     0.0000     0.0846 1.5333e+02    -0.0074      1.433      2.078    28.0928 0.0000e+00
      1.478      0.061     4.9503     86.557    116.800 123.075715    10.8000     0.2381     0.0426     0.1269 1.5369e+02    -0.1283      1.449      2.102    28.0552 0.0000e+00
      1.495      0.060     5.1870     96.313    116.922 123.000325    10.8000     0.2228     0.0426     0.1269 1.5184e+02    -0.0376      1.466      2.127    27.9940 0.0000e+00
      1.511      0.057     5.5610    105.631    117.018 122.954890    10.8000     0.2075     0.0426     0.1269 1.5313e+02    -0.1131      1.482      2.150    27.9021 0.0000e+00
      1.525      0.052     6.1109    113.473    117.086 122.927287    10.8000     0.2762     0.0426     0.1269 1.5131e+02    -0.0678      1.496      2.170    27.7892 0.0000e+00
      1.538      0.048     6.8190    119.223    117.123 122.902153    10.8000     0.3220     0.0426     0.2538 1.5174e+02    -0.0678      1.508      2.187    27.6802 0.0000e+00
      1.548      0.044     7.5978    122.620    117.133 122.872783    10.8000     0.2876     0.0426     0.2538 1.5121e+02    -0.0527      1.519      2.203    27.5931 0.0000e+00
      1.558      0.042     8.3401    123.693    117.141 122.855351    10.8000     0.2953     0.0426     0.2538 1.5141e+02    -0.0980      1.528      2.217    27.5305 0.0000e+00
      1.568      0.041     8.9642    122.793    117.139 122.837206    10.8000     0.2495     0.0426     0.2538 1.5210e+02    -0.0527      1.537      2.230    27.4883 0.0000e+00
      1.577      0.041     9.4217    120.600    117.129 122.815512    10.8000     0.2381     0.0426     0.2538 1.5193e+02    -0.0074      1.547      2.244    27.4609 0.0000e+00
      1.588      0.042     9.6921    117.898    117.139 122.818491    10.8000     0.2113     0.0426     0.2538 1.5170e+02    -0.0980      1.557      2.259    27.4435 0.0000e+00
      1.599      0.042     9.7782    115.269    117.161 122.836934    10.8000     0.2304     0.0426     0.2538 1.5108e+02     0.0077      1.568      2.274    27.4325 0.0000e+00
      1.611      0.042     9.7079    112.992    117.172 122.845753    10.8000     0.2609     0.0426     0.2538 1.5072e+02    -0.0225      1.579      2.291    27.4255 0.0000e+00
      1.622      0.041     9.5350    111.138    117.164 122.835295    10.8000     0.2304     0.0426     0.2538 1.5141e+02    -0.0376      1.591      2.307    27.4208 0.0000e+00
      1.632      0.038     9.3217    109.676    117.146 122.814774    10.8000     0.2686     0.0426     0.1269 1.5062e+02    -0.1585      1.601      2.322    27.4178 0.0000e+00
      1.642      0.035     9.1141    108.544    117.143 122.810727    10.8000     0.2495     0.0426     0.1269 1.5068e+02    -0.1283      1.610      2.336    27.4158 0.0000e+00
      1.651      0.032     8.9342    107.674    117.155 122.822076    10.8000     0.2991     0.0426     0.1269 1.5062e+02    -0.1283      1.619      2.348    27.4144 0.0000e+00
      1.658      0.028     8.7877    107.008    117.161 122.827839    10.8000     0.2953     0.0426     0.1269 1.5036e+02    -0.0980      1.626      2.358    27.4135 0.0000e+00
      1.664      0.025     8.6723    106.511    117.163 122.829553    10.8000     0.3067     0.0000     0.0846 1.5036e+02     0.0379      1.632      2.367    27.4129 0.0000e+00
      1.670      0.023     8.5828    106.167    117.169 122.835678    10.8000     0.3143     0.0000     0.0846 1.4990e+02    -0.0980      1.637      2.375    27.4125 0.0000e+00
      1.675      0.023     8.5140    105.951    117.174 122.839846    10.8000     0.2991     0.0000     0.0846 1.5042e+02    -0.0980      1.642      2.382    27.4122 0.0000e+00
      1.680      0.023     8.4614    105.832    117.173 122.839165    10.8000     0.2953     0.0000     0.0846 1.4990e+02     0.0077      1.648      2.390    27.4120 0.0000e+00
      1.685      0.024     8.4221    105.771    117.172 122.837457    10.8000     0.3029     0.0426     0.1269 1.5019e+02    -0.0678      1.653      2.397    27.4118 0.0000e+00
      1.691      0.027     8.3949    105.727    117.161 122.826262    10.8000     0.2991     0.0426     0.1269 1.4948e+02    -0.0980      1.659      2.406    27.4115 0.0000e+00
      1.698      0.032     8.3778    105.689    117.143 122.806596    10.8000     0.2991     0.0426     0.1269 1.5013e+02    -0.0527      1.665      2.416    27.4113 0.0000e+00
      1.706      0.037     8.3684    105.676    117.134 122.797223    10.8000     0.2838     0.0426     0.1269 1.4883e+02    -0.0376      1.673      2.427    27.4112 0.0000e+00
      1.716      0.044     8.3637    105.687    117.134 122.795643    10.8000     0.2648     0.0426     0.1269 1.4984e+02    -0.0074      1.683      2.440    27.4110 0.0000e+00
      1.728      0.051     8.3602    105.708    117.134 122.793431    10.8000     0.2991     0.0426     0.2115 1.4922e+02    -0.0376      1.694      2.457    27.4109 0.0000e+00
      1.742      0.058     8.3573    105.733    117.134 122.789998    10.8000     0.2419     0.0426     0.2115 1.4961e+02     0.0228      1.708      2.477    27.4108 0.0000e+00
      1.758      0.065     8.3563    105.757    117.122 122.772425    10.8000     0.2571     0.0426     0.2115 1.4945e+02    -0.0980      1.724      2.501    27.4105 0.0000e+00
      1.776      0.070     8.3572    105.783    117.100 122.744027    10.8000     0.2152     0.0426     0.2115 1.5016e+02    -0.0376      1.742      2.527    27.4100 0.0000e+00
      1.796      0.074     8.3590    105.809    117.092 122.731241    10.8000     0.2457     0.0426     0.1692 1.5154e+02    -0.0527      1.761      2.554    27.4089 0.0000e+00
      1.816      0.075     8.3612    105.826    117.105 122.740659    10.8000     0.2991     0.0426     0.1692 1.5193e+02    -0.0376      1.781      2.583    27.4074 0.0000e+00
      1.836      0.075     8.3635    105.824    117.117 122.748786    10.8000     0.2724     0.0426     0.1692 1.5256e+02    -0.1585      1.801      2.611    27.4056 0.0000e+00
      1.856      0.073     8.3658    105.796    117.129 122.757789    10.8000     0.2991     0.0426     0.1692 1.5306e+02     0.0077      1.820      2.640    27.4035 0.0000e+00
      1.875      0.069     8.3682    105.733    117.156 122.784071    10.8900     0.2724     0.0426     0.2115 1.5336e+02    -0.0678      1.839      2.667    27.4014 0.0000e+00
      1.893      0.065     8.3698    105.639    117.173 122.800633    10.8900     0.2876     0.0426     0.2115 1.5420e+02    -0.0980      1.856      2.692    27.3994 0.0000e+00
      1.908      0.060     8.3699    105.529    117.160 122.785882    10.8900     0.2876     0.0426     0.2115 1.5450e+02    -0.0980      1.871      2.714    27.3977 0.0000e+00
      1.923      0.055     8.3678    105.418    117.139 122.763894    10.8900     0.2648     0.0426     0.2115 1.5413e+02    -0.0980      1.885      2.734    27.3963 0.0000e+00
      1.935      0.051     8.3630    105.336    117.121 122.744809    10.8900     0.2838     0.0426     0.2115 1.5450e+02    -0.0376      1.898      2.753    27.3954 0.0000e+00
      1.947      0.047     8.3557    105.313    117.090 122.711534    10.7100     0.3029     0.0000     0.0846 1.5433e+02     0.1739      1.909      2.769    27.3949 0.0000e+00
      1.958      0.045     8.3470    105.340    117.058 122.677203    10.7100     0.2991     0.0000     0.0846 1.5446e+02     0.2192      1.920      2.785    27.3946 0.0000e+00
      1.969      0.044     8.3382    105.378    117.044 122.662669    10.7100     0.3105     0.0000     0.0846 1.5487e+02     0.1286      1.931      2.801    27.3944 0.0000e+00
      1.980      0.043     8.3318    105.390    117.029 122.646051    10.7100     0.3182     0.0000     0.0846 1.5463e+02     0.2192      1.942      2.817    27.3941 0.0000e+00
      1.991      0.042     8.3300    105.365    116.992 122.606914    10.8000     0.3029     0.0000     0.1269 1.5510e+02     0.1739      1.953      2.832    27.3939 0.0000e+00
      2.002      0.042     8.3322    105.310    116.954 122.566828    10.8000     0.2953     0.0000     0.1269 1.5500e+02     0.1286      1.963      2.847    27.3937 0.0000e+00
      2.012      0.041     8.3352    105.228    116.933 122.545114    10.8000     0.3067     0.0000     0.1269 1.5622e+02     0.1890      1.973      2.862    27.3935 0.0000e+00
      2.023      0.042     8.3362    105.111    116.936 122.547982    10.8000     0.3029     0.0000     0.1269 1.5571e+02     0.2343      1.983      2.877    27.3933 0.0000e+00
      2.033      0.042     8.3343    104.967    116.962 122.574198    10.8000     0.2915     0.0426     0.1692 1.5524e+02     0.1437      1.993      2.892    27.3932 0.0000e+00
      2.044      0.043     8.3299    104.826    116.989 122.602745    10.8000     0.2876     0.0426     0.1692 1.5568e+02     0.2192      2.004      2.907    27.3931 0.0000e+00
      2.055      0.044     8.3234    104.714    117.012 122.627231    10.8000     0.2991     0.0426     0.1692 1.5598e+02     0.1890      2.015      2.923    27.3930 0.0000e+00
      2.066      0.045     8.3142    104.626    117.030 122.646185    10.8000     0.2838     0.0426     0.1692 1.5663e+02     0.2494      2.027      2.939    27.3929 0.0000e+00
      2.078      0.048     8.3029    104.542    117.046 122.662660    10.8000     0.2724     0.0852     0.0846 1.5680e+02     0.1286      2.038      2.956    27.3928 0.0000e+00
      2.090      0.051     8.2917    104.460    117.082 122.699055    10.8000     0.3105     0.0852     0.0846 1.5605e+02     0.2343      2.049      2.972    27.3928 0.0000e+00
      2.102      0.054     8.2828    104.400    117.110 122.727063    10.8000     0.3067     0.0852     0.0846 1.5591e+02     0.1588      2.062      2.990    27.3928 0.0000e+00
      2.116      0.058     8.2759    104.382    117.098 122.712142    10.8000     0.3067     0.0852     0.0846 1.5690e+02     0.1890      2.076      3.010    27.3927 0.0000e+00
      2.132      0.061     8.2692    104.413    117.068 122.678321    10.8000     0.3067     0.0852     0.0846 1.5913e+02     0.1286      2.091      3.033    27.3925 0.0000e+00
      2.149      0.064     8.2628    104.473    117.034 122.640587    10.8900     0.2953     0.0426     0.2115 1.5913e+02     0.1588      2.108      3.057    27.3921 0.0000e+00
      2.166      0.065     8.2582    104.517    117.008 122.610883    10.8900     0.2991     0.0426     0.2115 1.5917e+02     0.1588      2.125      3.081    27.3915 0.0000e+00
      2.184      0.066     8.2569    104.522    116.999 122.599293    10.8900     0.3067     0.0426     0.2115 1.5948e+02     0.1437      2.142      3.106    27.3907 0.0000e+00
      2.201      0.065     8.2595    104.506    116.992 122.590724    10.8900     0.2991     0.0426     0.2115 1.6171e+02     0.2192      2.159      3.131    27.3898 0.0000e+00
      2.218      0.064     8.2644    104.502    116.978 122.574888    10.8000     0.2838     0.0852     0.1269 1.6199e+02     0.1588      2.175      3.155    27.3888 0.0000e+00
      2.234      0.063     8.2681    104.529    116.952 122.545562    10.8000     0.2800     0.0852     0.1269 1.6104e+02     0.2192      2.191      3.177    27.3878 0.0000e+00
      2.249      0.063     8.2685    104.593    116.922 122.510928    10.8000     0.2876     0.0852     0.1269 1.6045e+02     0.2645      2.205      3.199    27.3869 0.0000e+00
      2.264      0.063     8.2674    104.678    116.901 122.485758    10.8000     0.3639     0.0852     0.1269 1.6122e+02     0.2494      2.220      3.220    27.3862 0.0000e+00
      2.280      0.065     8.2672    104.758    116.898 122.477344    10.9800     0.3563     0.0426     0.2538 1.6115e+02     0.2796      2.236      3.243    27.3855 0.0000e+00
      2.297      0.067     8.2694    104.810    116.917 122.491444    10.9800     0.3372     0.0426     0.2538 1.6125e+02     0.2494      2.252      3.267    27.3846 0.0000e+00
      2.314      0.069     8.2747    104.808    116.939 122.505810    10.9800     0.3601     0.0426     0.2538 1.6136e+02     0.1286      2.269      3.291    27.3834 0.0000e+00
      2.332      0.070     8.2816    104.730    116.936 122.492265    10.9800     0.3601     0.0426     0.2538 1.6238e+02     0.2343      2.287      3.317    27.3819 0.0000e+00
      2.350      0.071     8.2882    104.578    116.937 122.479204    11.0700     0.3639     0.0852     0.1692 1.6487e+02     0.0832      2.305      3.343    27.3799 0.0000e+00
      2.369      0.071     8.2927    104.388    116.969 122.497152    11.0700     0.3563     0.0852     0.1692 1.6649e+02     0.2645      2.323      3.370    27.3773 0.0000e+00
      2.388      0.070     8.2931    104.220    117.001 122.514886    11.0700     0.3411     0.0852     0.1692 1.6798e+02     0.1286      2.342      3.397    27.3737 0.0000e+00
      2.407      0.068     8.2876    104.117    117.001 122.501123    11.0700     0.3639     0.0852     0.1692 1.6714e+02     0.1437      2.360      3.423    27.3690 0.0000e+00
      2.424      0.065     8.2764    104.086    116.978 122.464196    11.0700     0.3449     0.0852     0.1692 1.6875e+02     0.1437      2.377      3.447    27.3631 0.0000e+00
      2.440      0.062     8.2624    104.114    116.958 122.428267    11.1600     0.3639     0.1278     0.1269 1.6791e+02     0.1286      2.392      3.470    27.3565 0.0000e+00
      2.454      0.060     8.2501    104.199    116.948 122.401758    11.1600     0.3601     0.1278     0.1269 1.6736e+02     0.2041      2.407      3.491    27.3499 0.0000e+00
      2.469      0.058     8.2428    104.351    116.959 122.397606    11.1600     0.3792     0.1278     0.1269 1.6915e+02     0.2494      2.421      3.511    27.3440 0.0000e+00
      2.483      0.057     8.2412    104.553    116.991 122.416702    11.1600     0.3601     0.1278     0.1269 1.6985e+02     0.1286      2.435      3.532    27.3383 0.0000e+00
      2.498      0.057     8.2443    104.764    117.001 122.416124    11.1600     0.3487     0.0426     0.1692 1.7063e+02     0.1890      2.450      3.553    27.3320 0.0000e+00
      2.513      0.056     8.2521    104.933    116.979 122.383715    11.1600     0.3830     0.0426     0.1692 1.7074e+02     0.0983      2.464      3.574    27.3250 0.0000e+00
      2.527      0.056     8.2650    105.031    116.965 122.362847    11.1600     0.3487     0.0426     0.1692 1.7118e+02     0.2192      2.478      3.594    27.3182 0.0000e+00
      2.541      0.056     8.2820    105.062    116.978 122.369959    11.1600     0.3601     0.0426     0.1692 1.7178e+02     0.1134      2.491      3.613    27.3123 0.0000e+00
      2.554      0.056     8.2994    105.044    116.993 122.378941    11.0700     0.3449     0.0426     0.1692 1.7118e+02     0.2041      2.505      3.633    27.3075 0.0000e+00
      2.568      0.056     8.3133    104.989    117.008 122.388187    11.0700     0.3639     0.0426     0.1692 1.7159e+02     0.2947      2.518      3.653    27.3037 0.0000e+00
      2.583      0.057     8.3215    104.903    117.025 122.400162    11.0700     0.3792     0.0426     0.1692 1.7208e+02     0.1134      2.533      3.673    27.3007 0.0000e+00
      2.598      0.057     8.3244    104.793    117.035 122.406055    11.0700     0.3449     0.0426     0.1692 1.7309e+02     0.1286      2.547      3.695    27.2979 0.0000e+00
      2.613      0.056     8.3234    104.677    117.044 122.411439    11.0700     0.3563     0.0426     0.1692 1.7321e+02     0.1890      2.562      3.717    27.2951 0.0000e+00
      2.628      0.055     8.3195    104.588    117.049 122.413749    11.1600     0.3868     0.0426     0.1269 1.7358e+02     0.1739      2.577      3.737    27.2923 0.0000e+00
      2.642      0.052     8.3130    104.553    117.050 122.413600    11.1600     0.3563     0.0426     0.1269 1.7354e+02     0.1437      2.590      3.757    27.2899 0.0000e+00
      2.655      0.050     8.3046    104.564    117.049 122.410952    11.1600     0.3372     0.0426     0.1269 1.7381e+02     0.2494      2.603      3.775    27.2880 0.0000e+00
      2.667      0.048     8.2956    104.602    117.029 122.389095    11.1600     0.3563     0.0426     0.1269 1.7419e+02     0.1588      2.615      3.793    27.2865 0.0000e+00
      2.678      0.047     8.2888    104.652    116.992 122.350204    11.0700     0.3296     0.0426     0.2115 1.7381e+02     0.1286      2.626      3.809    27.2853 0.0000e+00
      2.689      0.047     8.2861    104.696    116.972 122.329918    11.0700     0.3754     0.0426     0.2115 1.7366e+02     0.1437      2.637      3.825    27.2844 0.0000e+00
      2.700      0.049     8.2870    104.711    116.987 122.344833    11.0700     0.3678     0.0426     0.2115 1.7449e+02     0.2343      2.648      3.840    27.2839 0.0000e+00
      2.712      0.053     8.2901    104.672    117.008 122.364919    11.0700     0.3487     0.0426     0.2115 1.7381e+02     0.2041      2.659      3.857    27.2836 0.0000e+00
      2.725      0.058     8.2941    104.582    117.005 122.359522    11.1600     0.3525     0.0000     0.1692 1.7434e+02     0.2947      2.672      3.876    27.2835 0.0000e+00
      2.740      0.065     8.2975    104.478    116.975 122.325203    11.1600     0.3449     0.0000     0.1692 1.7502e+02     0.1890      2.687      3.897    27.2835 0.0000e+00
      2.757      0.074     8.2987    104.403    116.946 122.290818    11.1600     0.3563     0.0000     0.1692 1.7567e+02     0.1588      2.704      3.921    27.2833 0.0000e+00
      2.777      0.082     8.2958    104.360    116.944 122.285209    11.1600     0.3945     0.0000     0.1692 1.7670e+02     0.1286      2.723      3.950    27.2828 0.0000e+00
      2.800      0.089     8.2888    104.319    116.957 122.294875    11.1600     0.3449     0.0426     0.0846 1.7867e+02     0.0530      2.745      3.982    27.2818 0.0000e+00
      2.824      0.095     8.2807    104.267    116.951 122.286386    11.1600     0.3563     0.0426     0.0846 1.7953e+02     0.1588      2.770      4.017    27.2804 0.0000e+00
      2.850      0.098     8.2751    104.216    116.938 122.269480    11.1600     0.4250     0.0426     0.0846 1.8113e+02     0.0832      2.795      4.054    27.2787 0.0000e+00
      2.877      0.099     8.2719    104.181    116.946 122.275657    11.1600     0.4212     0.0426     0.0846 1.8423e+02     0.1588      2.822      4.092    27.2771 0.0000e+00
      2.904      0.097     8.2689    104.160    116.967 122.294563    11.1600     0.4135     0.0426     0.0846 1.8519e+02     0.2494      2.848      4.130    27.2757 0.0000e+00
      2.929      0.094     8.2649    104.145    116.982 122.307232    11.2500     0.4021     0.0426     0.0846 1.8637e+02     0.2947      2.872      4.166    27.2744 0.0000e+00
      2.952      0.090     8.2611    104.140    116.983 122.305040    11.2500     0.4822     0.0426     0.0846 1.8750e+02     0.4156      2.895      4.199    27.2733 0.0000e+00
      2.974      0.085     8.2584    104.156    116.963 122.279399    11.2500     0.4822     0.0426     0.0846 1.8922e+02     0.4307      2.917      4.231    27.2722 0.0000e+00
      2.995      0.079     8.2570    104.192    116.937 122.247479    11.2500     0.4936     0.0426     0.0846 1.9013e+02     0.4005      2.937      4.260    27.2711 0.0000e+00
      3.015      0.074     8.2560    104.223    116.919 122.224771    11.1600     0.4822     0.0426     0.2115 1.9100e+02     0.4609      2.956      4.288    27.2698 0.0000e+00
      3.033      0.069     8.2558    104.230    116.895 122.197220    11.1600     0.5280     0.0426     0.2115 1.9313e+02     0.4156      2.975      4.315    27.2682 0.0000e+00
      3.051      0.065     8.2573    104.205    116.852 122.149476    11.1600     0.5356     0.0426     0.2115 1.9447e+02     0.3249      2.992      4.340    27.2662 0.0000e+00
      3.066      0.061     8.2604    104.164    116.803 122.094814    11.1600     0.5356     0.0426     0.2115 1.9300e+02     0.4005      3.007      4.362    27.2642 0.0000e+00
      3.081      0.059     8.2632    104.129    116.791 122.078672    11.3400     0.5394     0.0426     0.1692 1.9304e+02     0.4911      3.021      4.382    27.2626 0.0000e+00
      3.094      0.057     8.2639    104.102    116.816 122.100745    11.3400     0.5127     0.0426     0.1692 1.9553e+02     0.3552      3.034      4.401    27.2613 0.0000e+00
      3.108      0.057     8.2621    104.065    116.826 122.106905    11.3400     0.5356     0.0426     0.1692 1.9515e+02     0.3400      3.048      4.421    27.2602 0.0000e+00
      3.123      0.057     8.2590    104.015    116.809 122.084792    11.3400     0.5280     0.0426     0.1692 1.9596e+02     0.4458      3.062      4.442    27.2589 0.0000e+00
      3.138      0.058     8.2565    103.975    116.799 122.070518    11.3400     0.5318     0.0426     0.1692 1.9541e+02     0.3854      3.077      4.463    27.2573 0.0000e+00
      3.153      0.059     8.2546    103.955    116.814 122.082282    11.3400     0.5356     0.0852     0.1269 1.9801e+02     0.4760      3.092      4.485    27.2555 0.0000e+00
      3.168      0.061     8.2519    103.947    116.837 122.101216    11.3400     0.5356     0.0852     0.1269 1.9502e+02     0.3854      3.107      4.506    27.2536 0.0000e+00
      3.184      0.062     8.2483    103.944    116.855 122.114364    11.3400     0.5089     0.0852     0.1269 1.9914e+02     0.4911      3.122      4.528    27.2518 0.0000e+00
      3.199      0.064     8.2453    103.933    116.872 122.125233    11.3400     0.5318     0.0852     0.1269 1.9737e+02     0.3854      3.137      4.551    27.2501 0.0000e+00
      3.216      0.066     8.2440    103.901    116.887 122.132719    11.5200     0.5356     0.0426     0.2538 1.9609e+02     0.4609      3.153      4.574    27.2484 0.0000e+00
      3.233      0.067     8.2437    103.839    116.892 122.130815    11.5200     0.5432     0.0426     0.2538 1.9801e+02     0.4458      3.170      4.599    27.2463 0.0000e+00
      3.252      0.067     8.2438    103.759    116.890 122.123015    11.5200     0.5509     0.0426     0.2538 1.9776e+02     0.3098      3.188      4.625    27.2438 0.0000e+00
      3.270      0.066     8.2434    103.690    116.899 122.127244    11.5200     0.5661     0.0426     0.2538 1.9905e+02     0.4911      3.206      4.651    27.2408 0.0000e+00
      3.287      0.064     8.2413    103.648    116.925 122.148629    11.6100     0.5623     0.0852     0.1692 1.9892e+02     0.4156      3.223      4.675    27.2376 0.0000e+00
      3.303      0.061     8.2368    103.621    116.938 122.156864    11.6100     0.5890     0.0852     0.1692 2.0013e+02     0.3854      3.239      4.698    27.2345 0.0000e+00
      3.318      0.058     8.2309    103.588    116.917 122.130139    11.6100     0.5928     0.0852     0.1692 2.0201e+02     0.4760      3.254      4.720    27.2319 0.0000e+00
      3.333      0.054     8.2257    103.527    116.879 122.085332    11.6100     0.6005     0.0852     0.1692 2.0520e+02     0.5062      3.268      4.741    27.2296 0.0000e+00
      3.346      0.050     8.2227    103.409    116.841 122.040502    11.6100     0.5547     0.0426     0.1692 2.0893e+02     0.7479      3.281      4.760    27.2273 0.0000e+00
      3.358      0.045     8.2209    103.232    116.809 122.003700    11.6100     0.5814     0.0426     0.1692 2.0681e+02     0.6120      3.293      4.777    27.2250 0.0000e+00
      3.370      0.041     8.2187    103.034    116.785 121.975114    11.6100     0.5814     0.0426     0.1692 2.0861e+02     0.6271      3.304      4.793    27.2227 0.0000e+00
      3.380      0.035     8.2141    102.849    116.774 121.963124    11.6100     0.5585     0.0426     0.1692 2.1703e+02     0.7177      3.314      4.807    27.2206 0.0000e+00
      3.388      0.030     8.2050    102.698    116.776 121.966534    11.6100     0.6577     0.0426     0.1692 2.1553e+02     0.6271      3.323      4.820    27.2187 0.0000e+00
      3.395      0.025     8.1913    102.593    116.773 121.964248    11.7000     0.6653     0.0000     0.2961 2.2007e+02     0.6724      3.329      4.829    27.2170 0.0000e+00
      3.400      0.022     8.1758    102.542    116.770 121.961657    11.7000     0.6386     0.0000     0.2961 2.1750e+02     0.6573      3.334      4.836    27.2158 0.0000e+00
      3.404      0.020     8.1612    102.544    116.790 121.980078    11.7000     0.6310     0.0000     0.2961 2.2296e+02     0.5817      3.338      4.842    27.2154 0.0000e+00
      3.407      0.019     8.1491    102.579    116.830 122.018419    11.7000     0.5776     0.0000     0.2961 2.1590e+02     0.7177      3.341      4.846    27.2157 0.0000e+00
      3.411      0.019     8.1407    102.633    116.860 122.046896    11.7000     0.5852     0.0426     0.2538 2.2108e+02     0.6271      3.345      4.852    27.2162 0.0000e+00
      3.417      0.019     8.1367    102.701    116.871 122.055097    11.7000     0.5623     0.0426     0.2538 2.3839e+02     0.6271      3.351      4.860    27.2163 0.0000e+00
      3.423      0.020     8.1369    102.779    116.863 122.045209    11.7000     0.5776     0.0426     0.2538 2.2276e+02     0.6422      3.357      4.868    27.2156 0.0000e+00
      3.428      0.021     8.1399    102.858    116.842 122.020597    11.7000     0.6615     0.0426     0.2538 2.2369e+02     0.7177      3.362      4.876    27.2141 0.0000e+00
      3.433      0.023     8.1443    102.945    116.830 122.004706    11.7900     0.6462     0.0852     0.2538 2.2108e+02     0.6724      3.367      4.883    27.2125 0.0000e+00
      3.438      0.025     8.1499    103.041    116.827 121.997297    11.7900     0.6386     0.0852     0.2538 2.2850e+02     0.6724      3.371      4.890    27.2113 0.0000e+00
      3.443      0.027     8.1562    103.140    116.825 121.990394    11.7900     0.6653     0.0852     0.2538 2.1656e+02     0.6875      3.377      4.898    27.2105 0.0000e+00
      3.451      0.031     8.1627    103.228    116.831 121.992159    11.7900     0.6462     0.0852     0.2538 2.3546e+02     0.6120      3.384      4.908    27.2096 0.0000e+00
      3.460      0.034     8.1697    103.283    116.845 122.001061    11.7900     0.6500     0.0852     0.2538 2.1897e+02     0.6271      3.393      4.921    27.2083 0.0000e+00
      3.470      0.038     8.1776    103.282    116.848 121.999468    11.7900     0.6424     0.0426     0.2115 2.2588e+02     0.6875      3.402      4.935    27.2064 0.0000e+00
      3.480      0.041     8.1857    103.225    116.830 121.974953    11.7900     0.6462     0.0426     0.2115 2.3849e+02     0.6422      3.413      4.950    27.2043 0.0000e+00
      3.491      0.043     8.1931    103.133    116.808 121.944985    11.7900     0.6996     0.0426     0.2115 2.1935e+02     0.6120      3.423      4.965    27.2021 0.0000e+00
      3.502      0.045     8.1978    103.019    116.798 121.927577    11.7900     0.7073     0.0426     0.2115 2.3004e+02     0.5817      3.434      4.981    27.1999 0.0000e+00
      3.514      0.046     8.1981    102.879    116.799 121.922087    11.8800     0.7073     0.0426     0.1692 2.3500e+02     0.7177      3.445      4.997    27.1976 0.0000e+00
      3.526      0.047     8.1939    102.714    116.822 121.939055    11.8800     0.6996     0.0426     0.1692 2.2890e+02     0.7177      3.458      5.015    27.1952 0.0000e+00
      3.539      0.047     8.1869    102.558    116.868 121.981005    11.8800     0.7073     0.0426     0.1692 2.2398e+02     0.6724      3.470      5.033    27.1925 0.0000e+00
      3.552      0.046     8.1784    102.456    116.894 122.003108    11.8800     0.6882     0.0426     0.1692 2.2954e+02     0.6875      3.483      5.052    27.1896 0.0000e+00
      3.564      0.044     8.1678    102.421    116.866 121.969248    11.9700     0.6806     0.0852     0.2961 2.2185e+02     0.6422      3.495      5.068    27.1865 0.0000e+00
      3.574      0.041     8.1550    102.431    116.815 121.912406    11.9700     0.6920     0.0852     0.2961 2.2417e+02     0.6120      3.505      5.084    27.1836 0.0000e+00
      3.584      0.039     8.1430    102.441    116.789 121.881439    11.9700     0.7111     0.0852     0.2961 2.3286e+02     0.6271      3.515      5.098    27.1811 0.0000e+00
      3.593      0.038     8.1352    102.420    116.789 121.878093    11.9700     0.6806     0.0852     0.2961 2.2170e+02     0.7177      3.524      5.111    27.1789 0.0000e+00
      3.602      0.037     8.1328    102.391    116.792 121.877470    12.0600     0.7149     0.0852     0.0846 2.3105e+02     0.6724      3.533      5.123    27.1771 0.0000e+00
      3.611      0.036     8.1338    102.391    116.798 121.879401    12.0600     0.6920     0.0852     0.0846 2.2925e+02     0.6422      3.541      5.136    27.1754 0.0000e+00
      3.620      0.036     8.1348    102.423    116.818 121.896406    12.0600     0.7530     0.0852     0.0846 2.3286e+02     0.6120      3.550      5.149    27.1737 0.0000e+00
      3.630      0.035     8.1334    102.470    116.840 121.915015    12.0600     0.7492     0.0852     0.0846 2.2810e+02     0.7177      3.560      5.163    27.1722 0.0000e+00
      3.639      0.034     8.1313    102.515    116.841 121.912183    12.0600     0.7645     0.0852     0.0846 2.3398e+02     0.7630      3.569      5.176    27.1705 0.0000e+00
      3.648      0.033     8.1315    102.549    116.809 121.873151    12.0600     0.7530     0.0426     0.1269 2.3648e+02     0.7479      3.578      5.189    27.1687 0.0000e+00
      3.656      0.031     8.1343    102.569    116.752 121.809516    12.0600     0.7721     0.0426     0.1269 2.3428e+02     0.8386      3.586      5.201    27.1670 0.0000e+00
      3.664      0.028     8.1383    102.570    116.705 121.756320    12.0600     0.7645     0.0426     0.1269 2.3387e+02     0.9745      3.593      5.211    27.1653 0.0000e+00
      3.671      0.026     8.1421    102.551    116.680 121.725384    12.0600     0.7607     0.0426     0.1269 2.3653e+02     0.9292      3.600      5.221    27.1634 0.0000e+00
      3.677      0.024     8.1451    102.524    116.669 121.708458    12.0600     0.7416     0.0426     0.2961 2.3896e+02     0.8990      3.606      5.230    27.1613 0.0000e+00
      3.683      0.022     8.1470    102.508    116.671 121.705029    12.0600     0.7683     0.0426     0.2961 2.3927e+02     0.8386      3.611      5.238    27.1593 0.0000e+00
      3.688      0.021     8.1475    102.500    116.684 121.714182    12.0600     0.7759     0.0426     0.2961 2.3408e+02     1.0652      3.617      5.245    27.1574 0.0000e+00
      3.693      0.020     8.1462    102.496    116.702 121.730355    12.0600     0.7530     0.0426     0.2961 2.4806e+02     0.8990      3.622      5.253    27.1554 0.0000e+00
      3.698      0.019     8.1444    102.509    116.727 121.753861    12.1500     0.7721     0.0426     0.2961 2.3917e+02     0.8839      3.626      5.259    27.1531 0.0000e+00
      3.702      0.020     8.1434    102.552    116.753 121.778964    12.1500     0.7645     0.0426     0.2961 2.3648e+02     0.8688      3.631      5.265    27.1509 0.0000e+00
      3.706      0.021     8.1431    102.625    116.772 121.796357    12.1500     0.7721     0.0426     0.2961 2.4469e+02     0.9292      3.635      5.272    27.1490 0.0000e+00
      3.712      0.024     8.1429    102.715    116.785 121.806675    12.1500     0.7340     0.0426     0.2961 2.3958e+02     0.9443      3.640      5.279    27.1477 0.0000e+00
      3.718      0.027     8.1441    102.804    116.795 121.812669    12.1500     0.7645     0.0426     0.2961 2.3886e+02     0.9443      3.646      5.288    27.1468 0.0000e+00
      3.725      0.032     8.1476    102.884    116.807 121.819940    12.0600     0.7569     0.0852     0.1692 2.3592e+02     1.0047      3.653      5.298    27.1459 0.0000e+00
      3.733      0.038     8.1536    102.951    116.815 121.820424    12.0600     0.7569     0.0852     0.1692 2.3561e+02     0.8839      3.661      5.309    27.1447 0.0000e+00
      3.743      0.045     8.1610    102.994    116.806 121.800245    12.0600     0.7378     0.0852     0.1692 2.3772e+02     0.9443      3.670      5.323    27.1432 0.0000e+00
      3.755      0.052     8.1684    102.998    116.792 121.772026    12.0600     0.7797     0.0852     0.1692 2.3772e+02     0.9745      3.682      5.340    27.1415 0.0000e+00
      3.769      0.060     8.1750    102.960    116.783 121.750248    12.1500     0.7111     0.0426     0.2115 2.4162e+02     0.8537      3.696      5.360    27.1393 0.0000e+00
      3.786      0.067     8.1808    102.894    116.790 121.745104    12.1500     0.6996     0.0426     0.2115 2.2994e+02     0.8839      3.713      5.385    27.1360 0.0000e+00
      3.805      0.072     8.1849    102.817    116.813 121.759223    12.1500     0.6996     0.0426     0.2115 2.2781e+02     0.9443      3.732      5.412    27.1314 0.0000e+00
      3.826      0.076     8.1860    102.734    116.838 121.776366    12.1500     0.6920     0.0426     0.2115 2.3382e+02     0.9594      3.752      5.442    27.1258 0.0000e+00
      3.847      0.077     8.1838    102.648    116.872 121.805104    12.1500     0.6233     0.0426     0.3384 2.2112e+02     0.4609      3.773      5.471    27.1201 0.0000e+00
      3.867      0.077     8.1794    102.573    116.924 121.853100    12.1500     0.6500     0.0426     0.3384 2.2074e+02     0.4458      3.792      5.500    27.1149 0.0000e+00
      3.886      0.076     8.1739    102.544    116.959 121.883142    12.1500     0.6424     0.0426     0.3384 2.2378e+02     0.4307      3.811      5.527    27.1105 0.0000e+00
      3.905      0.075     8.1679    102.595    116.951 121.869232    12.1500     0.6500     0.0426     0.3384 2.2007e+02     0.4458      3.829      5.554    27.1069 0.0000e+00
      3.923      0.075     8.1615    102.732    116.907 121.817662    12.3300     0.5928     0.0426     0.3384 2.2050e+02     0.1890      3.847      5.580    27.1038 0.0000e+00
      3.942      0.075     8.1559    102.925    116.845 121.748689    12.3300     0.5699     0.0426     0.3384 2.1769e+02     0.1588      3.865      5.606    27.1011 0.0000e+00
      3.961      0.076     8.1539    103.135    116.799 121.695932    12.3300     0.5661     0.0426     0.3384 2.1783e+02     0.2343      3.884      5.634    27.0986 0.0000e+00
      3.981      0.078     8.1583    103.331    116.785 121.677329    12.3300     0.5585     0.0426     0.3384 2.1154e+02     0.1286      3.904      5.662    27.0962 0.0000e+00
      4.001      0.079     8.1695    103.505    116.791 121.679918    12.3300     0.5890     0.0426     0.3384 2.1459e+02     0.2041      3.923      5.690    27.0939 0.0000e+00
      4.021      0.080     8.1852    103.661    116.800 121.684384    12.2400     0.5852     0.0852     0.3807 2.0930e+02     0.0983      3.943      5.719    27.0918 0.0000e+00
      4.042      0.082     8.2022    103.786    116.800 121.679915    12.2400     0.5928     0.0852     0.3807 2.0911e+02     0.1286      3.963      5.749    27.0898 0.0000e+00
      4.063      0.084     8.2181    103.869    116.799 121.673320    12.2400     0.5394     0.0852     0.3807 2.0614e+02     0.2796      3.984      5.778    27.0880 0.0000e+00
      4.084      0.086     8.2322    103.908    116.814 121.682847    12.2400     0.6500     0.0852     0.3807 2.0480e+02     0.4458      4.005      5.808    27.0863 0.0000e+00
      4.106      0.087     8.2448    103.892    116.843 121.707032    12.0600     0.6462     0.0426     0.2961 2.0298e+02     0.3854      4.026      5.840    27.0845 0.0000e+00
      4.129      0.088     8.2551    103.800    116.862 121.720319    12.0600     0.6462     0.0426     0.2961 1.9940e+02     0.4307      4.049      5.872    27.0826 0.0000e+00
      4.152      0.088     8.2620    103.615    116.861 121.714247    12.0600     0.6424     0.0426     0.2961 1.9745e+02     0.4458      4.072      5.905    27.0803 0.0000e+00
      4.176      0.086     8.2654    103.341    116.859 121.707201    12.0600     0.6996     0.0426     0.2961 1.9216e+02     0.6724      4.095      5.939    27.0778 0.0000e+00
      4.198      0.083     8.2646    103.006    116.870 121.713306    11.5200     0.6958     0.0426     0.2538 1.8955e+02     0.6271      4.117      5.971    27.0750 0.0000e+00
      4.218      0.080     8.2577    102.656    116.883 121.720187    11.5200     0.6996     0.0426     0.2538 1.9246e+02     0.6422      4.137      6.000    27.0723 0.0000e+00
      4.238      0.077     8.2433    102.322    116.876 121.703672    11.5200     0.7225     0.0426     0.2538 1.8803e+02     0.6875      4.156      6.027    27.0700 0.0000e+00
      4.256      0.075     8.2217    102.020    116.850 121.665358    11.5200     0.7569     0.0426     0.2538 1.8693e+02     0.8990      4.174      6.054    27.0680 0.0000e+00
      4.274      0.073     8.1954    101.768    116.812 121.613031    11.5200     0.7607     0.0426     0.2538 1.8475e+02     0.8839      4.192      6.080    27.0657 0.0000e+00
      4.293      0.073     8.1680    101.572    116.770 121.552742    11.3400     0.7530     0.0426     0.1692 1.8161e+02     0.8990      4.210      6.106    27.0628 0.0000e+00
      4.311      0.074     8.1420    101.424    116.728 121.488418    11.3400     0.7683     0.0426     0.1692 1.8347e+02     0.9141      4.228      6.132    27.0589 0.0000e+00
      4.330      0.075     8.1187    101.306    116.678 121.414908    11.3400     0.7797     0.0426     0.1692 1.8086e+02     1.2162      4.246      6.158    27.0541 0.0000e+00
      4.349      0.077     8.0995    101.192    116.632 121.346613    11.3400     0.7416     0.0426     0.1692 1.7832e+02     1.0954      4.265      6.185    27.0484 0.0000e+00
      4.369      0.079     8.0849    101.058    116.619 121.313331    11.6100     0.7645     0.0426     0.2538 1.7740e+02     1.2313      4.284      6.214    27.0413 0.0000e+00
      4.389      0.081     8.0744    100.887    116.637 121.316189    11.6100     0.7454     0.0426     0.2538 1.7498e+02     1.2313      4.305      6.243    27.0328 0.0000e+00
      4.411      0.082     8.0663    100.662    116.668 121.335942    11.6100     0.7645     0.0426     0.2538 1.7358e+02     0.9292      4.326      6.274    27.0236 0.0000e+00
      4.432      0.082     8.0585    100.392    116.697 121.355854    11.6100     0.7416     0.0426     0.2538 1.6915e+02     0.8990      4.347      6.305    27.0146 0.0000e+00
      4.454      0.082     8.0490    100.121    116.703 121.353227    12.0600     0.7454     0.0426     0.2961 1.6948e+02     0.9896      4.368      6.335    27.0063 0.0000e+00
      4.474      0.081     8.0364     99.888    116.690 121.331363    12.0600     0.7683     0.0426     0.2961 1.6718e+02     0.9141      4.388      6.364    26.9995 0.0000e+00
      4.495      0.080     8.0193     99.709    116.684 121.316436    12.0600     0.6996     0.0426     0.2961 1.6656e+02     0.9443      4.407      6.393    26.9941 0.0000e+00
      4.515      0.079     7.9984     99.579    116.691 121.314469    12.0600     0.7225     0.0426     0.2961 1.6501e+02     0.9443      4.427      6.421    26.9897 0.0000e+00
      4.535      0.078     7.9773     99.495    116.707 121.320935    12.2400     0.7073     0.0000     0.2961 1.6245e+02     0.8990      4.447      6.450    26.9859 0.0000e+00
      4.556      0.077     7.9593     99.475    116.723 121.323555    12.2400     0.7111     0.0000     0.2961 1.6042e+02     0.9141      4.467      6.479    26.9822 0.0000e+00
      4.575      0.076     7.9456     99.524    116.719 121.301024    12.2400     0.7569     0.0000     0.2961 1.6000e+02     0.8688      4.487      6.507    26.9785 0.0000e+00
      4.594      0.076     7.9358     99.598    116.705 121.257334    12.2400     0.7607     0.0000     0.2961 1.5810e+02     0.9292      4.505      6.534    26.9745 0.0000e+00
      4.613      0.075     7.9297     99.644    116.697 121.210841    12.2400     0.7454     0.0000     0.2961 1.5892e+02     0.8688      4.523      6.560    26.9700 0.0000e+00
      4.631      0.075     7.9289     99.652    116.690 121.157146    12.6000     0.7378     0.0852     0.2961 1.5676e+02     0.9745      4.542      6.587    26.9643 0.0000e+00
      4.650      0.076     7.9340     99.630    116.667 121.081928    12.6000     0.7530     0.0852     0.2961 1.5456e+02     1.3371      4.561      6.615    26.9561 0.0000e+00
      4.670      0.078     7.9416     99.561    116.624 120.977129    12.6000     0.7759     0.0852     0.2961 1.5333e+02     1.3673      4.580      6.643    26.9439 0.0000e+00
      4.690      0.080     7.9476     99.408    116.562 120.842806    12.6000     0.7340     0.0852     0.2961 1.5213e+02     1.2918      4.600      6.671    26.9274 0.0000e+00
      4.711      0.081     7.9510     99.140    116.498 120.693146    12.6000     0.7645     0.0426     0.2115 1.5118e+02     1.4126      4.620      6.700    26.9077 0.0000e+00
      4.732      0.083     7.9524     98.742    116.472 120.562250    12.6000     0.7302     0.0426     0.2115 1.4873e+02     2.3039      4.640      6.730    26.8855 0.0000e+00
      4.753      0.084     7.9506     98.213    116.506 120.479218    12.6000     0.8293     0.0426     0.2115 1.4764e+02     2.3039      4.661      6.760    26.8600 0.0000e+00
      4.775      0.084     7.9426     97.559    116.554 120.415899    12.6000     0.8293     0.0426     0.2115 1.4550e+02     2.3492      4.683      6.791    26.8301 0.0000e+00
      4.797      0.083     7.9263     96.785    116.572 120.341398    12.6000     0.8141     0.0426     0.3807 1.4241e+02     2.2435      4.704      6.823    26.7940 0.0000e+00
      4.819      0.081     7.9007     95.911    116.563 120.259848    12.6000     0.8065     0.0426     0.3807 1.4068e+02     2.3794      4.725      6.853    26.7495 0.0000e+00
      4.839      0.079     7.8655     94.998    116.544 120.175506    12.6000     0.9056     0.0426     0.3807 1.3998e+02     3.2556      4.746      6.883    26.6988 0.0000e+00
      4.859      0.078     7.8200     94.122    116.542 120.105884    12.6000     0.8866     0.0426     0.3807 1.3992e+02     3.2103      4.765      6.911    26.6501 0.0000e+00
      4.878      0.077     7.7635     93.336    116.564 120.058418    12.6000     0.8713     0.0426     0.3807 1.3847e+02     3.2405      4.783      6.937    26.6104 0.0000e+00
      4.896      0.077     7.6977     92.662    116.600 120.024448    12.4200     0.8713     0.0426     0.2115 1.3739e+02     3.3160      4.802      6.964    26.5794 0.0000e+00
      4.915      0.077     7.6283     92.107    116.641 119.994911    12.4200     0.8866     0.0426     0.2115 1.3611e+02     3.4973      4.820      6.991    26.5515 0.0000e+00
      4.935      0.079     7.5619     91.666    116.672 119.953927    12.4200     0.8751     0.0426     0.2115 1.3529e+02     3.5728      4.839      7.019    26.5226 0.0000e+00
      4.955      0.081     7.5028     91.317    116.696 119.902566    12.4200     0.9018     0.0426     0.2115 1.3383e+02     3.5426      4.859      7.048    26.4925 0.0000e+00
      4.977      0.082     7.4528     91.050    116.712 119.843130    12.9600     0.8942     0.0426     0.3384 1.3123e+02     3.4520      4.880      7.078    26.4620 0.0000e+00
      4.998      0.082     7.4122     90.897    116.721 119.777767    12.9600     0.9285     0.0426     0.3384 1.2923e+02     3.2556      4.902      7.109    26.4313 0.0000e+00
      5.020      0.083     7.3809     90.922    116.763 119.741053    12.9600     0.9476     0.0426     0.3384 1.2780e+02     3.2103      4.923      7.140    26.4001 0.0000e+00
      5.041      0.083     7.3572     91.168    116.874 119.757199    12.9600     0.9400     0.0426     0.3384 1.2752e+02     3.2556      4.943      7.170    26.3677 0.0000e+00
      5.061      0.082     7.3400     91.626    117.067 119.830510    14.6700     0.9209     0.0852     0.3807 1.2716e+02     3.2405      4.963      7.199    26.3353 0.0000e+00
      5.082      0.082     7.3320     92.270    117.342 119.958526    14.6700     1.1879     0.0852     0.3807 1.2598e+02     2.4852      4.983      7.228    26.3034 0.0000e+00
      5.103      0.082     7.3387     93.097    117.661 120.107367    14.6700     1.1956     0.0852     0.3807 1.2408e+02     2.6513      5.004      7.258    26.2693 0.0000e+00
      5.124      0.081     7.3642     94.136    117.979 120.236705    14.6700     1.1765     0.0852     0.3807 1.2218e+02     2.5456      5.025      7.288    26.2277 0.0000e+00
      5.145      0.081     7.4086     95.408    118.268 120.317009    15.8400     1.1994     0.0852     0.4230 1.2139e+02     2.4701      5.046      7.318    26.1748 0.0000e+00
      5.166      0.080     7.4696     96.873    118.523 120.339681    15.8400     1.6724     0.0852     0.4230 1.1992e+02     0.9443      5.066      7.347    26.1099 0.0000e+00
      5.186      0.079     7.5470     98.437    118.747 120.318755    15.8400     1.6724     0.0852     0.4230 1.1898e+02     0.8990      5.086      7.376    26.0349 0.0000e+00
      5.206      0.077     7.6430    100.010    118.921 120.260638    15.8400     1.6800     0.0852     0.4230 1.1793e+02     0.9443      5.105      7.404    25.9521 0.0000e+00
      5.225      0.075     7.7593    101.548    119.005 120.145817    15.8400     1.6915     0.0852     0.4230 1.1564e+02     0.8990      5.124      7.432    25.8613 0.0000e+00
      5.245      0.073     7.8929    103.003    118.970 119.947667    16.2900     1.6381     0.1278     0.4653 1.1358e+02     0.7026      5.143      7.459    25.7614 0.0000e+00
      5.263      0.071     8.0357    104.270    118.839 119.675350    16.2900     1.6228     0.1278     0.4653 1.1233e+02     0.6120      5.161      7.486    25.6567 0.0000e+00
      5.281      0.069     8.1787    105.223    118.631 119.324259    16.2900     1.6343     0.1278     0.4653 1.1150e+02     0.7328      5.179      7.511    25.5580 0.0000e+00
      5.297      0.069     8.3170    105.773    118.365 118.878778    16.2900     1.5999     0.1278     0.4653 1.1181e+02     0.6573      5.195      7.534    25.4737 0.0000e+00
      5.314      0.070     8.4465    105.877    118.171 118.452131    17.0100     1.5656     0.0852     0.4230 1.1116e+02     0.7177      5.211      7.558    25.4047 0.0000e+00
      5.331      0.072     8.5594    105.517    118.191 118.202552    17.0100     1.5465     0.0852     0.4230 1.0998e+02     0.6422      5.228      7.582    25.3456 0.0000e+00
      5.349      0.075     8.6468    104.700    118.366 118.109474    17.0100     1.5503     0.0852     0.4230 1.0818e+02     0.7479      5.246      7.609    25.2857 0.0000e+00
      5.369      0.078     8.7037    103.506    118.532 118.044054    17.0100     1.5656     0.0852     0.4230 1.0448e+02     0.6724      5.266      7.637    25.2109 0.0000e+00
      5.391      0.080     8.7276    102.145    118.618 117.942833    18.0900     1.4817     0.0426     0.4230 1.0244e+02     1.0954      5.286      7.668    25.1132 0.0000e+00
      5.412      0.082     8.7159    100.907    118.624 117.786814    18.0900     1.5084     0.0426     0.4230 9.9046e+01     1.1709      5.308      7.698    24.9994 0.0000e+00
      5.434      0.084     8.6662    100.013    118.546 117.546391    18.0900     1.5122     0.0426     0.4230 9.8852e+01     1.2313      5.328      7.729    24.8864 0.0000e+00
      5.455      0.085     8.5827     99.550    118.404 117.225449    18.0900     1.5007     0.0426     0.4230 9.7890e+01     1.2011      5.349      7.758    24.7887 0.0000e+00
      5.476      0.086     8.4824     99.540    118.276 116.908399    18.0900     1.4511     0.0426     0.4230 9.6308e+01     0.9141      5.370      7.788    24.7096 0.0000e+00
      5.497      0.087     8.3903    100.003    118.246 116.690685    21.6900     1.4435     0.0426     0.4230 9.4258e+01     0.9745      5.391      7.819    24.6414 0.0000e+00
      5.520      0.087     8.3268    100.933    118.288 116.560241    21.6900     1.4397     0.0426     0.4230 9.1872e+01     0.8386      5.413      7.851    24.5722 0.0000e+00
      5.543      0.088     8.3001    102.236    118.328 116.450272    21.6900     1.4359     0.0426     0.4230 8.9333e+01     0.8688      5.436      7.885    24.4963 0.0000e+00
      5.567      0.087     8.3120    103.727    118.340 116.331448    21.6900     1.7296     0.0426     0.4230 8.6693e+01     1.0349      5.459      7.918    24.4158 0.0000e+00
      5.589      0.086     8.3633    105.192    118.316 116.176082    21.7800     1.7449     0.0852     0.5076 8.5255e+01     0.8839      5.481      7.950    24.3365 0.0000e+00
      5.611      0.085     8.4526    106.449    118.279 115.988736    21.7800     1.7449     0.0852     0.5076 8.5813e+01     0.8386      5.502      7.981    24.2638 0.0000e+00
      5.632      0.084     8.5719    107.388    118.261 115.803444    21.7800     1.7144     0.0852     0.5076 8.5571e+01     0.8688      5.523      8.010    24.2009 0.0000e+00
      5.653      0.083     8.7059    107.988    118.262 115.638780    21.7800     3.7896     0.0852     0.5076 8.3950e+01     0.6724      5.543      8.040    24.1457 0.0000e+00
      5.674      0.081     8.8380    108.313    118.289 115.514820    22.5000     3.7972     0.0852     0.4653 8.1700e+01     0.6422      5.564      8.070    24.0899 0.0000e+00
      5.695      0.079     8.9543    108.477    118.299 115.394503    22.5000     3.7820     0.0852     0.4653 8.0730e+01     0.6120      5.585      8.101    24.0261 0.0000e+00
      5.716      0.077     9.0451    108.570    118.248 115.223742    22.5000     3.7972     0.0852     0.4653 7.9718e+01     0.7479      5.606      8.130    23.9553 0.0000e+00
      5.735      0.074     9.1074    108.632    118.187 115.032991    22.5000     7.9439     0.0852     0.4653 7.9373e+01     0.9745      5.624      8.157    23.8851 0.0000e+00
      5.753      0.071     9.1456    108.643    118.147 114.847374    23.0400     7.9439     0.0852     0.4230 7.9373e+01     0.8688      5.642      8.183    23.8217 0.0000e+00
      5.770      0.069     9.1687    108.544    118.102 114.645385    23.0400     7.9248     0.0852     0.4230 7.8260e+01     0.9745      5.659      8.207    23.7666 0.0000e+00
      5.787      0.067     9.1853    108.258    118.058 114.435146    23.0400     7.9439     0.0852     0.4230 7.7565e+01     0.7630      5.675      8.231    23.7154 0.0000e+00
      5.804      0.065     9.2001    107.695    118.030 114.228580    23.0400    23.3631     0.0852     0.4230 7.7380e+01     2.1075      5.692      8.255    23.6598 0.0000e+00
      5.820      0.064     9.2116    106.797    117.990 113.998591    23.0400    23.3784     0.0852     0.4230 7.6113e+01     2.1226      5.708      8.279    23.5976 0.0000e+00
      5.837      0.064     9.2146    105.579    117.947 113.743834    23.1300    23.3745     0.0852     0.4653 7.4915e+01     2.1226      5.724      8.302    23.5309 0.0000e+00
      5.853      0.062     9.2025    104.134    117.968 113.526346    23.1300    23.3555     0.0852     0.4653 7.4882e+01     2.1226      5.740      8.325    23.4597 0.0000e+00
      5.869      0.061     9.1675    102.591    118.070 113.394101    23.1300    17.3510     0.0852     0.4653 7.3752e+01     2.1981      5.756      8.347    23.3839 0.0000e+00
      5.884      0.058     9.1047    101.115    118.193 113.331813    23.1300    17.3777     0.0852     0.4653 7.2797e+01     2.1377      5.771      8.369    23.3028 0.0000e+00
      5.899      0.055     9.0160     99.920    118.270 113.278870    23.3100    17.3320     0.0852     0.4230 7.1480e+01     2.1075      5.786      8.391    23.2125 0.0000e+00
      5.913      0.052     8.9094     99.178    118.296 113.193161    23.3100    17.3320     0.0852     0.4230 7.1170e+01     2.0924      5.799      8.411    23.1122 0.0000e+00
      5.926      0.049     8.7937     98.905    118.331 113.103820    23.3100    11.3237     0.0852     0.4230 7.1015e+01     1.6543      5.812      8.429    23.0148 0.0000e+00
      5.937      0.047     8.6799     99.008    118.417 113.037011    23.3100    11.3466     0.0852     0.4230 7.1278e+01     1.6090      5.823      8.445    22.9384 0.0000e+00
      5.948      0.046     8.5864     99.395    118.558 112.990911    23.4000    11.3542     0.0852     0.5922 7.1449e+01     1.6543      5.833      8.460    22.8846 0.0000e+00
      5.959      0.047     8.5305     99.984    118.743 112.961217    23.4000    11.3504     0.0852     0.5922 7.1046e+01     1.6241      5.844      8.475    22.8382 0.0000e+00
      5.970      0.050     8.5157    100.683    118.921 112.916002    23.4000    11.1559     0.0852     0.5922 7.1015e+01     1.7903      5.855      8.492    22.7861 0.0000e+00
      5.983      0.054     8.5350    101.403    119.072 112.851198    23.4000    11.1597     0.0852     0.5922 7.0523e+01     1.9262      5.867      8.510    22.7233 0.0000e+00
      5.997      0.058     8.5809    102.048    119.201 112.769511    23.4000    11.1826     0.0852     0.5922 6.9308e+01     1.8809      5.881      8.530    22.6474 0.0000e+00
      6.013      0.062     8.6462    102.505    119.295 112.637156    23.4000    11.1750     0.0852     0.5499 6.8321e+01     1.8658      5.897      8.553    22.5608 0.0000e+00
      6.030      0.066     8.7217    102.670    119.374 112.452824    23.4000     7.9095     0.0852     0.5499 6.8025e+01     2.3039      5.914      8.577    22.4707 0.0000e+00
      6.048      0.068     8.7987    102.469    119.455 112.231338    23.4000     7.8752     0.0852     0.5499 6.6983e+01     2.3341      5.931      8.602    22.3834 0.0000e+00
      6.066      0.070     8.8690    101.869    119.539 111.973610    23.4000     7.8637     0.0852     0.5499 6.5800e+01     2.2888      5.949      8.628    22.2978 0.0000e+00
      6.085      0.071     8.9243    100.882    119.668 111.712878    24.2100     7.8676     0.1278     1.8612 6.4920e+01     2.2586      5.967      8.654    22.2050 0.0000e+00
      6.103      0.070     8.9570     99.533    119.870 111.493567    24.2100     7.9591     0.1278     1.8612 6.4456e+01     2.5909      5.985      8.680    22.0966 0.0000e+00
      6.121      0.069     8.9604     97.851    120.088 111.307160    24.2100     7.9324     0.1278     1.8612 6.3345e+01     2.4701      6.003      8.706    21.9721 0.0000e+00
      6.139      0.066     8.9316     95.880    120.263 111.127922    24.2100     7.9248     0.1278     1.8612 6.2416e+01     2.5003      6.020      8.732    21.8314 0.0000e+00
      6.156      0.064     8.8717     93.713    120.400 110.956030    25.2000     7.9439     0.1278     3.6801 6.1648e+01     2.4852      6.037      8.756    21.6723 0.0000e+00
      6.172      0.061     8.7815     91.477    120.523 110.795623    25.2000     7.9858     0.1278     3.6801 6.1554e+01     3.0743      6.052      8.778    21.5025 0.0000e+00
      6.186      0.059     8.6599     89.293    120.626 110.625911    25.2000     7.9973     0.1278     3.6801 6.1181e+01     3.0441      6.066      8.799    21.3405 0.0000e+00
      6.200      0.058     8.5087     87.240    120.678 110.405628    25.2000     8.0087     0.1278     3.6801 6.0968e+01     3.0441      6.080      8.819    21.1984 0.0000e+00
      6.214      0.058     8.3364     85.364    120.716 110.156000    25.2000     8.0011     0.1278     1.2690 6.0770e+01     3.0894      6.094      8.838    21.0741 0.0000e+00
      6.228      0.060     8.1555     83.679    120.790 109.924412    25.2000     8.1727     0.1278     1.2690 6.0638e+01     2.9837      6.107      8.858    20.9604 0.0000e+00
      6.243      0.064     7.9779     82.162    120.853 109.671088    25.2000     8.1994     0.1278     1.2690 6.0178e+01     2.9837      6.122      8.879    20.8507 0.0000e+00
      6.259      0.069     7.8115     80.735    120.878 109.358456    25.2000     8.1804     0.1278     1.2690 5.9296e+01     2.9837      6.138      8.902    20.7394 0.0000e+00
      6.277      0.075     7.6611     79.294    120.891 108.991108    25.2000     8.1689     0.1278     1.2690 5.8949e+01     3.0139      6.156      8.928    20.6219 0.0000e+00
      6.297      0.083     7.5282     77.755    120.887 108.555041    25.4700     7.5052     0.1278     1.0998 5.8439e+01     2.5003      6.175      8.956    20.4981 0.0000e+00
      6.319      0.091     7.4103     76.080    120.883 108.047913    25.4700     7.5090     0.1278     1.0998 5.6848e+01     2.5758      6.196      8.987    20.3694 0.0000e+00
      6.343      0.099     7.3014     74.242    120.933 107.490413    25.4700     7.4975     0.1278     1.0998 5.5796e+01     2.5305      6.220      9.021    20.2308 0.0000e+00
      6.369      0.107     7.1928     72.192    121.126 106.961754    25.4700     7.5090     0.1278     1.0998 5.4041e+01     2.5909      6.246      9.059    20.0743 0.0000e+00
      6.398      0.115     7.0775     69.877    121.472 106.536823    25.9200     4.3427     0.1278     1.2267 5.1777e+01     1.8658      6.274      9.099    19.8956 0.0000e+00
      6.429      0.120     6.9528     67.248    121.817 106.168235    25.9200     4.3313     0.1278     1.2267 4.7148e+01     1.9413      6.304      9.144    19.6882 0.0000e+00
      6.462      0.124     6.8173     64.273    122.050 105.781659    25.9200     4.3198     0.1278     1.2267 4.4394e+01     1.8205      6.337      9.191    19.4405 0.0000e+00
      6.495      0.126     6.6665     61.007    122.232 105.381937    25.9200     4.3351     0.1278     1.2267 4.2933e+01     1.8054      6.370      9.239    19.1526 0.0000e+00
      6.528      0.127     6.4910     57.631    122.458 105.016379    27.1800     3.3662     0.1704     1.3113 4.2138e+01     1.3975      6.402      9.285    18.8525 0.0000e+00
      6.560      0.126     6.2810     54.435    122.700 104.679430    27.1800     3.3433     0.1704     1.3113 4.1268e+01     1.3673      6.433      9.331    18.5769 0.0000e+00
      6.592      0.125     6.0321     51.746    122.891 104.335183    27.1800     3.3394     0.1704     1.3113 3.9616e+01     1.2918      6.464      9.376    18.3349 0.0000e+00
      6.624      0.124     5.7519     49.821    123.055 103.989764    27.1800     3.3662     0.1704     1.3113 3.8521e+01     1.4277      6.495      9.421    18.1067 0.0000e+00
      6.655      0.124     5.4591     48.769    123.210 103.636997    27.1800     3.6484     0.1704     1.3113 3.7440e+01     1.3824      6.526      9.465    17.8776 0.0000e+00
      6.686      0.125     5.1806     48.555    123.329 103.244756    27.0000     3.6637     0.1278     0.9729 3.6579e+01     1.3673      6.557      9.510    17.6555 0.0000e+00
      6.717      0.126     4.9471     49.020    123.439 102.832347    27.0000     3.6523     0.1278     0.9729 3.5700e+01     1.4428      6.587      9.554    17.4487 0.0000e+00
      6.749      0.128     4.7843     49.915    123.595 102.453669    27.0000     3.6561     0.1278     0.9729 3.4323e+01     1.3220      6.619      9.599    17.2516 0.0000e+00
      6.782      0.130     4.7043     50.946    123.787 102.117647    27.0000     4.8577     0.1278     0.9729 3.3172e+01     1.6241      6.651      9.646    17.0551 0.0000e+00
      6.816      0.131     4.7050     51.840    123.974 101.798613    27.1800     4.8501     0.1704     0.7614 3.1207e+01     1.7449      6.685      9.695    16.8552 0.0000e+00
      6.851      0.132     4.7718     52.396    124.155 101.495415    27.1800     4.8463     0.1704     0.7614 2.9867e+01     1.7147      6.718      9.744    16.6512 0.0000e+00
      6.885      0.130     4.8807     52.482    124.326 101.219116    27.1800     4.8463     0.1704     0.7614 2.9155e+01     1.6543      6.752      9.793    16.4455 0.0000e+00
      6.919      0.128     5.0027     52.021    124.444 100.939989    27.1800     3.2822     0.1704     0.7614 2.7794e+01     1.9111      6.785      9.841    16.2456 0.0000e+00
      6.952      0.125     5.1107     50.969    124.522 100.635553    27.4500     3.2860     0.1278     0.5922 2.6984e+01     1.9564      6.817      9.888    16.0546 0.0000e+00
      6.983      0.121     5.1848     49.340    124.627 100.336530    27.4500     3.2937     0.1278     0.5922 2.6792e+01     1.9413      6.848      9.932    15.8723 0.0000e+00
      7.013      0.118     5.2107     47.235    124.757 100.051100    27.4500     3.2937     0.1278     0.5922 2.6485e+01     1.9413      6.877      9.975    15.7050 0.0000e+00
      7.042      0.115     5.1804     44.803    124.858  99.755090    27.4500     2.2713     0.1278     0.5922 2.5786e+01     2.3492      6.906     10.016    15.5538 0.0000e+00
      7.071      0.112     5.0905     42.179    124.950  99.471468    27.6300     2.2255     0.1704     0.9306 2.5019e+01     2.2737      6.934     10.058    15.4060 0.0000e+00
      7.100      0.109     4.9429     39.484    125.076  99.238497    27.6300     2.2713     0.1704     0.9306 2.4449e+01     2.2737      6.963     10.098    15.2522 0.0000e+00
      7.128      0.105     4.7471     36.861    125.203  99.040002    27.6300     2.2751     0.1704     0.9306 2.4023e+01     2.3492      6.990     10.138    15.0960 0.0000e+00
      7.155      0.099     4.5168     34.455    125.297  98.861005    27.6300     1.7334     0.1704     0.9306 2.3258e+01     2.7873      7.017     10.177    14.9448 0.0000e+00
      7.181      0.092     4.2650     32.375    125.384  98.729700    27.6300     1.7373     0.1704     0.9306 2.2649e+01     2.8175      7.042     10.213    14.8020 0.0000e+00
      7.204      0.083     4.0039     30.687    125.459  98.641041    27.5400     1.7487     0.1704     0.8460 2.2167e+01     2.7873      7.064     10.246    14.6688 0.0000e+00
      7.224      0.073     3.7480     29.416    125.504  98.567386    27.5400     1.7334     0.1704     0.8460 2.1880e+01     2.8326      7.085     10.275    14.5491 0.0000e+00
      7.241      0.063     3.5115     28.579    125.544  98.509073    27.5400     1.7105     0.1704     0.8460 2.1904e+01     2.7269      7.102     10.300    14.4479 0.0000e+00
      7.256      0.053     3.3059     28.184    125.594  98.468536    27.5400     1.6877     0.1704     0.8460 2.1870e+01     2.7420      7.115     10.320    14.3679 0.0000e+00
      7.267      0.045     3.1381     28.206    125.651  98.444954    27.4500     1.6915     0.1704     0.6768 2.1889e+01     2.7571      7.127     10.336    14.3089 0.0000e+00
      7.277      0.037     3.0116     28.579    125.703  98.426042    27.4500     1.6762     0.1704     0.6768 2.1823e+01     2.7873      7.136     10.350    14.2655 0.0000e+00
      7.285      0.031     2.9286     29.209    125.762  98.418743    27.4500     1.6724     0.1704     0.6768 2.1875e+01     2.7873      7.144     10.362    14.2298 0.0000e+00
      7.292      0.027     2.8905     29.993    125.845  98.435099    27.4500     1.6877     0.1704     0.6768 2.1866e+01     2.8175      7.150     10.371    14.1980 0.0000e+00
      7.297      0.023     2.8948     30.852    125.899  98.437503    27.4500     1.6877     0.2130     0.5922 2.1899e+01     2.6664      7.156     10.379    14.1706 0.0000e+00
      7.302      0.021     2.9348     31.725    125.901  98.406615    27.4500     1.6800     0.2130     0.5922 2.1889e+01     2.6966      7.161     10.387    14.1470 0.0000e+00
      7.307      0.019     3.0010     32.568    125.890  98.370164    27.4500     1.6381     0.2130     0.5922 2.1904e+01     2.7722      7.166     10.393    14.1255 0.0000e+00
      7.311      0.019     3.0829     33.348    125.876  98.334417    27.4500     1.6304     0.2130     0.5922 2.1942e+01     2.7269      7.170     10.400    14.1063 0.0000e+00
      7.316      0.019     3.1723     34.051    125.839  98.283846    27.4500     1.6152     0.2130     0.5922 2.1990e+01     2.7873      7.175     10.406    14.0904 0.0000e+00
      7.320      0.020     3.2630     34.671    125.786  98.222948    27.4500     1.6304     0.2130     0.6345 2.1875e+01     2.8175      7.179     10.412    14.0775 0.0000e+00
      7.325      0.021     3.3505     35.211    125.723  98.157464    27.4500     1.6838     0.2130     0.6345 2.1866e+01     2.7873      7.184     10.419    14.0666 0.0000e+00
      7.331      0.024     3.4315     35.685    125.645  98.081920    27.4500     1.6838     0.2130     0.6345 2.1885e+01     2.6966      7.189     10.426    14.0567 0.0000e+00
      7.337      0.027     3.5045     36.095    125.569  98.004147    27.4500     1.6838     0.2130     0.6345 2.1776e+01     2.7269      7.195     10.435    14.0479 0.0000e+00
      7.343      0.032     3.5689     36.430    125.520  97.939373    27.3600     1.6915     0.2130     0.6345 2.1733e+01     2.6966      7.201     10.445    14.0401 0.0000e+00
      7.351      0.038     3.6250     36.688    125.498  97.886312    27.3600     1.6838     0.2130     0.6345 2.1709e+01     2.8930      7.209     10.456    14.0337 0.0000e+00
      7.361      0.045     3.6741     36.881    125.473  97.818822    27.3600     1.5541     0.2130     0.6345 2.1625e+01     2.9686      7.219     10.469    14.0279 0.0000e+00
      7.373      0.053     3.7170     37.023    125.419  97.710913    27.3600     1.5656     0.2130     0.6345 2.1442e+01     3.0441      7.230     10.486    14.0205 0.0000e+00
      7.387      0.062     3.7524     37.126    125.334  97.559785    27.4500     1.5351     0.2130     0.5076 2.1109e+01     3.0290      7.244     10.506    14.0100 0.0000e+00
      7.404      0.071     3.7801     37.198    125.244  97.389074    27.4500     1.5808     0.2130     0.5076 2.0782e+01     3.0592      7.260     10.530    13.9958 0.0000e+00
      7.423      0.080     3.8016     37.247    125.174  97.225188    27.4500     1.4283     0.2130     0.5076 2.0185e+01     3.0290      7.280     10.558    13.9766 0.0000e+00
      7.446      0.088     3.8184     37.294    125.113  97.068380    27.4500     1.4397     0.2130     0.5076 1.9538e+01     3.0592      7.301     10.590    13.9504 0.0000e+00
      7.470      0.094     3.8319     37.374    125.056  96.918791    27.5400     1.4283     0.2130     0.4653 1.8545e+01     2.9837      7.325     10.625    13.9164 0.0000e+00
      7.496      0.100     3.8427     37.546    125.021  96.794470    27.5400     1.4435     0.2130     0.4653 1.7985e+01     3.0139      7.351     10.662    13.8762 0.0000e+00
      7.522      0.103     3.8516     37.883    125.026  96.710219    27.5400     1.0086     0.2130     0.4653 1.7496e+01     2.3039      7.377     10.699    13.8327 0.0000e+00
      7.549      0.106     3.8601     38.445    125.061  96.655555    27.5400     1.0086     0.2130     0.4653 1.7112e+01     2.3039      7.403     10.738    13.7887 0.0000e+00
      7.577      0.109     3.8720     39.242    125.091  96.599914    27.5400     0.9934     0.2130     0.4653 1.6759e+01     2.2737      7.430     10.777    13.7467 0.0000e+00
      7.604      0.111     3.8933     40.242    125.118  96.544442    27.5400     1.0086     0.2130     0.4653 1.6392e+01     2.3190      7.457     10.816    13.7080 0.0000e+00
      7.633      0.113     3.9314     41.385    125.154  96.500317    27.5400     0.7797     0.2130     0.4653 1.5784e+01     2.2888      7.485     10.857    13.6728 0.0000e+00
      7.662      0.116     3.9926     42.595    125.171  96.443782    27.5400     0.7569     0.2130     0.4653 1.5247e+01     2.3039      7.514     10.898    13.6402 0.0000e+00
      7.692      0.118     4.0783     43.786    125.173  96.377743    27.5400     0.7721     0.2130     0.4653 1.4913e+01     2.3341      7.543     10.940    13.6087 0.0000e+00
      7.722      0.120     4.1851     44.876    125.202  96.334537    27.6300     0.7836     0.2130     0.3807 1.4520e+01     2.3039      7.573     10.984    13.5783 0.0000e+00
      7.753      0.122     4.3067     45.813    125.250  96.310633    27.6300     0.7530     0.2130     0.3807 1.3806e+01     2.2888      7.603     11.028    13.5493 0.0000e+00
      7.785      0.123     4.4353     46.569    125.284  96.279674    27.6300     0.7492     0.2130     0.3807 1.3305e+01     2.2888      7.634     11.073    13.5217 0.0000e+00
      7.817      0.124     4.5620     47.136    125.300  96.237398    27.6300     0.7492     0.2130     0.3807 1.2723e+01     2.2586      7.666     11.118    13.4945 0.0000e+00
      7.849      0.124     4.6782     47.506    125.315  96.196508    27.4500     0.7454     0.1704     0.2961 1.2261e+01     2.3039      7.697     11.164    13.4683 0.0000e+00
      7.881      0.124     4.7783     47.678    125.334  96.162080    27.4500     0.6958     0.1704     0.2961 1.1894e+01     2.3039      7.728     11.209    13.4440 0.0000e+00
      7.912      0.124     4.8596     47.651    125.344  96.124934    27.4500     0.6844     0.1704     0.2961 1.1473e+01     2.3039      7.759     11.254    13.4214 0.0000e+00
      7.944      0.124     4.9210     47.421    125.328  96.071166    27.4500     0.6920     0.1704     0.2961 1.0980e+01     2.3341      7.790     11.299    13.3996 0.0000e+00
      7.975      0.124     4.9619     46.987    125.335  96.038384    27.2700     0.7149     0.1278     0.3384 1.0573e+01     2.3794      7.821     11.344    13.3787 0.0000e+00
      8.007      0.125     4.9820     46.364    125.432  96.073791    27.2700     0.5661     0.1278     0.3384 1.0265e+01     2.0924      7.852     11.388    13.3591 0.0000e+00
      8.038      0.128     4.9810     45.587    125.562  96.134878    27.2700     0.5776     0.1278     0.3384 1.0094e+01     2.1075      7.883     11.433    13.3413 0.0000e+00
      8.070      0.131     4.9588     44.685    125.653  96.166006    27.2700     0.5776     0.1278     0.3384 9.8560e+00     2.1528      7.914     11.478    13.3250 0.0000e+00
      8.103      0.136     4.9150     43.686    125.710  96.171476    27.2700     0.6081     0.1278     0.3384 9.5275e+00     2.2586      7.946     11.525    13.3096 0.0000e+00
      8.138      0.141     4.8515     42.612    125.764  96.172728    27.1800     0.5776     0.1704     0.1692 9.0906e+00     2.3643      7.981     11.575    13.2942 0.0000e+00
      8.175      0.148     4.7718     41.483    125.823  96.174090    27.1800     0.5814     0.1704     0.1692 8.7229e+00     2.2435      8.017     11.627    13.2788 0.0000e+00
      8.213      0.154     4.6789     40.308    125.890  96.179919    27.1800     0.5928     0.1704     0.1692 8.3920e+00     2.1830      8.055     11.682    13.2635 0.0000e+00
      8.254      0.160     4.5758     39.087    125.973  96.199760    27.1800     0.5890     0.1704     0.1692 7.8863e+00     2.3190      8.094     11.740    13.2482 0.0000e+00
      8.296      0.164     4.4648     37.813    126.050  96.218921    27.0900     0.5814     0.1278     0.2115 7.3374e+00     2.7571      8.136     11.800    13.2322 0.0000e+00
      8.340      0.167     4.3481     36.496    126.092  96.214538    27.0900     0.5623     0.1278     0.2115 6.8401e+00     2.8024      8.179     11.862    13.2149 0.0000e+00
      8.383      0.168     4.2267     35.180    126.090  96.177450    27.0900     0.5738     0.1278     0.2115 6.3834e+00     2.7722      8.222     11.924    13.1969 0.0000e+00
      8.426      0.169     4.1002     33.938    126.072  96.127735    27.0900     0.5776     0.1278     0.2115 6.3474e+00     2.8175      8.264     11.985    13.1795 0.0000e+00
      8.469      0.169     3.9679     32.852    126.062  96.086101    27.0900     0.5470     0.1278     0.2115 6.1733e+00     3.0894      8.305     12.046    13.1637 0.0000e+00
      8.512      0.168     3.8310     31.994    126.024  96.027459    27.0900     0.5432     0.1278     0.2115 5.5221e+00     3.0592      8.348     12.107    13.1494 0.0000e+00
      8.555      0.167     3.6941     31.410    125.960  95.952153    27.0900     0.5547     0.1278     0.2115 5.2517e+00     3.1498      8.390     12.168    13.1353 0.0000e+00
      8.598      0.165     3.5648     31.123    125.905  95.888055    27.0900     0.5547     0.1278     0.2115 5.0088e+00     3.0441      8.432     12.230    13.1209 0.0000e+00
      8.640      0.162     3.4518     31.135    125.863  95.836052    27.0900     0.5127     0.1278     0.2115 4.6662e+00     3.0290      8.473     12.290    13.1075 0.0000e+00
      8.682      0.159     3.3626     31.427    125.845  95.806254    27.1800     0.5165     0.1278     0.2538 4.5087e+00     2.9535      8.514     12.348    13.0957 0.0000e+00
      8.722      0.155     3.3020     31.943    125.891  95.826678    27.1800     0.5470     0.1278     0.2538 4.3330e+00     2.9988      8.553     12.405    13.0853 0.0000e+00
      8.761      0.152     3.2725     32.612    125.991  95.890780    27.1800     0.5165     0.1278     0.2538 4.1226e+00     3.0743      8.591     12.460    13.0763 0.0000e+00
      8.799      0.150     3.2744     33.367    126.085  95.951719    27.1800     0.6195     0.1278     0.2538 3.9542e+00     3.2858      8.628     12.515    13.0686 0.0000e+00
      8.836      0.147     3.3056     34.158    126.152  95.993775    27.0900     0.6424     0.1278     0.2538 3.8357e+00     3.3160      8.665     12.568    13.0620 0.0000e+00
      8.873      0.145     3.3604     34.928    126.212  96.032160    27.0900     0.6310     0.1278     0.2538 3.7086e+00     3.2405      8.701     12.620    13.0564 0.0000e+00
      8.910      0.143     3.4311     35.600    126.257  96.059126    27.0900     0.6424     0.1278     0.2538 3.4543e+00     3.3009      8.737     12.673    13.0515 0.0000e+00
      8.947      0.141     3.5109     36.092    126.269  96.061884    27.0900     0.6310     0.1278     0.2538 3.2110e+00     4.7662      8.774     12.725    13.0474 0.0000e+00
      8.983      0.138     3.5943     36.330    126.249  96.039172    27.1800     0.6539     0.1278     0.1692 3.0805e+00     4.6907      8.809     12.777    13.0438 0.0000e+00
      9.018      0.135     3.6756     36.265    126.218  96.006909    27.1800     0.6424     0.1278     0.1692 2.9927e+00     4.6907      8.844     12.827    13.0408 0.0000e+00
      9.052      0.131     3.7465     35.886    126.225  96.004447    27.1800     0.6424     0.1278     0.1692 2.8376e+00     4.6756      8.877     12.875    13.0381 0.0000e+00
      9.085      0.127     3.7985     35.236    126.264  96.027130    27.1800     0.8866     0.1278     0.1692 2.7139e+00     5.9747      8.909     12.922    13.0354 0.0000e+00
      9.116      0.122     3.8239     34.406    126.269  96.025064    27.0900     0.8713     0.1278     0.2538 2.6406e+00     5.8388      8.940     12.967    13.0323 0.0000e+00
      9.147      0.116     3.8173     33.527    126.234  95.993700    27.0900     0.9018     0.1278     0.2538 2.5749e+00     5.8237      8.970     13.010    13.0291 0.0000e+00
      9.176      0.110     3.7777     32.734    126.209  95.972628    27.0900     0.9056     0.1278     0.2538 2.3915e+00     5.9596      8.999     13.052    13.0260 0.0000e+00
      9.205      0.102     3.7095     32.137    126.211  95.974210    27.0900     2.1416     0.1278     0.2538 2.2611e+00    14.1322      9.027     13.092    13.0232 0.0000e+00
      9.231      0.093     3.6223     31.813    126.235  95.994873    27.0900     2.1950     0.1278     0.2538 2.2178e+00    14.2984      9.052     13.129    13.0207 0.0000e+00
      9.254      0.083     3.5299     31.795    126.270  96.026140    27.6300     2.1874     0.1278     0.2961 2.1472e+00    14.1322      9.075     13.162    13.0190 0.0000e+00
      9.274      0.072     3.4465     32.054    126.274  96.036387    27.6300     2.1569     0.1278     0.2961 2.0951e+00    14.2229      9.094     13.190    13.0182 0.0000e+00
      9.290      0.062     3.3837     32.501    126.252  96.032345    27.6300     4.0223     0.1278     0.2961 2.0992e+00    26.5044      9.110     13.214    13.0184 0.0000e+00
      9.304      0.052     3.3494     33.035    126.249  96.048901    27.6300     4.0375     0.1278     0.2961 2.0354e+00    26.4137      9.124     13.233    13.0193 0.0000e+00
      9.315      0.043     3.3474     33.566    126.273  96.092466    27.5400     4.0223     0.1704     0.1269 2.0819e+00    26.3684      9.135     13.249    13.0211 0.0000e+00
      9.325      0.036     3.3744     34.018    126.289  96.136698    27.5400     4.0108     0.1704     0.1269 2.0125e+00    26.4742      9.144     13.263    13.0241 0.0000e+00
      9.332      0.029     3.4211     34.335    126.263  96.153432    27.5400     3.7095     0.1704     0.1269 2.0021e+00    91.5074      9.152     13.274    13.0290 0.0000e+00
      9.338      0.024     3.4767     34.502    126.231  96.163116    27.5400     3.7171     0.1704     0.1269 1.9531e+00    91.4771      9.158     13.282    13.0364 0.0000e+00
      9.344      0.020     3.5318     34.537    126.232  96.190313    27.1800     3.7247     0.1278     0.2115 1.9408e+00    91.4318      9.163     13.290    13.0465 0.0000e+00
      9.348      0.016     3.5783     34.482    126.230  96.204313    27.1800     3.7209     0.1278     0.2115 1.8761e+00    91.3412      9.167     13.296    13.0591 0.0000e+00
      9.351      0.013     3.6106     34.384    126.174  96.170888    27.1800     2.3018     0.1278     0.2115 1.7543e+00    68.9686      9.170     13.301    13.0734 0.0000e+00
      9.354      0.011     3.6270     34.289    126.069  96.097107    27.1800     2.2980     0.1278     0.2115 1.7080e+00    68.8175      9.173     13.305    13.0871 0.0000e+00
      9.356      0.008     3.6299     34.226    125.926  95.991269    27.1800     2.2828     0.1278     0.2115 1.7039e+00    68.9232      9.175     13.308    13.0974 0.0000e+00
      9.358      0.006     3.6236     34.205    125.709  95.825152    27.6300     2.2904     0.1704     0.0846 1.6529e+00    68.9686      9.177     13.311    13.1037 0.0000e+00
      9.360      0.003     3.6129     34.218    125.350  95.542468    27.6300     1.8517     0.1704     0.0846 1.5489e+00    52.0040      9.179     13.313    13.1073 0.0000e+00
      9.361      0.000     3.6028     34.245    124.765  95.081822    27.6300     1.8517     0.1704     0.0846 1.3717e+00    52.0645      9.179     13.314    13.1096 0.0000e+00
      9.361     -0.003     3.5961     34.275    123.840  94.360335    27.6300     1.8937     0.1704     0.0846 1.3519e+00    52.0494      9.180     13.314    13.1110 0.0000e+00
      9.360     -0.007     3.5939     34.300    122.345  93.207587    27.8100     1.8517     0.1278     0.2115 1.4268e+00    52.0494      9.179     13.312    13.1106 0.0000e+00
      9.358     -0.012     3.5956     34.310    119.893  91.328166    27.8100     2.0501     0.1278     0.2115 1.4187e+00    30.5378      9.176     13.309    13.1070 0.0000e+00
      9.354     -0.018     3.5990     34.302    115.828  88.222892    27.8100     2.0958     0.1278     0.2115 1.4299e+00    30.5378      9.173     13.305    13.1011 0.0000e+00
      9.349     -0.025     3.6026     34.275    109.013  83.023731    27.8100     2.0310     0.1278     0.2115 1.4493e+00    30.4925      9.168     13.298    13.0947 0.0000e+00
      9.343     -0.033     3.6056     34.232     97.596  74.318265    27.5400     2.0653     0.1704     0.3807 1.4744e+00    30.4925      9.162     13.288    13.0892 0.0000e+00
      9.334     -0.043     3.6070     34.184     78.554  59.803018    27.5400     1.5236     0.1704     0.3807 1.4718e+00    20.1748      9.154     13.276    13.0851 0.0000e+00
      9.323     -0.056     3.6065     34.137     46.848  35.635230    27.5400     1.5046     0.1704     0.3807 1.4776e+00    20.0993      9.143     13.260    13.0821 0.0000e+00
      9.308     -0.073     3.6038     34.091     -5.957  -4.611858    27.5400     1.5046     0.1704     0.3807 1.4626e+00    20.0690      9.128     13.239    13.0799 0.0000e+00
      9.290     -0.094     3.5994     34.043    -93.960 -71.680796    27.2700     1.5046     0.1278     0.2115 1.4427e+00    20.1295      9.110     13.213    13.0783 0.0000e+00
      9.265     -0.121     3.5944     33.996   -240.665-183.478612    27.2700     1.2413     0.1278     0.2115 1.4212e+00    17.3046      9.086     13.178    13.0768 0.0000e+00
      9.234     -0.152     3.5896     33.962   -485.226-369.838038    27.2700     1.2451     0.1278     0.2115 1.5648e+00    17.1837      9.055     13.134    13.0750 0.0000e+00
      9.194     -0.188     3.5850     33.952   -638.128-486.333072    27.2700     1.2566     0.1278     0.2115 1.8030e+00    17.3801      9.016     13.076    13.0733 0.0000e+00
      9.143     -0.227     3.5800     33.974   -485.374-369.887228    27.2700     1.2757     0.1278     0.2115 2.0648e+00    17.2592      8.966     13.004    13.0725 0.0000e+00
      9.080     -0.265     3.5749     34.032   -240.934-183.574121    27.4500     0.8065     0.1704     0.1692 2.3570e+00     6.8660      8.904     12.914    13.0747 0.0000e+00
      9.004     -0.299     3.5708     34.130    -94.306 -71.814119    27.4500     0.8217     0.1704     0.1692 2.7526e+00     6.7754      8.830     12.807    13.0823 0.0000e+00
      8.918     -0.326     3.5688     34.282     -6.345  -4.778577    27.4500     0.8332     0.1704     0.1692 3.5975e+00     6.8358      8.746     12.685    13.0947 0.0000e+00
      8.825     -0.344     3.5700     34.502     46.409  35.412643    27.4500     0.8370     0.1704     0.1692 4.3660e+00     6.9416      8.655     12.553    13.1078 0.0000e+00
      8.730     -0.352     3.5752     34.791     78.063  59.517160    27.2700     0.6844     0.0852     0.2115 5.0933e+00    17.4103      8.561     12.417    13.1181 0.0000e+00
      8.636     -0.352     3.5850     35.138     97.073  73.990817    27.2700     0.7073     0.0852     0.2115 5.9688e+00    17.3801      8.469     12.283    13.1239 0.0000e+00
      8.546     -0.345     3.6010     35.528    108.480  82.681266    27.2700     0.7073     0.0852     0.2115 6.2761e+00    17.4707      8.381     12.155    13.1243 0.0000e+00
      8.459     -0.335     3.6244     35.950    115.317  87.901963    27.2700     0.6844     0.0852     0.2115 6.8803e+00    17.4405      8.296     12.032    13.1194 0.0000e+00
      8.376     -0.324     3.6554     36.399    119.425  91.053087    27.0900     0.5623     0.1278     0.2115 7.7269e+00     7.2437      8.214     11.913    13.1120 0.0000e+00
      8.295     -0.312     3.6923     36.859    121.896  92.966947    27.0900     0.5699     0.1278     0.2115 8.3574e+00     7.3041      8.135     11.798    13.1064 0.0000e+00
      8.217     -0.302     3.7333     37.319    123.359  94.121939    27.0900     0.5699     0.1278     0.2115 9.2903e+00     7.2437      8.058     11.687    13.1054 0.0000e+00
      8.141     -0.294     3.7773     37.776    124.199  94.806083    27.0900     0.5776     0.1278     0.2115 1.0461e+01     7.3192      7.984     11.580    13.1094 0.0000e+00
      8.069     -0.289     3.8238     38.241    124.701  95.231788    27.0900     0.5661     0.1278     0.2115 1.0665e+01     5.4309      7.913     11.477    13.1175 0.0000e+00
      7.999     -0.288     3.8711     38.740    125.046  95.538552    27.0900     0.5852     0.1278     0.1692 1.0424e+01     5.5064      7.844     11.377    13.1298 0.0000e+00
      7.929     -0.289     3.9179     39.304    125.286  95.770217    27.0900     0.5776     0.1278     0.1692 1.1327e+01     5.3252      7.775     11.277    13.1458 0.0000e+00
      7.855     -0.293     3.9643     39.935    125.436  95.940611    27.0900     0.5852     0.1278     0.1692 1.3343e+01     5.4460      7.703     11.173    13.1632 0.0000e+00
      7.779     -0.299     4.0116     40.606    125.524  96.071196    27.0900     0.5966     0.1278     0.1692 1.5060e+01     3.0139      7.629     11.064    13.1804 0.0000e+00
      7.701     -0.306     4.0624     41.287    125.567  96.174820    27.2700     0.5661     0.1704     0.2115 1.5441e+01     3.0139      7.552     10.954    13.1978 0.0000e+00
      7.622     -0.313     4.1197     41.951    125.577  96.267128    27.2700     0.5966     0.1704     0.2115 1.6763e+01     2.9384      7.475     10.842    13.2172 0.0000e+00
      7.541     -0.318     4.1836     42.573    125.600  96.386725    27.2700     0.5928     0.1704     0.2115 1.9010e+01     3.1045      7.396     10.727    13.2397 0.0000e+00
      7.459     -0.321     4.2516     43.119    125.667  96.563508    27.2700     0.7759     0.1704     0.2115 2.1004e+01     2.4701      7.315     10.609    13.2647 0.0000e+00
      7.375     -0.324     4.3201     43.558    125.752  96.784681    27.5400     0.7492     0.1704     0.3384 2.2763e+01     2.5305      7.233     10.490    13.2931 0.0000e+00
      7.292     -0.327     4.3864     43.871    125.816  97.019314    27.5400     0.7492     0.1704     0.3384 2.4894e+01     2.5305      7.151     10.372    13.3267 0.0000e+00
      7.209     -0.330     4.4474     44.050    125.851  97.256053    27.5400     0.7569     0.1704     0.3384 2.5978e+01     2.5607      7.070     10.253    13.3672 0.0000e+00
      7.126     -0.335     4.4995     44.090    125.880  97.516074    27.5400     1.1498     0.1704     0.3384 2.6973e+01     2.5607      6.988     10.135    13.4171 0.0000e+00
      7.042     -0.342     4.5392     43.975    125.947  97.844744    27.6300     1.1498     0.1704     0.4230 2.8984e+01     2.4398      6.905     10.015    13.4788 0.0000e+00
      6.955     -0.351     4.5646     43.698    126.074  98.285756    27.6300     1.1269     0.1704     0.4230 3.0265e+01     2.5305      6.820      9.892    13.5523 0.0000e+00
      6.865     -0.362     4.5750     43.288    126.233  98.850815    27.6300     1.1154     0.1704     0.4230 3.3287e+01     2.4852      6.732      9.764    13.6358 0.0000e+00
      6.771     -0.375     4.5697     42.828    126.420  99.564726    27.6300     1.9356     0.1704     0.4230 3.6635e+01     2.2435      6.640      9.631    13.7301 0.0000e+00
      6.674     -0.388     4.5471     42.439    126.601 100.434036    27.6300     1.9432     0.1704     0.4230 3.9814e+01     2.3039      6.545      9.493    13.8399 0.0000e+00
      6.573     -0.402     4.5053     42.272    126.608 101.352850    27.7200     1.9165     0.1704     0.8460 4.4096e+01     2.3945      6.446      9.349    13.9754 0.0000e+00
      6.469     -0.414     4.4461     42.502    126.379 102.240470    27.7200     1.9242     0.1704     0.8460 4.8351e+01     2.3341      6.344      9.201    14.1505 0.0000e+00
      6.360     -0.424     4.3769     43.292    125.984 103.081816    27.7200     3.5378     0.1704     0.8460 5.8059e+01     1.8507      6.237      9.047    14.3758 0.0000e+00
      6.249     -0.432     4.3091     44.759    125.475 103.841467    27.7200     3.5149     0.1704     0.8460 6.4218e+01     1.8809      6.128      8.888    14.6646 0.0000e+00
      6.136     -0.438     4.2570     46.965    125.012 104.580141    27.4500     3.5187     0.1278     0.8460 6.8425e+01     1.8507      6.018      8.728    15.0280 0.0000e+00
      6.023     -0.440     4.2387     49.889    124.651 105.346939    27.4500     3.5569     0.1278     0.8460 7.3993e+01     1.8658      5.906      8.566    15.4544 0.0000e+00
      5.910     -0.441     4.2719     53.448    124.279 106.098512    27.4500     5.8991     0.1278     0.8460 7.8430e+01     2.0924      5.796      8.406    15.9173 0.0000e+00
      5.797     -0.440     4.3695     57.519    123.908 106.869406    27.4500     5.9220     0.1278     0.8460 8.3859e+01     2.1377      5.685      8.246    16.3870 0.0000e+00
      5.685     -0.438     4.5385     61.945    123.602 107.731295    26.3700     5.8801     0.1704     1.2690 9.1018e+01     2.1528      5.576      8.087    16.8354 0.0000e+00
      5.574     -0.437     4.7755     66.567    123.361 108.716146    26.3700     5.9068     0.1704     1.2690 9.7170e+01     2.1679      5.466      7.929    17.2636 0.0000e+00
      5.463     -0.437     5.0688     71.262    123.060 109.748761    26.3700     6.7651     0.1704     1.2690 1.0750e+02     2.1075      5.358      7.771    17.6920 0.0000e+00
      5.352     -0.436     5.4046     75.971    122.603 110.720697    26.3700     6.7651     0.1704     1.2690 1.1580e+02     2.1377      5.249      7.613    18.1307 0.0000e+00
      5.241     -0.436     5.7661     80.692    122.048 111.601290    24.9300     6.7460     0.0852     1.0998 1.2373e+02     2.1679      5.140      7.455    18.5864 0.0000e+00
      5.130     -0.436     6.1358     85.447    121.465 112.389488    24.9300     6.7651     0.0852     1.0998 1.3304e+02     2.1981      5.030      7.296    19.0716 0.0000e+00
      5.018     -0.435     6.4998     90.242    120.932 113.117575    24.9300     4.8730     0.0852     1.0998 1.3874e+02     1.3975      4.921      7.138    19.6010 0.0000e+00
      4.907     -0.433     6.8535     95.006    120.439 113.751799    24.9300     4.8997     0.0852     1.0998 1.4703e+02     1.3522      4.812      6.979    20.1651 0.0000e+00
      4.796     -0.430     7.2009     99.568    119.985 114.275361    24.9300     4.8386     0.0852     1.0998 1.5236e+02     1.4579      4.703      6.822    20.7318 0.0000e+00
      4.687     -0.425     7.5476    103.663    119.685 114.801922    20.3400     4.8615     0.0852     0.5922 1.6007e+02     1.3522      4.596      6.666    21.2755 0.0000e+00
      4.578     -0.420     7.8974    106.976    119.515 115.375931    20.3400     2.2942     0.0852     0.5922 1.6747e+02     2.1679      4.490      6.512    21.7785 0.0000e+00
      4.471     -0.414     8.2462    109.297    119.375 115.966495    20.3400     2.2828     0.0852     0.5922 1.7332e+02     2.1679      4.385      6.360    22.2312 0.0000e+00
      4.366     -0.407     8.5816    110.595    119.232 116.563134    20.3400     2.2980     0.0852     0.5922 1.7933e+02     2.0320      4.282      6.211    22.6257 0.0000e+00
      4.263     -0.400     8.8819    110.959    119.085 117.176986    16.1100     2.3285     0.0426     0.3384 1.8976e+02     2.1377      4.181      6.064    22.9626 0.0000e+00
      4.162     -0.391     9.1170    110.564    118.901 117.785773    16.1100     1.3748     0.0426     0.3384 1.9393e+02     1.9564      4.082      5.921    23.2689 0.0000e+00
      4.063     -0.383     9.2657    109.655    118.639 118.325868    16.1100     1.3710     0.0426     0.3384 2.0560e+02     1.9715      3.985      5.780    23.5716 0.0000e+00
      3.967     -0.375     9.3251    108.513    118.339 118.789330    16.1100     1.3787     0.0426     0.3384 2.1076e+02     1.8809      3.890      5.642    23.8797 0.0000e+00
      3.873     -0.367     9.3032    107.351    118.043 119.179776    13.0500     1.3405     0.0426     0.1692 2.1260e+02     1.9715      3.798      5.509    24.1979 0.0000e+00
      3.781     -0.361     9.2151    106.286    117.755 119.471346    13.0500     1.3748     0.0426     0.1692 2.1632e+02     1.8809      3.708      5.378    24.5302 0.0000e+00
      3.691     -0.356     9.0839    105.358    117.517 119.679814    13.0500     1.3710     0.0426     0.1692 2.1670e+02     1.2918      3.619      5.250    24.8674 0.0000e+00
      3.602     -0.352     8.9367    104.548    117.355 119.844787    13.0500     1.3520     0.0426     0.1692 2.1389e+02     1.3975      3.532      5.123    25.1892 0.0000e+00
      3.513     -0.350     8.7938    103.831    117.221 119.958259    13.0500     1.3558     0.0426     0.1692 2.1135e+02     1.3673      3.445      4.997    25.4802 0.0000e+00
      3.424     -0.349     8.6669    103.211    117.121 120.046496    12.3300     1.3672     0.0852     0.3384 2.0699e+02     1.3371      3.358      4.870    25.7266 0.0000e+00
      3.335     -0.348     8.5608    102.682    117.084 120.175038    12.3300     0.9552     0.0852     0.3384 2.0600e+02     0.8990      3.271      4.744    25.9169 0.0000e+00
      3.247     -0.349     8.4728    102.233    117.042 120.314152    12.3300     0.9209     0.0852     0.3384 2.0449e+02     0.8990      3.184      4.618    26.0569 0.0000e+00
      3.158     -0.350     8.3981    101.883    116.962 120.412933    12.3300     0.9667     0.0852     0.3384 1.9866e+02     0.8537      3.097      4.492    26.1626 0.0000e+00
      3.069     -0.351     8.3353    101.649    116.903 120.487738    12.1500     0.9362     0.0852     0.1692 1.9634e+02     0.9443      3.010      4.365    26.2438 0.0000e+00
      2.980     -0.353     8.2817    101.523    116.884 120.566521    12.1500     0.6806     0.0852     0.1692 1.9600e+02     0.6422      2.923      4.239    26.3144 0.0000e+00
      2.890     -0.356     8.2338    101.495    116.887 120.662288    12.1500     0.6958     0.0852     0.1692 1.9287e+02     0.6422      2.835      4.111    26.3921 0.0000e+00
      2.799     -0.359     8.1940    101.548    116.912 120.788577    12.1500     0.7073     0.0852     0.1692 1.8803e+02     0.7177      2.745      3.982    26.4694 0.0000e+00
      2.707     -0.362     8.1665    101.657    116.961 120.949064    11.6100     0.7149     0.0000     0.2115 1.8693e+02     0.5969      2.655      3.850    26.5274 0.0000e+00
      2.614     -0.366     8.1501    101.816    116.988 121.098535    11.6100     0.5852     0.0000     0.2115 1.8499e+02     0.6422      2.564      3.718    26.5691 0.0000e+00
      2.520     -0.369     8.1420    102.028    116.972 121.206840    11.6100     0.5776     0.0000     0.2115 1.7740e+02     0.6573      2.472      3.585    26.6087 0.0000e+00
      2.426     -0.372     8.1399    102.280    116.952 121.302871    11.6100     0.5699     0.0000     0.2115 1.7212e+02     0.6724      2.379      3.450    26.6515 0.0000e+00
      2.331     -0.374     8.1417    102.541    116.950 121.408239    11.4300     0.5661     0.0426     0.1692 1.7227e+02     0.6724      2.286      3.316    26.6983 0.0000e+00
      2.235     -0.376     8.1467    102.794    116.962 121.521042    11.4300     0.4860     0.0426     0.1692 1.6897e+02     0.3703      2.192      3.180    26.7502 0.0000e+00
      2.138     -0.378     8.1559    103.043    116.972 121.627355    11.4300     0.4708     0.0426     0.1692 1.6562e+02     0.4005      2.097      3.042    26.8037 0.0000e+00
      2.041     -0.379     8.1686    103.296    116.976 121.725526    11.4300     0.4708     0.0426     0.1692 1.6337e+02     0.2947      2.002      2.903    26.8537 0.0000e+00
      1.945     -0.379     8.1827    103.546    116.989 121.833735    11.4300     0.4631     0.0426     0.1692 1.6476e+02     0.4760      1.907      2.766    26.8995 0.0000e+00
      1.848     -0.381     8.1966    103.779    116.995 121.934833    11.2500     0.3525     0.0852     0.1269 1.6295e+02     0.2494      1.812      2.629    26.9425 0.0000e+00
      1.752     -0.383     8.2104    103.993    116.971 121.991769    11.2500     0.3449     0.0852     0.1269 1.6348e+02     0.1739      1.718      2.492    26.9835 0.0000e+00
      1.655     -0.387     8.2247    104.185    116.943 122.023734    11.2500     0.3487     0.0852     0.1269 1.6203e+02     0.1286      1.623      2.354    27.0235 0.0000e+00
      1.557     -0.392     8.2386    104.341    116.938 122.065260    11.2500     0.3678     0.0852     0.1269 1.6516e+02     0.1437      1.527      2.215    27.0642 0.0000e+00
      1.457     -0.397     8.2512    104.456    116.944 122.115418    11.0700     0.3525     0.0426     0.1692 1.7085e+02     0.4609      1.429      2.072    27.1046 0.0000e+00
      1.354     -0.402     8.2631    104.554    116.952 122.175581    11.0700     0.3639     0.0426     0.1692 1.7223e+02     0.3552      1.328      1.926    27.1395 0.0000e+00
      1.249     -0.405     8.2745    104.667    116.966 122.251793    11.0700     0.3525     0.0426     0.1692 1.7063e+02     0.3249      1.225      1.777    27.1657 0.0000e+00
      1.144     -0.405     8.2839    104.804    116.986 122.346375    11.0700     0.3678     0.0426     0.1692 1.8110e+02     0.3552      1.122      1.628    27.1858 0.0000e+00
      1.040     -0.400     8.2902    104.953    117.024 122.472550    11.1600     0.2800     0.0426     0.1269 1.7945e+02     0.0983      1.020      1.479    27.2047 0.0000e+00
      0.937     -0.390     8.2947    105.095    117.078 122.629958    11.1600     0.2800     0.0426     0.1269 1.8600e+02     0.1739      0.918      1.332    27.2267 0.0000e+00
      0.835     -0.375     8.2997    105.220    117.126 122.796565    11.1600     0.2876     0.0426     0.1269 1.9013e+02     0.3400      0.819      1.188    27.2531 0.0000e+00
      0.739     -0.353     8.3060    105.343    117.173 122.970791    11.1600     0.3067     0.0426     0.1269 1.9875e+02     0.1890      0.724      1.051    27.2844 0.0000e+00
      0.649     -0.326     8.3123    105.481    117.221 123.149091    11.1600     0.2228     0.0426     0.1269 1.9587e+02     0.0832      0.636      0.923    27.3213 0.0000e+00
      0.567     -0.294     8.3172    105.619    117.239 123.294992    10.9800     0.2152     0.0426     0.0423 1.8722e+02     0.2494      0.556      0.807    27.3644 0.0000e+00
      0.495     -0.259     8.3196    105.728    117.231 123.409396    10.9800     0.2228     0.0426     0.0423 2.4305e+02     0.1739      0.485      0.705    27.4139 0.0000e+00
      0.433     -0.222     8.3214    105.786    117.248 123.542824    10.9800     0.2037     0.0426     0.0423 2.1482e+02     0.1739      0.425      0.617    27.4674 0.0000e+00
      0.382     -0.186     8.3243    105.779    117.304 123.714855    10.9800     0.2266     0.0426     0.0423 2.0302e+02     1.6241      0.375      0.544    27.5219 0.0000e+00
      0.342     -0.152     8.3271    105.725    117.384 123.913351    10.5300     0.2304     0.0426     0.2115 2.3054e+02     1.5486      0.335      0.486    27.5761 0.0000e+00
      0.310     -0.122     8.3280    105.669    117.471 124.123226    10.5300     0.2419     0.0426     0.2115 1.8943e+02     1.6543      0.304      0.441    27.6283 0.0000e+00
      0.285     -0.095     8.3253    105.634    117.529 124.308421    10.5300     0.2342     0.0426     0.2115 2.1048e+02     1.5939      0.279      0.405    27.6777 0.0000e+00
      0.265     -0.073     8.3177    105.613    117.528 124.430298    10.5300     0.2381     0.0426     0.2115 1.8771e+02     5.0684      0.260      0.377    27.7258 0.0000e+00
      0.250     -0.056     8.3063    105.597    117.473 124.479348    10.4400     0.2152     0.0426     0.1692 1.8008e+02     5.1439      0.245      0.356    27.7743 0.0000e+00
      0.240     -0.043     8.2944    105.592    117.399 124.480664    10.4400     0.2304     0.0426     0.1692 2.1408e+02     5.1288      0.235      0.341    27.8247 0.0000e+00
      0.232     -0.033     8.2839    105.612    117.336 124.470612    10.4400     0.2152     0.0426     0.1692 2.0440e+02     5.0986      0.228      0.331    27.8776 0.0000e+00
      0.227     -0.026     8.2746    105.655    117.289 124.464519    10.4400     0.2228     0.0426     0.1692 1.8323e+02     3.7692      0.222      0.323    27.9300 0.0000e+00
      0.222     -0.022     8.2667    105.695    117.259 124.466765    10.5300     0.2075     0.0426     0.1269 2.3494e+02     3.7390      0.218      0.316    27.9753 0.0000e+00
      0.218     -0.021     8.2612    105.705    117.246 124.481951    10.5300     0.2190     0.0426     0.1269 1.9469e+02     3.7088      0.214      0.309    28.0095 0.0000e+00
      0.213     -0.023     8.2593    105.666    117.255 124.514127    10.5300     0.2152     0.0426     0.1269 2.0013e+02     3.7843      0.209      0.303    28.0339 0.0000e+00
      0.208     -0.029     8.2600    105.569    117.269 124.541864    10.5300     0.1541     0.0426     0.1269 1.9216e+02    -0.4002      0.204      0.296    28.0521 0.0000e+00
      0.202     -0.039     8.2609    105.430    117.253 124.526544    10.5300     0.1656     0.0426     0.1269 1.9566e+02    -0.2340      0.198      0.288    28.0670 0.0000e+00
      0.194     -0.053     8.2599    105.288    117.215 124.476084    10.4400     0.1656     0.0426     0.0846 1.9146e+02    -0.2491      0.190      0.275    28.0794 0.0000e+00
      0.181     -0.073     8.2555    105.171    117.184 124.425046    10.4400     0.1579     0.0426     0.0846 1.9570e+02    -0.2642      0.177      0.257    28.0888 0.0000e+00
      0.162     -0.097     8.2471    105.071    117.165 124.379826    10.4400     0.1770     0.0426     0.0846 1.8881e+02    -0.3549      0.159      0.230    28.0943 0.0000e+00
      0.136     -0.125     8.2362    104.940    117.160 124.346370    10.4400     0.1808     0.0426     0.0846 1.9363e+02    -0.3549      0.133      0.194    28.0948 0.0000e+00
      0.102     -0.154     8.2257    104.698    117.169 124.329760    10.4400     0.1541     0.0426     0.1269 1.7770e+02    -0.4153      0.100      0.145    28.0906 0.0000e+00
      0.057     -0.180     8.2177    104.255    117.160 124.299556    10.4400     0.1770     0.0426     0.1269 2.4231e+02    -0.3549      0.056      0.082    28.0828 0.0000e+00
      0.004     -0.201     8.2114    103.508    117.119 124.231698    10.4400     0.1198     0.0426     0.1269 3.2105e+02     0.6271      0.003      0.005    28.0722 0.0000e+00
     -0.056     -0.212     8.2028    102.353    117.059 124.132101    10.4400     0.1236     0.0426     0.1269 1.9727e+03     0.6573     -0.055     -0.080    28.0601 0.0000e+00
     -0.118     -0.212     8.1855    100.766    116.993 124.012216    10.4400     0.1198     0.0426     0.1692 6.9514e+02     0.6120     -0.116     -0.168    28.0491 0.0000e+00
     -0.177     -0.202     8.1522     98.852    116.921 123.876086    10.4400     0.1007     0.0426     0.1692 1.3967e+03     0.6120     -0.174     -0.253    28.0401 0.0000e+00
     -0.231     -0.184     8.0952     96.797    116.832 123.715413    10.4400     1.1994     0.0426     0.1692 2.0951e+03     5.8237     -0.227     -0.329    28.0298 0.0000e+00
     -0.276     -0.161     8.0069     94.808    116.709 123.513358    10.4400     1.1803     0.0426     0.1692 1.8769e+03     5.8690     -0.271     -0.393    28.0143 0.0000e+00
     -0.312     -0.136     7.8856     93.066    116.491 123.206032    10.4400     1.1994     0.0426     0.1692 6.2141e+02     5.8388     -0.306     -0.444    27.9929 0.0000e+00
     -0.341     -0.112     7.7393     91.763    116.048 122.661460     4.6800     1.1650    -0.0852     0.5922 2.2508e+03     5.8388     -0.334     -0.485    27.9670 0.0000e+00
     -0.364     -0.091     7.5823     91.081    115.213 121.712411     4.6800    -1.9287    -0.0852     0.5922 2.1862e+03     6.5639     -0.357     -0.518    27.9384 0.0000e+00
     -0.383     -0.073     7.4305     91.048    113.759 120.117807     4.6800    -1.9287    -0.0852     0.5922 1.3846e+03     6.6092     -0.376     -0.545    27.9073 0.0000e+00
     -0.398     -0.059     7.2984     91.418    111.299 117.464422     4.6800    -1.9364    -0.0852     0.5922 6.4661e+02     6.6092     -0.391     -0.567    27.8738 0.0000e+00
     -0.410     -0.048     7.2005     91.788    107.174 113.060689     0.0000    -1.9173    -0.2556    -1.0575 6.2195e+02     6.5186     -0.402     -0.584    27.8404 0.0000e+00
     -0.420     -0.039     7.1510     91.827    100.293 105.760284     0.0000     0.9438    -0.2556    -1.0575 9.4067e+02     1.3220     -0.411     -0.597    27.8104 0.0000e+00
     -0.427     -0.032     7.1520     91.470     88.826  93.638439     0.0000     0.9476    -0.2556    -1.0575 8.9578e+02     1.3371     -0.418     -0.607    27.7829 0.0000e+00
     -0.432     -0.026     7.1847     90.885     72.639  76.554199     0.0000     0.9247    -0.2556    -1.0575 7.9160e+02     1.3220     -0.424     -0.615    27.7552 0.0000e+00
     -0.437     -0.023     7.2173     90.292     56.404  59.430394     0.0000     0.9781     0.0000     0.6768 9.6196e+02     1.3673     -0.428     -0.621    27.7284 0.0000e+00
     -0.440     -0.021     7.2237     89.852     45.650  48.090166     0.0000    -0.3227     0.0000     0.6768 9.1985e+02     0.7026     -0.431     -0.625    27.7034 0.0000e+00
     -0.442     -0.020     7.1987     89.688     42.110  44.357850     0.0000    -0.3494     0.0000     0.6768 8.0653e+02     0.7026     -0.433     -0.629    27.6799 0.0000e+00
     -0.444 -9.990e-29     7.1558 -9.990e-29 -9.990e-29 -9.990e-29     0.0000 -9.990e-29     0.0000     0.6768 6.9002e+02 -9.990e-29     -0.435     -0.631    27.6576 0.0000e+00
     -0.445 -9.990e-29     7.1119 -9.990e-29 -9.990e-29 -9.990e-29     0.0000 -9.990e-29     0.0000    -0.3384 6.1576e+02 -9.990e-29     -0.436     -0.633    27.6372 0.0000e+00
     -0.446 -9.990e-29     7.0795 -9.990e-29 -9.990e-29 -9.990e-29     0.0000 -9.990e-29     0.0000    -0.3384 5.3106e+02 -9.990e-29     -0.437     -0.634    27.6213 0.0000e+00
     -0.446 -9.990e-29     7.0674 -9.990e-29 -9.990e-29 -9.990e-29     0.0000 -9.990e-29     0.0000    -0.3384 6.7563e+02 -9.990e-29     -0.437     -0.634    27.6150 0.0000e+00
