* Sea-Bird SBE19plus  Data File:
* FileName = C:\R\Reservoirs\Data\DataNotYetUploadedToEDI\Raw_CTD\RawDownloads\081424_ccr50_S8188_0005.hex
* Software version 2.8.0.119
* Temperature SN = 8188
* Conductivity SN = 8188
* System UpLoad Time = Aug 16 2024 10:37:54
* <ApplicationData>
* <Seaterm232>
* <SoftwareVersion>2.8.0.119</SoftwareVersion>
* <BuildDate>07-Nov-2018</BuildDate>
* </Seaterm232>
* </ApplicationData>
* <InstrumentState>
* <HardwareData DeviceType='SBE19plus' SerialNumber='01908188'>
*
*    <Manufacturer>Sea-Bird Electronics, Inc.</Manufacturer>
*
*    <FirmwareVersion>3.1.8</FirmwareVersion>
*
*    <FirmwareDate>Mar  9 2016 16:22:29</FirmwareDate>
*
*    <CommandSetVersion>1.4</CommandSetVersion>
*
*    <PCBAssembly PCBSerialNum='260079' AssemblyNum='41054K'/>
*
*    <PCBAssembly PCBSerialNum='260083' AssemblyNum='41059E'/>
*
*    <PCBAssembly PCBSerialNum='260085' AssemblyNum='41606B'/>
*
*    <PCBAssembly PCBSerialNum='260081' AssemblyNum='41967C'/>
*
*    <MfgDate>30 Mar 2022</MfgDate>
*
*    <InternalSensors>
*
*       <Sensor id='Main Temperature'>
*
*          <type>temperature0</type>
*
*          <SerialNumber>01908188</SerialNumber>
*
*       </Sensor>
*
*       <Sensor id='Main Conductivity'>
*
*          <type>conductivity-0</type>
*
*          <SerialNumber>01908188</SerialNumber>
*
*       </Sensor>
*
*       <Sensor id='Main Pressure'>
*
*          <type>strain-0</type>
*
*          <SerialNumber>12220741</SerialNumber>
*
*       </Sensor>
*
*    </InternalSensors>
*
*    <ExternalSensors>
*
*       <Sensor id='volt 0'>
*
*          <type>CHL</type>
*
*          <SerialNumber>FLNTURT-7096</SerialNumber>
*
*       </Sensor>
*
*       <Sensor id='volt 1'>
*
*          <type>NTU</type>
*
*          <SerialNumber>FLNTURT-7096</SerialNumber>
*
*       </Sensor>
*
*       <Sensor id='volt 2'>
*
*          <type>OXY</type>
*
*          <SerialNumber>43-4269</SerialNumber>
*
*       </Sensor>
*
*       <Sensor id='volt 3'>
*
*          <type>not assigned</type>
*
*          <SerialNumber>not assigned</SerialNumber>
*
*       </Sensor>
*
*       <Sensor id='volt 4'>
*
*          <type>PAR</type>
*
*          <SerialNumber>PARLOGICSW-2209</SerialNumber>
*
*       </Sensor>
*
*       <Sensor id='volt 5'>
*
*          <type>not assigned</type>
*
*          <SerialNumber>not assigned</SerialNumber>
*
*       </Sensor>
*
*       <Sensor id='serial'>
*
*          <type>WETLABS</type>
*
*          <SerialNumber>FL3-7350</SerialNumber>
*
*       </Sensor>
*
*    </ExternalSensors>
*
* </HardwareData>
* <StatusData DeviceType='SBE19plus' SerialNumber='01908188'>
*
*    <DateTime>2024-08-16T10:35:18</DateTime>
*
*    <LoggingState>not logging</LoggingState>
*
*    <EventSummary numEvents='0'/>
*
*    <Power>
*
*       <vMain>12.4</vMain>
*
*       <vLith>8.6</vLith>
*
*       <iMain>61.7</iMain>
*
*       <iPump>49.8</iPump>
*
*       <iExt01>21.9</iExt01>
*
*       <iExt2345>21.1</iExt2345>
*
*       <iSerial>55.5</iSerial>
*
*    </Power>
*
*    <MemorySummary>
*
*       <Bytes>279875</Bytes>
*
*       <Samples>11195</Samples>
*
*       <SamplesFree>2620730</SamplesFree>
*
*       <SampleLength>25</SampleLength>
*
*       <Profiles>7</Profiles>
*
*    </MemorySummary>
*
* </StatusData>
* <ConfigurationData DeviceType='SBE19plus' SerialNumber='01908188'>
*
*    <ProfileMode>
*
*       <ScansToAverage>1</ScansToAverage>
*
*       <MinimumCondFreq>2</MinimumCondFreq>
*
*       <PumpDelay>90</PumpDelay>
*
*       <AutoRun>no</AutoRun>
*
*       <IgnoreSwitch>no</IgnoreSwitch>
*
*    </ProfileMode>
*
*    <Battery>
*
*       <Type>alkaline</Type>
*
*       <CutOff>7.5</CutOff>
*
*    </Battery>
*
*    <DataChannels>
*
*       <ExtVolt0>yes</ExtVolt0>
*
*       <ExtVolt1>yes</ExtVolt1>
*
*       <ExtVolt2>yes</ExtVolt2>
*
*       <ExtVolt3>no</ExtVolt3>
*
*       <ExtVolt4>yes</ExtVolt4>
*
*       <ExtVolt5>no</ExtVolt5>
*
*       <SBE38>no</SBE38>
*
*       <WETLABS>yes</WETLABS>
*
*       <OPTODE>no</OPTODE>
*
*       <SBE63>no</SBE63>
*
*       <SeaFET>no</SeaFET>
*
*       <GTD>no</GTD>
*
*    </DataChannels>
*
*    <EchoCharacters>yes</EchoCharacters>
*
*    <OutputExecutedTag>yes</OutputExecutedTag>
*
*    <OutputFormat>raw HEX</OutputFormat>
*
* </ConfigurationData>
* <CalibrationCoefficients DeviceType='SBE19plus' SerialNumber='01908188'>
*
*    <Calibration format='TEMP1' id='Main Temperature'>
*
*       <SerialNum>01908188</SerialNum>
*
*       <CalDate>07-May-24</CalDate>
*
*       <TA0>1.249325e-03</TA0>
*
*       <TA1>2.751683e-04</TA1>
*
*       <TA2>-1.314205e-06</TA2>
*
*       <TA3>1.914222e-07</TA3>
*
*       <TOFFSET>0.000000e+00</TOFFSET>
*
*    </Calibration>
*
*    <Calibration format='WBCOND0' id='Main Conductivity'>
*
*       <SerialNum>01908188</SerialNum>
*
*       <CalDate>07-May-24</CalDate>
*
*       <G>-1.014855e+00</G>
*
*       <H>1.444624e-01</H>
*
*       <I>-3.430060e-04</I>
*
*       <J>4.842261e-05</J>
*
*       <CPCOR>-9.570000e-08</CPCOR>
*
*       <CTCOR>3.250000e-06</CTCOR>
*
*       <CSLOPE>1.000000e+00</CSLOPE>
*
*    </Calibration>
*
*    <Calibration format='STRAIN0' id='Main Pressure'>
*
*       <SerialNum>12220741</SerialNum>
*
*       <CalDate>03-Apr-24</CalDate>
*
*       <PA0>7.209200e-02</PA0>
*
*       <PA1>4.836684e-04</PA1>
*
*       <PA2>-3.501227e-12</PA2>
*
*       <PTCA0>5.244614e+05</PTCA0>
*
*       <PTCA1>2.020364e+01</PTCA1>
*
*       <PTCA2>-6.074616e-01</PTCA2>
*
*       <PTCB0>2.522087e+01</PTCB0>
*
*       <PTCB1>5.750000e-04</PTCB1>
*
*       <PTCB2>0.000000e+00</PTCB2>
*
*       <PTEMPA0>-5.770713e+01</PTEMPA0>
*
*       <PTEMPA1>5.343973e+01</PTEMPA1>
*
*       <PTEMPA2>-5.775530e-01</PTEMPA2>
*
*       <POFFSET>7.020000e-01</POFFSET>
*
*       <PRANGE>1.600000e+02</PRANGE>
*
*    </Calibration>
*
*    <Calibration format='VOLT0' id='Volt 0'>
*
*       <OFFSET>-4.657200e-02</OFFSET>
*
*       <SLOPE>1.248989e+00</SLOPE>
*
*    </Calibration>
*
*    <Calibration format='VOLT0' id='Volt 1'>
*
*       <OFFSET>-4.600800e-02</OFFSET>
*
*       <SLOPE>1.249849e+00</SLOPE>
*
*    </Calibration>
*
*    <Calibration format='VOLT0' id='Volt 2'>
*
*       <OFFSET>-4.668000e-02</OFFSET>
*
*       <SLOPE>1.250379e+00</SLOPE>
*
*    </Calibration>
*
*    <Calibration format='VOLT0' id='Volt 3'>
*
*       <OFFSET>-4.643200e-02</OFFSET>
*
*       <SLOPE>1.251002e+00</SLOPE>
*
*    </Calibration>
*
*    <Calibration format='VOLT0' id='Volt 4'>
*
*       <OFFSET>-4.606100e-02</OFFSET>
*
*       <SLOPE>1.249962e+00</SLOPE>
*
*    </Calibration>
*
*    <Calibration format='VOLT0' id='Volt 5'>
*
*       <OFFSET>-4.642700e-02</OFFSET>
*
*       <SLOPE>1.248530e+00</SLOPE>
*
*    </Calibration>
*
*    <Calibration format='FREQ0' id='external frequency channel'>
*
*       <EXTFREQSF>1.000018e+00</EXTFREQSF>
*
*    </Calibration>
*
* </CalibrationCoefficients>
* <EventCounters DeviceType='SBE19plus' SerialNumber='01908188'>
*
*    <EventSummary numEvents='0'/>
*
* </EventCounters></InstrumentState>
* <Headers>
*
* cast   5 15 Aug 2024 15:35:21 samples 8434 to 9377, avg = 1, stop = mag switch
*
# nquan = 13
# nvalues = 944                         
# units = specified
# name 0 = depFM: Depth [fresh water, m]
# name 1 = dz/dtM: Descent Rate [m/s]
# name 2 = sbeox0Mg/L: Oxygen, SBE 43 [mg/l]
# name 3 = sbeox0PS: Oxygen, SBE 43 [% saturation]
# name 4 = specc: Specific Conductance [uS/cm]
# name 5 = c0uS/cm: Conductivity [uS/cm]
# name 6 = flECO-AFL: Fluorescence, WET Labs ECO-AFL/FL [mg/m^3]
# name 7 = par/sat/log: PAR/Logarithmic, Satlantic
# name 8 = turbWETntu0: Turbidity, WET Labs ECO [NTU]
# name 9 = prdM: Pressure, Strain Gauge [db]
# name 10 = prdE: Pressure, Strain Gauge [psi]
# name 11 = tv290C: Temperature [ITS-90, deg C]
# name 12 = flag:  0.000e+00
# span 0 =     -0.454,      9.378       
# span 1 =     -0.491,      0.198       
# span 2 =     2.7182,    10.4502       
# span 3 =     26.681,    130.953       
# span 4 =  -1610.654,    127.421       
# span 5 = -1.227e+03, 125.086861       
# span 6 =    -2.0012,    23.1865       
# span 7 = 1.3822e+00, 2.0022e+03       
# span 8 =    -2.1581,    90.7185       
# span 9 =     -0.446,      9.198       
# span 10 =     -0.647,     13.340      
# span 11 =    13.0144,    28.2679      
# span 12 = 0.0000e+00, 0.0000e+00      
# interval = seconds: 0.25
# start_time = Aug 15 2024 15:35:21 [Instrument's time stamp, header]
# bad_flag = -9.990e-29
# <Sensors count="10" >
#   <sensor Channel="1" >
#     <!-- Count, Temperature -->
#     <TemperatureSensor SensorID="58" >
#       <SerialNumber>8188</SerialNumber>
#       <CalibrationDate>07-May-24</CalibrationDate>
#       <A0>1.24932504e-003</A0>
#       <A1>2.75168293e-004</A1>
#       <A2>-1.31420465e-006</A2>
#       <A3>1.91422179e-007</A3>
#       <Slope>1.00000000</Slope>
#       <Offset>0.0000</Offset>
#     </TemperatureSensor>
#   </sensor>
#   <sensor Channel="2" >
#     <!-- Frequency 0, Conductivity -->
#     <ConductivitySensor SensorID="3" >
#       <SerialNumber>8188</SerialNumber>
#       <CalibrationDate>07-May-24</CalibrationDate>
#       <UseG_J>1</UseG_J>
#       <!-- Cell const and series R are applicable only for wide range sensors. -->
#       <SeriesR>0.0000</SeriesR>
#       <CellConst>2000.0000</CellConst>
#       <ConductivityType>0</ConductivityType>
#       <Coefficients equation="0" >
#         <A>0.00000000e+000</A>
#         <B>0.00000000e+000</B>
#         <C>0.00000000e+000</C>
#         <D>0.00000000e+000</D>
#         <M>0.0</M>
#         <CPcor>-9.57000000e-008</CPcor>
#       </Coefficients>
#       <Coefficients equation="1" >
#         <G>-1.01485473e+000</G>
#         <H>1.44462400e-001</H>
#         <I>-3.43006030e-004</I>
#         <J>4.84226116e-005</J>
#         <CPcor>-9.57000000e-008</CPcor>
#         <CTcor>3.2500e-006</CTcor>
#         <!-- WBOTC not applicable unless ConductivityType = 1. -->
#         <WBOTC>0.00000000e+000</WBOTC>
#       </Coefficients>
#       <Slope>1.00000000</Slope>
#       <Offset>0.00000</Offset>
#     </ConductivitySensor>
#   </sensor>
#   <sensor Channel="3" >
#     <!-- Count, Pressure, Strain Gauge -->
#     <PressureSensor SensorID="46" >
#       <SerialNumber>8188</SerialNumber>
#       <CalibrationDate>03-Apr-24</CalibrationDate>
#       <PA0>7.20920045e-002</PA0>
#       <PA1>4.83668449e-004</PA1>
#       <PA2>-3.50122678e-012</PA2>
#       <PTEMPA0>-5.77071299e+001</PTEMPA0>
#       <PTEMPA1>5.34397285e+001</PTEMPA1>
#       <PTEMPA2>-5.77553003e-001</PTEMPA2>
#       <PTCA0>5.24461366e+005</PTCA0>
#       <PTCA1>2.02036405e+001</PTCA1>
#       <PTCA2>-6.07461634e-001</PTCA2>
#       <PTCB0>2.52208750e+001</PTCB0>
#       <PTCB1>5.75000000e-004</PTCB1>
#       <PTCB2>0.00000000e+000</PTCB2>
#       <Offset>0.000000</Offset>
#     </PressureSensor>
#   </sensor>
#   <sensor Channel="4" >
#     <!-- A/D voltage 0, Fluorometer, WET Labs ECO-AFL/FL -->
#     <FluoroWetlabECO_AFL_FL_Sensor SensorID="20" >
#       <SerialNumber>FLNTURT-7096</SerialNumber>
#       <CalibrationDate>21-Mar-2024</CalibrationDate>
#       <ScaleFactor>5.00000000e+001</ScaleFactor>
#       <!-- Dark output -->
#       <Vblank>0.0710</Vblank>
#     </FluoroWetlabECO_AFL_FL_Sensor>
#   </sensor>
#   <sensor Channel="5" >
#     <!-- A/D voltage 1, Turbidity Meter, WET Labs, ECO-NTU -->
#     <TurbidityMeter SensorID="67" >
#       <SerialNumber>FLNTURT-7096</SerialNumber>
#       <CalibrationDate>21-Mar-2024</CalibrationDate>
#       <ScaleFactor>198.000000</ScaleFactor>
#       <!-- Dark output -->
#       <DarkVoltage>0.070000</DarkVoltage>
#     </TurbidityMeter>
#   </sensor>
#   <sensor Channel="6" >
#     <!-- A/D voltage 2, Oxygen, SBE 43 -->
#     <OxygenSensor SensorID="38" >
#       <SerialNumber>4269</SerialNumber>
#       <CalibrationDate>08-May-24</CalibrationDate>
#       <Use2007Equation>1</Use2007Equation>
#       <CalibrationCoefficients equation="0" >
#         <!-- Coefficients for Owens-Millard equation. -->
#         <Boc>0.0000</Boc>
#         <Soc>0.0000e+000</Soc>
#         <offset>0.0000</offset>
#         <Pcor>0.00e+000</Pcor>
#         <Tcor>0.0000</Tcor>
#         <Tau>0.0</Tau>
#       </CalibrationCoefficients>
#       <CalibrationCoefficients equation="1" >
#         <!-- Coefficients for Sea-Bird equation - SBE calibration in 2007 and later. -->
#         <Soc>4.3983e-001</Soc>
#         <offset>-0.4978</offset>
#         <A>-4.5504e-003</A>
#         <B> 2.4929e-004</B>
#         <C>-4.1306e-006</C>
#         <D0> 2.5826e+000</D0>
#         <D1> 1.92634e-004</D1>
#         <D2>-4.64803e-002</D2>
#         <E> 3.6000e-002</E>
#         <Tau20> 1.9700</Tau20>
#         <H1>-3.3000e-002</H1>
#         <H2> 5.0000e+003</H2>
#         <H3> 1.4500e+003</H3>
#       </CalibrationCoefficients>
#     </OxygenSensor>
#   </sensor>
#   <sensor Channel="7" >
#     <!-- A/D voltage 3, PAR/Logarithmic, Satlantic -->
#     <PARLog_SatlanticSensor SensorID="76" >
#       <SerialNumber>2209</SerialNumber>
#       <CalibrationDate>14-Jan-2022</CalibrationDate>
#       <a0>9.8861e-001</a0>
#       <a1>8.0845e-001</a1>
#       <Im>1.3589e+000</Im>
#       <Multiplier>1.0000e+000</Multiplier>
#     </PARLog_SatlanticSensor>
#   </sensor>
#   <sensor Channel="8" >
#     <!-- Serial RS-232, Fluorometer, WET Labs ECO-AFL/FL, 2 -->
#     <FluoroWetlabECO_AFL_FL_Sensor SensorID="20" >
#       <SerialNumber>FL3-7350</SerialNumber>
#       <CalibrationDate>10-Mar-2022</CalibrationDate>
#       <ScaleFactor>4.26000000e-002</ScaleFactor>
#       <!-- Dark output -->
#       <Vblank>50.0000</Vblank>
#     </FluoroWetlabECO_AFL_FL_Sensor>
#   </sensor>
#   <sensor Channel="9" >
#     <!-- Serial RS-232, Fluorometer, WET Labs ECO-AFL/FL, 3 -->
#     <FluoroWetlabECO_AFL_FL_Sensor SensorID="20" >
#       <SerialNumber>FL3-7350</SerialNumber>
#       <CalibrationDate>10-Mar-2022</CalibrationDate>
#       <ScaleFactor>4.23000000e-002</ScaleFactor>
#       <!-- Dark output -->
#       <Vblank>48.0000</Vblank>
#     </FluoroWetlabECO_AFL_FL_Sensor>
#   </sensor>
#   <sensor Channel="10" >
#     <!-- Serial RS-232, Fluorometer, WET Labs ECO CDOM -->
#     <FluoroWetlabCDOM_Sensor SensorID="19" >
#       <SerialNumber>FL3-7350</SerialNumber>
#       <CalibrationDate>10-Mar-2022</CalibrationDate>
#       <ScaleFactor>0.090</ScaleFactor>
#       <!-- Dark output -->
#       <Vblank>50.000</Vblank>
#     </FluoroWetlabCDOM_Sensor>
#   </sensor>
# </Sensors>
# datcnv_date = Aug 16 2024 10:56:15, 7.26.7.129 [datcnv_vars = 12]
# datcnv_in = C:\R\Reservoirs\Data\DataNotYetUploadedToEDI\Raw_CTD\RawDownloads\081524_ccr88_S8188005.hex C:\R\Reservoirs\Data\DataNotYetUploadedToEDI\Raw_CTD\RawDownloads\SBE19plusV2_8188_start20240601.xmlcon
# datcnv_skipover = 0
# datcnv_ox_hysteresis_correction = yes
# datcnv_ox_tau_correction = yes
# filter_date = Aug 16 2024 10:58:05, 7.26.7.129
# filter_in = C:\R\Reservoirs\Data\DataNotYetUploadedToEDI\Raw_CTD\RawDownloads\081524_ccr88_S8188005.cnv
# filter_low_pass_tc_A = 0.030
# filter_low_pass_tc_B = 0.150
# filter_low_pass_A_vars = sbeox0Mg/L prdM prdE tv290C
# filter_low_pass_B_vars = depFM dz/dtM sbeox0PS specc c0uS/cm flECO-AFL par/sat/log turbWETntu0
# alignctd_date = Aug 16 2024 10:59:29, 7.26.7.129
# alignctd_in = C:\R\Reservoirs\Data\DataNotYetUploadedToEDI\Raw_CTD\RawDownloads\081524_ccr88_S8188005.cnv
# alignctd_adv = dz/dtM 1.000, sbeox0PS 1.000, specc 1.000, c0uS/cm 1.000, flECO-AFL 1.000, turbWETntu0 1.000                                                                                                                        
# file_type = ascii
*END*
     -0.454 5.9884e-13     8.3888    105.070      2.536   2.634003    -0.5705 1.5632e+03    -2.1581     -0.445     -0.645    26.9231 0.0000e+00
     -0.454 6.5872e-12     8.3873    105.051      2.520   2.617039    -0.5676 1.9222e+03    -1.7766     -0.445     -0.645    26.9154 0.0000e+00
     -0.454 7.2459e-11     8.3876    105.036      2.451   2.545170    -0.4850 2.0022e+03     2.8120     -0.445     -0.645    26.9113 0.0000e+00
     -0.454 7.9705e-10     8.3857    105.039      2.353   2.443042    -0.3436 1.7297e+03    11.2641     -0.445     -0.646    26.9114 0.0000e+00
     -0.454 8.7676e-09     8.3860    105.046      2.246   2.331417    -0.2704 1.4729e+03    15.8550     -0.446     -0.647    26.9088 0.0000e+00
     -0.453 9.6444e-08     8.3843    105.046      2.197   2.280321    -0.3024 1.3433e+03    15.8852     -0.445     -0.645    26.9060 0.0000e+00
     -0.453      0.000     8.3829    105.036      2.281   2.367632    -0.7470 1.2217e+03    11.4236     -0.444     -0.644    26.9013 0.0000e+00
     -0.453      0.000     8.3847    105.023      2.479   2.573498    -1.5637 1.0884e+03     3.1779     -0.444     -0.644    26.8991 0.0000e+00
     -0.453      0.000     8.3860    105.007      2.699   2.803223    -2.0012 1.0001e+03    -1.3101     -0.445     -0.645    26.8931 0.0000e+00
     -0.453      0.001     8.3863    104.986      3.632   3.789202    -1.9877 9.8008e+02    -1.7102     -0.444     -0.644    26.8931 0.0000e+00
     -0.453      0.006     8.3862    104.953     12.239  12.867644    -1.4695 1.0129e+03    -1.3510     -0.445     -0.645    26.8832 0.0000e+00
     -0.454      0.016     8.3851    104.910     37.106  39.153449    -0.5127 1.0689e+03    -0.5720     -0.445     -0.645    26.8892 0.0000e+00
     -0.454      0.034     8.3863    104.875     74.055  78.367633     0.0174 1.1439e+03    -0.1198     -0.445     -0.646    26.8686 0.0000e+00
     -0.449      0.059     8.3792    104.840    104.561 110.904890     0.0669 1.2383e+03    -0.0722     -0.443     -0.643    26.9084 0.0000e+00
     -0.435      0.084     8.3284    104.826    116.144 123.400950     0.0514 1.3538e+03    -0.1671     -0.431     -0.625    27.2325 0.0000e+00
     -0.408      0.106     8.2680    104.845    117.134 124.602930     0.0211 1.4810e+03    -0.3057     -0.407     -0.590    27.6036 0.0000e+00
     -0.367      0.123     8.2296    104.854    117.189 124.756073     0.0034 1.5682e+03    -0.3750     -0.361     -0.523    27.8512 0.0000e+00
     -0.322      0.132     8.1993    104.854    117.212 124.843485    -0.0064 1.5889e+03    -0.3871     -0.311     -0.453    28.0274 0.0000e+00
     -0.285      0.132     8.1823    104.879    117.242 124.909637    -0.0095 1.5694e+03    -0.3484     -0.279     -0.405    28.1289 0.0000e+00
     -0.253      0.122     8.1778    104.943    117.268 124.942097    -0.0084 1.5347e+03    -0.2847     -0.248     -0.359    28.1898 0.0000e+00
     -0.223      0.110     8.1730    105.086    117.300 124.963129    -0.0107 1.5002e+03    -0.2695     -0.216     -0.313    28.2252 0.0000e+00
     -0.199      0.103     8.1668    105.318    117.316 124.959278    -0.0030 1.4757e+03    -0.3021     -0.193     -0.280    28.2532 0.0000e+00
     -0.180      0.109     8.1680    105.655    117.342 124.963713     0.0243 1.4628e+03    -0.3366     -0.176     -0.256    28.2679 0.0000e+00
     -0.160      0.126     8.1705    106.202    117.414 125.016706     0.0512 1.4701e+03    -0.3426     -0.157     -0.228    28.2678 0.0000e+00
     -0.136      0.150     8.1823    106.972    117.464 125.054294     0.0613 1.5491e+03    -0.3053     -0.137     -0.198    28.2606 0.0000e+00
     -0.098      0.175     8.2039    107.845    117.416 125.008906     0.0600 1.6298e+03    -0.2642     -0.106     -0.154    28.2512 0.0000e+00
     -0.039      0.193     8.2254    108.708    117.341 124.945391     0.0527 1.5222e+03    -0.2916     -0.042     -0.061    28.2415 0.0000e+00
      0.031      0.198     8.2694    109.467    117.294 124.900242     0.0502 1.1385e+03    -0.3620      0.035      0.051    28.2300 0.0000e+00
      0.094      0.190     8.3362    110.057    117.280 124.872269     0.0472 6.8777e+02    -0.3941      0.095      0.138    28.2201 0.0000e+00
      0.145      0.172     8.4055    110.461    117.317 124.879972     0.0432 5.3293e+02    -0.3710      0.148      0.214    28.2242 0.0000e+00
      0.181      0.145     8.4743    110.661    117.335 124.856910     0.0619 5.6557e+02    -0.3230      0.183      0.266    28.2360 0.0000e+00
      0.204      0.117     8.5350    110.661    117.319 124.797979     0.1002 5.6356e+02    -0.2949      0.199      0.289    28.2388 0.0000e+00
      0.227      0.094     8.5814    110.501    117.336 124.781239     0.1255 5.6741e+02    -0.3056      0.222      0.323    28.2327 0.0000e+00
      0.250      0.076     8.6160    110.075    117.375 124.790872     0.1250 5.8163e+02    -0.3154      0.248      0.360    28.2188 0.0000e+00
      0.270      0.065     8.6350    108.801    117.391 124.777990     0.1192 6.1521e+02    -0.3095      0.267      0.387    28.1978 0.0000e+00
      0.284      0.058     8.6361    106.154    117.401 124.761851     0.1253 7.0101e+02    -0.3372      0.279      0.404    28.1793 0.0000e+00
      0.294      0.054     8.6243    102.475    117.391 124.732110     0.1297 7.3710e+02    -0.3416      0.287      0.417    28.1660 0.0000e+00
      0.304      0.056     8.6104     98.314    117.365 124.691189     0.1284 6.1722e+02    -0.2933      0.297      0.431    28.1524 0.0000e+00
      0.315      0.061     8.5421     93.943    117.363 124.676290     0.1274 5.7851e+02    -0.2687      0.307      0.446    28.1383 0.0000e+00
      0.329      0.065     8.3150     89.712    117.387 124.688366     0.1262 8.0466e+02    -0.2850      0.320      0.464    28.1271 0.0000e+00
      0.349      0.065     8.0104     86.268    117.411 124.700759     0.1305 1.1156e+03    -0.3183      0.338      0.490    28.1195 0.0000e+00
      0.376      0.062     7.6871     84.773    117.412 124.689697     0.1271 1.2885e+03    -0.3279      0.371      0.539    28.1141 0.0000e+00
      0.398      0.055     7.3314     85.786    117.423 124.691019     0.1116 1.2985e+03    -0.3332      0.397      0.577    28.1086 0.0000e+00
      0.408      0.044     6.9945     88.131    117.457 124.716729     0.1079 1.2326e+03    -0.3481      0.401      0.582    28.1032 0.0000e+00
      0.412      0.029     6.6828     90.052    117.475 124.727699     0.1177 1.1382e+03    -0.3359      0.403      0.585    28.0977 0.0000e+00
      0.416      0.016     6.5379     90.896    117.440 124.687226     0.1174 1.0541e+03    -0.3239      0.408      0.592    28.0925 0.0000e+00
      0.419      0.008     6.6612     90.872    117.392 124.636613     0.1126 9.6331e+02    -0.3389      0.412      0.599    28.0887 0.0000e+00
      0.419      0.006     6.9101     90.112    117.414 124.661404     0.1210 8.3183e+02    -0.3460      0.411      0.597    28.0836 0.0000e+00
      0.417      0.006     7.0724     88.570    117.465 124.714149     0.1225 7.2649e+02    -0.3410      0.408      0.592    28.0791 0.0000e+00
      0.417      0.006     7.1223     86.195    117.483 124.728674     0.1145 6.9370e+02    -0.3471      0.408      0.591    28.0780 0.0000e+00
      0.421      0.005     7.1211     83.282    117.462 124.700609     0.1194 7.1398e+02    -0.3511      0.410      0.597    28.0791 0.0000e+00
      0.426      0.002     7.0608     80.426    117.416 124.647641     0.1291 7.7178e+02    -0.3549      0.417      0.605    28.0805 0.0000e+00
      0.428     -0.005     6.9467     77.985    117.406 124.633890     0.1278 8.2038e+02    -0.3592      0.422      0.611    28.0793 0.0000e+00
      0.428     -0.017     6.7538     75.961    117.443 124.670758     0.1213 8.3713e+02    -0.3338      0.421      0.610    28.0766 0.0000e+00
      0.424     -0.030     6.5036     74.350    117.456 124.684165     0.1199 8.2878e+02    -0.3230      0.416      0.604    28.0746 0.0000e+00
      0.415     -0.041     6.2711     73.387    117.433 124.659583     0.1191 7.7279e+02    -0.3664      0.410      0.594    28.0730 0.0000e+00
      0.398     -0.046     6.0834     73.367    117.423 124.646368     0.1208 6.7679e+02    -0.3772      0.393      0.570    28.0714 0.0000e+00
      0.377     -0.046     5.9280     74.291    117.440 124.660788     0.1231 5.9002e+02    -0.3509      0.368      0.533    28.0700 0.0000e+00
      0.361     -0.042     5.7939     75.777    117.479 124.697525     0.1204 5.2718e+02    -0.3570      0.349      0.506    28.0705 0.0000e+00
      0.353     -0.035     5.7073     77.361    117.466 124.681303     0.1226 4.8392e+02    -0.3481      0.344      0.499    28.0706 0.0000e+00
      0.351     -0.027     5.7055     78.883    117.390 124.601053     0.1236 4.7232e+02    -0.3113      0.345      0.501    28.0686 0.0000e+00
      0.348     -0.018     5.7903     80.458    117.332 124.545716     0.1157 4.8126e+02    -0.2905      0.343      0.498    28.0671 0.0000e+00
      0.343     -0.012     5.9230     82.023    117.337 124.557899     0.1053 4.8104e+02    -0.2684      0.337      0.487    28.0657 0.0000e+00
      0.337     -0.009     6.0511     83.131    117.385 124.611954     0.1021 4.7097e+02    -0.2504      0.329      0.478    28.0634 0.0000e+00
      0.335     -0.009     6.1625     83.311    117.425 124.653638     0.1026 4.6912e+02    -0.2787      0.326      0.474    28.0639 0.0000e+00
      0.335     -0.013     6.2850     82.510    117.429 124.652648     0.1030 4.7920e+02    -0.3352      0.327      0.475    28.0673 0.0000e+00
      0.337     -0.020     6.4220     81.024    117.385 124.599977     0.1070 4.9445e+02    -0.3499      0.332      0.481    28.0708 0.0000e+00
      0.337     -0.025     6.5264     79.389    117.349 124.562444     0.1074 4.9995e+02    -0.3185      0.333      0.483    28.0724 0.0000e+00
      0.329     -0.025     6.5392     78.274    117.389 124.608083     0.1083 4.8223e+02    -0.3000      0.327      0.474    28.0721 0.0000e+00
      0.310     -0.019     6.4679     77.972    117.514 124.742557     0.1174 4.5758e+02    -0.2985      0.305      0.442    28.0695 0.0000e+00
      0.290     -0.010     6.3399     78.231    117.658 124.892418     0.1214 4.5557e+02    -0.2993      0.277      0.403    28.0651 0.0000e+00
      0.288     -0.002     6.1872     78.682    117.688 124.919477     0.1136 4.9581e+02    -0.3107      0.275      0.398    28.0656 0.0000e+00
      0.304      0.003     6.0912     79.377    117.573 124.796880     0.1100 5.7605e+02    -0.3327      0.298      0.432    28.0691 0.0000e+00
      0.323      0.007     6.0777     80.777    117.417 124.637850     0.1121 6.5323e+02    -0.3596      0.322      0.468    28.0699 0.0000e+00
      0.328      0.008     6.1124     83.009    117.341 124.565441     0.1134 6.7515e+02    -0.3609      0.328      0.474    28.0677 0.0000e+00
      0.319      0.006     6.1480     85.394    117.370 124.603476     0.1174 6.5675e+02    -0.3140      0.314      0.454    28.0647 0.0000e+00
      0.308      0.005     6.1826     87.042    117.448 124.688491     0.1174 6.5960e+02    -0.2734      0.299      0.433    28.0642 0.0000e+00
      0.304      0.008     6.2831     87.610    117.533 124.774865     0.1125 7.3287e+02    -0.3168      0.293      0.424    28.0675 0.0000e+00
      0.310      0.014     6.4814     87.214    117.589 124.829328     0.1101 8.8612e+02    -0.3581      0.301      0.437    28.0723 0.0000e+00
      0.323      0.020     6.6991     85.975    117.566 124.801330     0.1059 1.0389e+03    -0.3262      0.317      0.459    28.0755 0.0000e+00
      0.336      0.025     6.8342     83.946    117.482 124.709165     0.1057 1.1388e+03    -0.3092      0.332      0.481    28.0766 0.0000e+00
      0.343      0.025     6.8719     81.357    117.447 124.669867     0.1067 1.2048e+03    -0.3238      0.339      0.492    28.0747 0.0000e+00
      0.345      0.022     6.8376     78.658    117.511 124.735413     0.1015 1.2459e+03    -0.3316      0.338      0.489    28.0716 0.0000e+00
      0.345      0.018     6.7420     76.239    117.595 124.819599     0.1030 1.2837e+03    -0.3347      0.336      0.488    28.0705 0.0000e+00
      0.349      0.014     6.5782     74.220    117.646 124.869258     0.1077 1.3097e+03    -0.3267      0.341      0.495    28.0691 0.0000e+00
      0.356      0.012     6.3608     72.562    117.639 124.858374     0.1064 1.3144e+03    -0.3032      0.349      0.507    28.0680 0.0000e+00
      0.362      0.010     6.1379     71.326    117.544 124.756213     0.1040 1.3129e+03    -0.2906      0.356      0.517    28.0676 0.0000e+00
      0.364      0.009     5.9465     70.630    117.451 124.657138     0.1054 1.3227e+03    -0.3123      0.358      0.519    28.0652 0.0000e+00
      0.363      0.007     5.7931     70.426    117.476 124.683580     0.1059 1.3402e+03    -0.3245      0.356      0.517    28.0626 0.0000e+00
      0.362      0.005     5.6615     70.461    117.591 124.803090     0.1106 1.3426e+03    -0.3009      0.354      0.514    28.0615 0.0000e+00
      0.362      0.005     5.5588     70.406    117.662 124.874387     0.1182 1.3558e+03    -0.3018      0.353      0.513    28.0607 0.0000e+00
      0.365      0.005     5.5066     70.111    117.657 124.863550     0.1110 1.3595e+03    -0.3356      0.357      0.519    28.0610 0.0000e+00
      0.369      0.005     5.4974     69.640    117.608 124.808470     0.1025 1.3319e+03    -0.3665      0.362      0.526    28.0611 0.0000e+00
      0.371      0.005     5.5120     69.075    117.556 124.754071     0.1101 1.3205e+03    -0.3658      0.365      0.530    28.0600 0.0000e+00
      0.371      0.004     5.5123     68.472    117.551 124.751476     0.1248 1.3225e+03    -0.3275      0.365      0.528    28.0582 0.0000e+00
      0.370      0.002     5.4849     67.840    117.575 124.777096     0.1234 1.3345e+03    -0.2813      0.363      0.526    28.0557 0.0000e+00
      0.370      0.002     5.4469     67.169    117.591 124.791012     0.1109 1.3656e+03    -0.2878      0.363      0.526    28.0539 0.0000e+00
      0.371      0.002     5.4006     66.511    117.590 124.783312     0.1121 1.3672e+03    -0.3372      0.364      0.528    28.0545 0.0000e+00
      0.372      0.002     5.3530     65.927    117.631 124.820401     0.1211 1.3241e+03    -0.3292      0.366      0.530    28.0564 0.0000e+00
      0.372      0.002     5.3052     65.385    117.711 124.898403     0.1249 1.2843e+03    -0.2941      0.365      0.529    28.0569 0.0000e+00
      0.373      0.000     5.2507     64.809    117.726 124.907921     0.1141 1.2680e+03    -0.3246      0.364      0.528    28.0549 0.0000e+00
      0.375     -0.003     5.1968     64.176    117.628 124.799063     0.1038 1.2740e+03    -0.3541      0.368      0.533    28.0519 0.0000e+00
      0.377     -0.004     5.1529     63.572    117.511 124.673523     0.1134 1.2891e+03    -0.3424      0.372      0.538    28.0491 0.0000e+00
      0.373     -0.002     5.1136     63.158    117.522 124.685971     0.1178 1.3135e+03    -0.3546      0.367      0.533    28.0464 0.0000e+00
      0.366      0.002     5.0695     62.977    117.644 124.813153     0.1127 1.3193e+03    -0.3636      0.358      0.519    28.0433 0.0000e+00
      0.363      0.006     5.0186     62.922    117.743 124.915321     0.1127 1.2907e+03    -0.3481      0.353      0.512    28.0408 0.0000e+00
      0.368      0.009     4.9647     62.954    117.724 124.898159     0.1089 1.2740e+03    -0.3395      0.358      0.520    28.0403 0.0000e+00
      0.378      0.013     4.9303     63.057    117.637 124.810280     0.1105 1.2600e+03    -0.3285      0.372      0.539    28.0420 0.0000e+00
      0.386      0.015     4.9228     63.151    117.569 124.739495     0.1231 1.2555e+03    -0.2842      0.380      0.553    28.0405 0.0000e+00
      0.387      0.015     4.9183     63.185    117.554 124.724379     0.1223 1.2731e+03    -0.2503      0.381      0.552    28.0371 0.0000e+00
      0.387      0.012     4.9194     63.087    117.591 124.763924     0.1092 1.2703e+03    -0.2961      0.379      0.549    28.0403 0.0000e+00
      0.389      0.009     4.9319     62.770    117.636 124.808390     0.1040 1.2527e+03    -0.3575      0.381      0.553    28.0435 0.0000e+00
      0.393      0.008     4.9391     62.236    117.685 124.852770     0.1020 1.2455e+03    -0.3741      0.385      0.559    28.0424 0.0000e+00
      0.396      0.008     4.9435     61.570    117.730 124.891256     0.1027 1.2419e+03    -0.3601      0.388      0.563    28.0429 0.0000e+00
      0.398      0.008     4.9397     60.855    117.712 124.864456     0.1130 1.2451e+03    -0.3250      0.390      0.565    28.0444 0.0000e+00
      0.399      0.007     4.9145     60.150    117.657 124.801548     0.1220 1.2598e+03    -0.2931      0.391      0.568    28.0427 0.0000e+00
      0.401      0.007     4.8701     59.501    117.671 124.812710     0.1162 1.2746e+03    -0.2833      0.393      0.570    28.0389 0.0000e+00
      0.401      0.007     4.8161     58.959    117.724 124.862997     0.1037 1.2836e+03    -0.3103      0.393      0.571    28.0348 0.0000e+00
      0.403      0.007     4.7592     58.622    117.732 124.863892     0.1004 1.2737e+03    -0.3443      0.394      0.572    28.0312 0.0000e+00
      0.406      0.007     4.7024     58.550    117.700 124.823519     0.1026 1.2475e+03    -0.3511      0.399      0.578    28.0295 0.0000e+00
      0.409      0.008     4.6516     58.642    117.667 124.784087     0.1048 1.2435e+03    -0.3580      0.402      0.583    28.0280 0.0000e+00
      0.410      0.008     4.6060     58.759    117.682 124.796367     0.1175 1.2354e+03    -0.3594      0.403      0.585    28.0251 0.0000e+00
      0.411      0.008     4.5765     58.854    117.724 124.835572     0.1268 1.2086e+03    -0.3332      0.403      0.584    28.0221 0.0000e+00
      0.413      0.007     4.5755     58.946    117.742 124.848855     0.1301 1.2098e+03    -0.3168      0.404      0.586    28.0193 0.0000e+00
      0.416      0.005     4.5879     59.076    117.721 124.820547     0.1491 1.2131e+03    -0.3323      0.408      0.592    28.0177 0.0000e+00
      0.419      0.003     4.5974     59.223    117.674 124.766127     0.1658 1.2062e+03    -0.3496      0.412      0.597    28.0163 0.0000e+00
      0.419      0.001     4.6045     59.276    117.649 124.736521     0.1665 1.1898e+03    -0.3528      0.412      0.598    28.0139 0.0000e+00
      0.418      0.000     4.6104     59.166    117.650 124.735405     0.1584 1.1655e+03    -0.3373      0.410      0.595    28.0112 0.0000e+00
      0.416     -0.001     4.6204     58.975    117.670 124.752632     0.1552 1.1793e+03    -0.3333      0.407      0.592    28.0085 0.0000e+00
      0.415     -0.001     4.6367     58.853    117.728 124.808383     0.1617 1.1945e+03    -0.3390      0.406      0.590    28.0066 0.0000e+00
      0.415     -0.001     4.6437     58.916    117.786 124.863823     0.1677 1.1840e+03    -0.3030      0.407      0.590    28.0055 0.0000e+00
      0.416     -0.001     4.6318     59.160    117.802 124.877273     0.1586 1.1865e+03    -0.2765      0.408      0.592    28.0047 0.0000e+00
      0.417     -0.001     4.6126     59.447    117.764 124.834593     0.1295 1.1993e+03    -0.2934      0.410      0.593    28.0031 0.0000e+00
      0.416     -0.002     4.5993     59.647    117.693 124.757017     0.1104 1.2117e+03    -0.3004      0.409      0.594    28.0001 0.0000e+00
      0.415     -0.002     4.6042     59.738    117.697 124.757802     0.1094 1.2177e+03    -0.2932      0.407      0.591    27.9976 0.0000e+00
      0.413     -0.002     4.6285     59.755    117.783 124.844080     0.1084 1.2237e+03    -0.3101      0.405      0.587    27.9959 0.0000e+00
      0.413     -0.001     4.6558     59.758    117.855 124.913488     0.1079 1.2151e+03    -0.3322      0.404      0.585    27.9947 0.0000e+00
      0.413     -0.000     4.6709     59.826    117.861 124.914922     0.1123 1.1743e+03    -0.3204      0.404      0.586    27.9941 0.0000e+00
      0.414      0.001     4.6773     60.016    117.815 124.861408     0.1174 1.1693e+03    -0.3047      0.406      0.588    27.9932 0.0000e+00
      0.416      0.001     4.6771     60.280    117.771 124.812111     0.1352 1.1968e+03    -0.3135      0.408      0.591    27.9910 0.0000e+00
      0.416      0.000     4.6753     60.497    117.759 124.796325     0.1632 1.1973e+03    -0.3243      0.408      0.592    27.9881 0.0000e+00
      0.415     -0.001     4.6787     60.643    117.772 124.806955     0.1786 1.1832e+03    -0.3326      0.407      0.591    27.9854 0.0000e+00
      0.414     -0.004     4.6945     60.789    117.773 124.804214     0.1818 1.1737e+03    -0.3444      0.406      0.589    27.9834 0.0000e+00
      0.413     -0.008     4.7213     60.980    117.738 124.763177     0.1765 1.1707e+03    -0.3290      0.405      0.587    27.9823 0.0000e+00
      0.412     -0.010     4.7378     61.148    117.700 124.720019     0.1745 1.1623e+03    -0.2845      0.405      0.587    27.9816 0.0000e+00
      0.409     -0.011     4.7471     61.180    117.674 124.691639     0.1757 1.1610e+03    -0.2868      0.402      0.584    27.9804 0.0000e+00
      0.404     -0.011     4.7561     61.069    117.676 124.692868     0.1747 1.1942e+03    -0.3221      0.396      0.575    27.9783 0.0000e+00
      0.398     -0.010     4.7739     60.934    117.719 124.734877     0.1699 1.2302e+03    -0.3346      0.389      0.565    27.9760 0.0000e+00
      0.395     -0.009     4.7919     60.966    117.775 124.790315     0.1520 1.2297e+03    -0.3688      0.386      0.559    27.9749 0.0000e+00
      0.395     -0.006     4.7940     61.260    117.803 124.817494     0.1320 1.2046e+03    -0.3923      0.387      0.561    27.9748 0.0000e+00
      0.396     -0.003     4.7825     61.704    117.779 124.790661     0.1181 1.1736e+03    -0.3783      0.389      0.564    27.9749 0.0000e+00
      0.396     -0.001     4.7650     62.089    117.731 124.738714     0.1236 1.1618e+03    -0.3711      0.389      0.565    27.9736 0.0000e+00
      0.396      0.001     4.7641     62.286    117.728 124.735058     0.1462 1.1818e+03    -0.3736      0.388      0.563    27.9713 0.0000e+00
      0.395      0.003     4.7915     62.279    117.739 124.746461     0.1577 1.2076e+03    -0.3751      0.387      0.562    27.9702 0.0000e+00
      0.395      0.006     4.8334     62.092    117.735 124.740168     0.1583 1.2076e+03    -0.3541      0.387      0.561    27.9696 0.0000e+00
      0.395      0.011     4.8673     61.827    117.790 124.795383     0.1623 1.1789e+03    -0.3262      0.387      0.561    27.9694 0.0000e+00
      0.398      0.014     4.8820     61.696    117.862 124.868397     0.1717 1.1403e+03    -0.3123      0.389      0.565    27.9694 0.0000e+00
      0.405      0.015     4.8815     61.899    117.864 124.872679     0.1760 1.0614e+03    -0.2898      0.396      0.575    27.9692 0.0000e+00
      0.413      0.014     4.8646     62.404    117.769 124.778954     0.1713 8.7496e+02    -0.2596      0.406      0.589    27.9693 0.0000e+00
      0.419      0.011     4.8373     62.894    117.611 124.621886     0.1672 6.3707e+02    -0.2559      0.412      0.599    27.9674 0.0000e+00
      0.420      0.006     4.8201     63.089    117.527 124.542363     0.1695 4.7217e+02    -0.2794      0.414      0.600    27.9649 0.0000e+00
      0.418      0.002     4.8355     62.945    117.612 124.635940     0.1732 3.8990e+02    -0.3037      0.410      0.594    27.9653 0.0000e+00
      0.415      0.000     4.8870     62.588    117.764 124.798432     0.1680 3.5549e+02    -0.3433      0.406      0.589    27.9691 0.0000e+00
      0.414     -0.002     4.9338     62.220    117.833 124.870067     0.1670 3.4751e+02    -0.3812      0.405      0.588    27.9743 0.0000e+00
      0.415     -0.002     4.9487     61.985    117.787 124.819996     0.1710 3.4513e+02    -0.3841      0.407      0.591    27.9783 0.0000e+00
      0.417     -0.002     4.9334     61.840    117.710 124.738681     0.1633 3.4253e+02    -0.3781      0.409      0.594    27.9799 0.0000e+00
      0.417     -0.002     4.8996     61.667    117.674 124.705388     0.1611 3.3851e+02    -0.3772      0.410      0.593    27.9800 0.0000e+00
      0.416     -0.003     4.8649     61.418    117.654 124.690293     0.1696 3.3574e+02    -0.3726      0.408      0.591    27.9794 0.0000e+00
      0.413     -0.003     4.8492     61.098    117.654 124.692597     0.1715 3.3395e+02    -0.3572      0.405      0.587    27.9783 0.0000e+00
      0.411     -0.002     4.8428     60.744    117.692 124.733250     0.1668 3.3212e+02    -0.3295      0.402      0.583    27.9779 0.0000e+00
      0.411     -0.001     4.8292     60.397    117.731 124.772583     0.1646 3.2997e+02    -0.3118      0.402      0.583    27.9806 0.0000e+00
      0.412     -0.000     4.8098     60.099    117.721 124.758914     0.1613 3.2669e+02    -0.3139      0.404      0.585    27.9838 0.0000e+00
      0.413      0.001     4.7830     59.869    117.675 124.704392     0.1618 3.2358e+02    -0.3209      0.405      0.589    27.9850 0.0000e+00
      0.414      0.001     4.7545     59.694    117.636 124.659002     0.1715 3.2180e+02    -0.3286      0.407      0.590    27.9853 0.0000e+00
      0.414      0.001     4.7259     59.549    117.601 124.619352     0.1749 3.1981e+02    -0.3039      0.406      0.588    27.9845 0.0000e+00
      0.413      0.001     4.7020     59.427    117.617 124.634222     0.1767 3.1707e+02    -0.2626      0.405      0.587    27.9825 0.0000e+00
      0.413      0.001     4.6848     59.322    117.686 124.702374     0.1841 3.1450e+02    -0.2757      0.404      0.586    27.9795 0.0000e+00
      0.413      0.002     4.6727     59.257    117.749 124.761303     0.1865 3.1280e+02    -0.3250      0.404      0.586    27.9777 0.0000e+00
      0.414      0.002     4.6607     59.260    117.793 124.801051     0.1881 3.1160e+02    -0.3434      0.406      0.588    27.9775 0.0000e+00
      0.416      0.001     4.6521     59.341    117.773 124.773708     0.1863 3.1009e+02    -0.3269      0.408      0.591    27.9767 0.0000e+00
      0.417     -0.001     4.6432     59.477    117.711 124.703528     0.1728 3.0833e+02    -0.3311      0.409      0.594    27.9745 0.0000e+00
      0.418     -0.003     4.6372     59.582    117.647 124.634574     0.1638 3.0592e+02    -0.3598      0.411      0.596    27.9709 0.0000e+00
      0.416     -0.004     4.6379     59.572    117.632 124.622060     0.1643 3.0324e+02    -0.3643      0.409      0.593    27.9675 0.0000e+00
      0.412     -0.004     4.6438     59.417    117.693 124.688636     0.1614 3.0082e+02    -0.3512      0.404      0.586    27.9652 0.0000e+00
      0.408     -0.003     4.6584     59.183    117.759 124.757474     0.1635 3.0003e+02    -0.3392      0.399      0.579    27.9633 0.0000e+00
      0.408     -0.001     4.6687     59.025    117.775 124.772294     0.1722 2.9926e+02    -0.3225      0.398      0.578    27.9626 0.0000e+00
      0.410      0.000     4.6692     59.064    117.737 124.731410     0.1712 2.9721e+02    -0.3207      0.401      0.583    27.9646 0.0000e+00
      0.413      0.000     4.6550     59.260    117.678 124.672397     0.1682 2.9615e+02    -0.3513      0.406      0.589    27.9667 0.0000e+00
      0.414      0.000     4.6317     59.440    117.608 124.604434     0.1717 2.9494e+02    -0.3488      0.408      0.592    27.9655 0.0000e+00
      0.414     -0.001     4.6151     59.481    117.589 124.591758     0.1706 2.9309e+02    -0.2915      0.407      0.589    27.9635 0.0000e+00
      0.411     -0.004     4.6193     59.378    117.646 124.655562     0.1628 2.9149e+02    -0.2760      0.402      0.584    27.9634 0.0000e+00
      0.409     -0.007     4.6412     59.191    117.683 124.693809     0.1565 2.8993e+02    -0.2996      0.400      0.581    27.9646 0.0000e+00
      0.408     -0.008     4.6587     58.974    117.638 124.644958     0.1546 2.8772e+02    -0.3026      0.400      0.580    27.9677 0.0000e+00
      0.407     -0.006     4.6607     58.683    117.605 124.610568     0.1580 2.8582e+02    -0.3117      0.400      0.581    27.9717 0.0000e+00
      0.403     -0.004     4.6510     58.263    117.678 124.687242     0.1623 2.8607e+02    -0.3408      0.396      0.575    27.9730 0.0000e+00
      0.400     -0.002     4.6338     57.864    117.743 124.753525     0.1627 2.8558e+02    -0.3448      0.392      0.567    27.9721 0.0000e+00
      0.400     -0.002     4.6183     57.719    117.723 124.729924     0.1620 2.8403e+02    -0.3253      0.391      0.567    27.9714 0.0000e+00
      0.404     -0.003     4.6002     57.840    117.673 124.674708     0.1632 2.8263e+02    -0.3458      0.396      0.576    27.9718 0.0000e+00
      0.406     -0.003     4.5616     58.017    117.630 124.631571     0.1692 2.8170e+02    -0.3527      0.400      0.581    27.9720 0.0000e+00
      0.404     -0.004     4.5213     58.058    117.615 124.617597     0.1732 2.8201e+02    -0.3057      0.397      0.575    27.9705 0.0000e+00
      0.399     -0.006     4.5098     57.930    117.639 124.642162     0.1682 2.8151e+02    -0.2929      0.391      0.567    27.9690 0.0000e+00
      0.395     -0.008     4.5279     57.734    117.655 124.655761     0.1696 2.8010e+02    -0.3006      0.387      0.561    27.9680 0.0000e+00
      0.394     -0.008     4.5472     57.552    117.649 124.645604     0.1817 2.7803e+02    -0.2958      0.386      0.560    27.9688 0.0000e+00
      0.394     -0.007     4.5512     57.387    117.660 124.655760     0.1838 2.7715e+02    -0.3033      0.387      0.561    27.9710 0.0000e+00
      0.393     -0.004     4.5371     57.205    117.648 124.642136     0.1777 2.7795e+02    -0.3228      0.386      0.559    27.9708 0.0000e+00
      0.391     -0.002     4.5188     56.960    117.626 124.617297     0.1782 2.7791e+02    -0.3254      0.383      0.556    27.9684 0.0000e+00
      0.390      0.000     4.5059     56.714    117.638 124.628257     0.1807 2.7755e+02    -0.3004      0.381      0.553    27.9669 0.0000e+00
      0.390      0.003     4.4928     56.574    117.650 124.638239     0.1827 2.7680e+02    -0.2954      0.381      0.553    27.9660 0.0000e+00
      0.392      0.007     4.4822     56.502    117.618 124.601564     0.1845 2.7500e+02    -0.2997      0.384      0.557    27.9656 0.0000e+00
      0.394      0.012     4.4607     56.409    117.613 124.594056     0.1845 2.7400e+02    -0.2829      0.387      0.561    27.9657 0.0000e+00
      0.396      0.015     4.4359     56.334    117.700 124.683868     0.1834 2.7379e+02    -0.2979      0.388      0.563    27.9646 0.0000e+00
      0.400      0.016     4.4273     56.388    117.747 124.732575     0.1795 2.7153e+02    -0.3439      0.391      0.567    27.9629 0.0000e+00
      0.407      0.015     4.4267     56.633    117.657 124.637307     0.1729 2.6764e+02    -0.3593      0.399      0.578    27.9619 0.0000e+00
      0.414      0.015     4.4167     56.980    117.513 124.486897     0.1637 2.6485e+02    -0.3461      0.408      0.591    27.9613 0.0000e+00
      0.418      0.016     4.4076     57.202    117.442 124.414533     0.1639 2.6329e+02    -0.3225      0.411      0.596    27.9601 0.0000e+00
      0.418      0.019     4.4094     57.186    117.469 124.444432     0.1753 2.6187e+02    -0.3139      0.410      0.594    27.9591 0.0000e+00
      0.419      0.022     4.4300     57.024    117.594 124.575572     0.1798 2.6050e+02    -0.3458      0.409      0.593    27.9591 0.0000e+00
      0.424      0.026     4.4669     56.926    117.780 124.772409     0.1838 2.5842e+02    -0.3637      0.414      0.600    27.9603 0.0000e+00
      0.434      0.027     4.4869     57.104    117.843 124.846362     0.1889 2.5670e+02    -0.3585      0.425      0.616    27.9622 0.0000e+00
      0.447      0.027     4.4825     57.589    117.703 124.719460     0.1812 2.5575e+02    -0.3516      0.439      0.636    27.9631 0.0000e+00
      0.457      0.024     4.4637     58.144    117.506 124.534026     0.1683 2.5373e+02    -0.3152      0.450      0.653    27.9621 0.0000e+00
      0.463      0.020     4.4489     58.499    117.411 124.445919     0.1634 2.5059e+02    -0.2612      0.456      0.662    27.9606 0.0000e+00
      0.463      0.016     4.4606     58.593    117.436 124.472667     0.1738 2.4716e+02    -0.2485      0.455      0.660    27.9623 0.0000e+00
      0.462      0.014     4.5061     58.479    117.548 124.584609     0.1889 2.4444e+02    -0.2986      0.452      0.655    27.9732 0.0000e+00
      0.463      0.014     4.5591     58.284    117.673 124.708073     0.1906 2.4229e+02    -0.3519      0.452      0.657    27.9858 0.0000e+00
      0.469      0.013     4.5859     58.248    117.693 124.737716     0.1853 2.3951e+02    -0.3783      0.459      0.666    27.9903 0.0000e+00
      0.477      0.009     4.5911     58.486    117.731 124.806624     0.1866 2.3761e+02    -0.3773      0.469      0.680    27.9905 0.0000e+00
      0.484     -0.005     4.5815     59.036    117.818 124.927410     0.1891 2.3693e+02    -0.3403      0.477      0.692    27.9868 0.0000e+00
      0.484     -0.030     4.5566     60.129    117.715 124.834031     0.1799 2.3694e+02    -0.3086      0.477      0.691    27.9798 0.0000e+00
      0.480     -0.066     4.5497     61.705    117.517 124.632518     0.1707 2.3818e+02    -0.3021      0.472      0.684    27.9819 0.0000e+00
      0.468     -0.106     4.5728     63.200    117.424 124.537176     0.1734 2.3900e+02    -0.2962      0.468      0.679    27.9988 0.0000e+00
      0.434     -0.144     4.6014     64.216    117.329 124.431548     0.1700 2.4123e+02    -0.3067      0.434      0.630    28.0137 0.0000e+00
      0.379     -0.173     4.6840     64.826    117.288 124.378482     0.1643 2.4573e+02    -0.3260      0.370      0.537    28.0178 0.0000e+00
      0.320     -0.186     4.8325     65.412    117.415 124.509400     0.1729 2.5598e+02    -0.3235      0.316      0.457    28.0207 0.0000e+00
      0.260     -0.181     4.9594     66.292    117.606 124.718531     0.1788 2.6738e+02    -0.3108      0.255      0.370    28.0242 0.0000e+00
      0.204     -0.158     5.0360     67.305    117.706 124.860877     0.1752 2.6247e+02    -0.3108      0.192      0.278    28.0215 0.0000e+00
      0.164     -0.122     5.0729     68.305    117.574 124.798196     0.1722 2.5671e+02    -0.3223      0.154      0.223    28.0137 0.0000e+00
      0.142     -0.080     5.1038     69.864    117.289 124.574648     0.1690 2.6620e+02    -0.3124      0.136      0.197    28.0139 0.0000e+00
      0.131     -0.038     5.1814     72.671    117.099 124.408936     0.1712 2.6650e+02    -0.2942      0.126      0.183    28.0138 0.0000e+00
      0.129     -0.001     5.2733     76.469    117.187 124.499807     0.1814 2.5022e+02    -0.2744      0.123      0.178    28.0219 0.0000e+00
      0.137      0.022     5.3253     80.194    117.536 124.854862     0.1882 2.3010e+02    -0.2103      0.133      0.192    28.0660 0.0000e+00
      0.150      0.024     5.4140     83.206    117.750 125.086861     0.1839 2.0892e+02    -0.1370      0.146      0.212    28.1086 0.0000e+00
      0.169      0.004     5.6404     85.703    117.604 124.985840     0.1727 1.9259e+02    -0.1085      0.164      0.238    28.1200 0.0000e+00
      0.188     -0.030     5.9772     87.762    117.353 124.793056     0.1649 1.9632e+02    -0.1066      0.192      0.278    28.1162 0.0000e+00
      0.187     -0.069     6.2935     89.089    117.201 124.665883     0.1597 2.4586e+02    -0.1485      0.200      0.291    28.1041 0.0000e+00
      0.151     -0.103     6.5090     89.436    117.158 124.607786     0.1616 3.5013e+02    -0.2375      0.156      0.227    28.0981 0.0000e+00
      0.095     -0.120     6.6996     88.663    117.213 124.636249     0.1701 7.1996e+02    -0.2904      0.089      0.129    28.1268 0.0000e+00
      0.042     -0.113     6.8691     86.927    117.332 124.737143     0.1672 1.3373e+03    -0.3065      0.037      0.054    28.1721 0.0000e+00
      0.002     -0.080     6.9735     84.636    117.473 124.872744     0.1622 1.7041e+03    -0.3291     -0.005     -0.007    28.1864 0.0000e+00
     -0.018     -0.031     7.0104     82.154    117.564 124.979825     0.1608 1.7674e+03    -0.3237     -0.029     -0.043    28.1740 0.0000e+00
     -0.011      0.020     6.9464     79.704    117.487 124.940534     0.1590 1.7651e+03    -0.3091     -0.019     -0.027    28.1586 0.0000e+00
      0.016      0.065     6.7985     77.531    117.317 124.806986     0.1583 1.7292e+03    -0.3246      0.014      0.020    28.1478 0.0000e+00
      0.051      0.098     6.6103     75.967    117.227 124.729338     0.1440 1.6284e+03    -0.3397      0.051      0.073    28.1400 0.0000e+00
      0.082      0.118     6.4119     75.192    117.254 124.752007     0.1246 1.2314e+03    -0.3196      0.082      0.119    28.1404 0.0000e+00
      0.112      0.128     6.2127     74.993    117.321 124.808227     0.1225 6.2003e+02    -0.2879      0.107      0.155    28.1644 0.0000e+00
      0.143      0.129     6.0290     74.938    117.384 124.863409     0.1276 2.9549e+02    -0.2994      0.140      0.202    28.1916 0.0000e+00
      0.178      0.125     5.8991     74.724    117.464 124.941729     0.1350 2.4175e+02    -0.3222      0.175      0.254    28.1972 0.0000e+00
      0.213      0.116     5.8465     74.260    117.454 124.936688     0.1514 2.0802e+02    -0.3227      0.208      0.302    28.1911 0.0000e+00
      0.248      0.103     5.8472     73.673    117.311 124.802461     0.1601 1.7942e+02    -0.3060      0.244      0.355    28.1837 0.0000e+00
      0.278      0.087     5.8511     73.262    117.182 124.682981     0.1616 1.6047e+02    -0.2920      0.279      0.404    28.1779 0.0000e+00
      0.294      0.071     5.8371     73.192    117.151 124.651616     0.1696 1.5440e+02    -0.2900      0.292      0.425    28.1751 0.0000e+00
      0.302      0.054     5.7982     73.310    117.199 124.696068     0.1708 1.5375e+02    -0.2829      0.293      0.426    28.1760 0.0000e+00
      0.311      0.038     5.7402     73.358    117.314 124.811188     0.1676 1.5353e+02    -0.2740      0.306      0.444    28.1861 0.0000e+00
      0.321      0.022     5.7007     73.199    117.385 124.883992     0.1739 1.5298e+02    -0.2861      0.316      0.459    28.1970 0.0000e+00
      0.329      0.007     5.7020     72.793    117.326 124.826049     0.1774 1.5539e+02    -0.3256      0.321      0.467    28.1963 0.0000e+00
      0.334     -0.008     5.7206     72.250    117.220 124.724477     0.1675 1.6086e+02    -0.3397      0.331      0.479    28.1910 0.0000e+00
      0.330     -0.023     5.7271     71.936    117.168 124.679028     0.1585 1.6843e+02    -0.3196      0.328      0.475    28.1883 0.0000e+00
      0.315     -0.035     5.7162     72.188    117.172 124.685787     0.1632 1.7672e+02    -0.2883      0.310      0.450    28.1862 0.0000e+00
      0.298     -0.042     5.6838     72.946    117.161 124.669789     0.1721 1.8274e+02    -0.2706      0.290      0.421    28.1880 0.0000e+00
      0.283     -0.040     5.6282     73.908    117.123 124.622007     0.1792 1.8723e+02    -0.2771      0.276      0.400    28.1951 0.0000e+00
      0.272     -0.029     5.5898     74.798    117.160 124.653702     0.1806 1.8674e+02    -0.2973      0.267      0.386    28.2001 0.0000e+00
      0.262     -0.014     5.6137     75.363    117.285 124.780163     0.1708 1.8652e+02    -0.3090      0.256      0.371    28.2007 0.0000e+00
      0.259     -0.001     5.6836     75.330    117.359 124.855089     0.1643 1.8815e+02    -0.3158      0.250      0.362    28.1979 0.0000e+00
      0.266      0.007     5.7656     74.590    117.315 124.809341     0.1637 1.8320e+02    -0.3449      0.258      0.374    28.1941 0.0000e+00
      0.279      0.010     5.8414     73.410    117.211 124.704481     0.1635 1.7823e+02    -0.3514      0.276      0.400    28.1914 0.0000e+00
      0.288      0.014     5.8946     72.401    117.120 124.610355     0.1702 1.7874e+02    -0.3612      0.289      0.417    28.1882 0.0000e+00
      0.287      0.020     5.8976     72.169    117.140 124.626180     0.1757 1.8378e+02    -0.3603      0.284      0.411    28.1860 0.0000e+00
      0.280      0.028     5.8311     72.764    117.279 124.759392     0.1691 1.8724e+02    -0.3055      0.271      0.393    28.1869 0.0000e+00
      0.280      0.039     5.7225     73.884    117.384 124.856842     0.1602 1.8477e+02    -0.2823      0.269      0.389    28.1897 0.0000e+00
      0.294      0.055     5.6193     75.317    117.377 124.849504     0.1631 1.8301e+02    -0.2867      0.284      0.412    28.1928 0.0000e+00
      0.318      0.075     5.6027     76.766    117.326 124.807086     0.1699 1.8391e+02    -0.2892      0.313      0.455    28.1907 0.0000e+00
      0.342      0.094     5.6653     77.910    117.267 124.753225     0.1734 1.8480e+02    -0.3134      0.336      0.488    28.1821 0.0000e+00
      0.367      0.107     5.7525     78.540    117.261 124.743943     0.1790 1.8551e+02    -0.3389      0.356      0.517    28.1736 0.0000e+00
      0.397      0.112     5.8753     78.485    117.347 124.831272     0.1856 1.8541e+02    -0.3568      0.388      0.564    28.1736 0.0000e+00
      0.431      0.109     5.9976     77.756    117.370 124.854193     0.2009 1.8571e+02    -0.3575      0.423      0.615    28.1828 0.0000e+00
      0.464      0.105     6.0892     76.679    117.271 124.748256     0.2250 1.8526e+02    -0.3472      0.456      0.662    28.1875 0.0000e+00
      0.492      0.103     6.1459     75.698    117.173 124.641704     0.2346 1.8450e+02    -0.3356      0.486      0.705    28.1841 0.0000e+00
      0.512      0.102     6.1425     75.031    117.192 124.657193     0.2306 1.8432e+02    -0.3203      0.504      0.730    28.1818 0.0000e+00
      0.529      0.103     6.0756     74.575    117.331 124.799105     0.2285 1.8262e+02    -0.3340      0.516      0.749    28.1816 0.0000e+00
      0.552      0.105     5.9763     74.085    117.453 124.925187     0.2264 1.8048e+02    -0.3637      0.538      0.781    28.1816 0.0000e+00
      0.583      0.106     5.8935     73.408    117.479 124.953887     0.2314 1.7826e+02    -0.3707      0.569      0.825    28.1810 0.0000e+00
      0.619      0.104     5.8464     72.596    117.389 124.873283     0.2371 1.7761e+02    -0.3501      0.608      0.883    28.1785 0.0000e+00
      0.653      0.097     5.8188     71.842    117.267 124.769123     0.2170 1.7797e+02    -0.3215      0.644      0.934    28.1752 0.0000e+00
      0.678      0.085     5.7865     71.367    117.199 124.717653     0.1871 1.7822e+02    -0.2992      0.668      0.968    28.1734 0.0000e+00
      0.694      0.073     5.7309     71.327    117.140 124.660243     0.1794 1.7809e+02    -0.2863      0.683      0.991    28.1726 0.0000e+00
      0.706      0.064     5.6615     71.702    117.109 124.620644     0.1844 1.7758e+02    -0.2686      0.692      1.004    28.1779 0.0000e+00
      0.716      0.060     5.5945     72.214    117.144 124.648104     0.1964 1.7789e+02    -0.2562      0.701      1.017    28.1931 0.0000e+00
      0.728      0.062     5.5517     72.512    117.219 124.719405     0.2195 1.7754e+02    -0.2737      0.713      1.033    28.2041 0.0000e+00
      0.743      0.068     5.5478     72.451    117.302 124.800663     0.2388 1.7745e+02    -0.2743      0.728      1.056    28.2048 0.0000e+00
      0.763      0.073     5.5860     72.041    117.314 124.812081     0.2391 1.7717e+02    -0.2635      0.747      1.083    28.2009 0.0000e+00
      0.786      0.078     5.6398     71.331    117.226 124.721038     0.2318 1.7564e+02    -0.2465      0.770      1.117    28.1961 0.0000e+00
      0.810      0.081     5.6651     70.375    117.159 124.654764     0.2372 1.7428e+02    -0.1720      0.797      1.156    28.1923 0.0000e+00
      0.830      0.081     5.6602     69.284    117.194 124.692849     0.2433 1.7387e+02    -0.0840      0.816      1.183    28.1892 0.0000e+00
      0.848      0.076     5.6264     68.182    117.272 124.772277     0.2359 1.7322e+02    -0.0395      0.829      1.202    28.1879 0.0000e+00
      0.868      0.068     5.5701     67.114    117.301 124.796633     0.2264 1.7163e+02    -0.0467      0.850      1.233    28.1899 0.0000e+00
      0.890      0.059     5.4925     66.129    117.228 124.714494     0.2244 1.7030e+02    -0.0681      0.876      1.269    28.1928 0.0000e+00
      0.906      0.052     5.4018     65.296    117.122 124.597625     0.2288 1.6920e+02    -0.0584      0.891      1.292    28.1930 0.0000e+00
      0.915      0.047     5.3172     64.757    117.137 124.611300     0.2358 1.6885e+02    -0.0322      0.900      1.305    28.1912 0.0000e+00
      0.919      0.045     5.2318     64.627    117.266 124.743411     0.2395 1.6901e+02    -0.0257      0.903      1.309    28.1883 0.0000e+00
      0.924      0.045     5.1541     64.756    117.353 124.830823     0.2388 1.6894e+02    -0.0490      0.903      1.309    28.1858 0.0000e+00
      0.935      0.048     5.0859     64.935    117.375 124.849698     0.2361 1.6846e+02    -0.0733      0.915      1.325    28.1847 0.0000e+00
      0.955      0.052     5.0362     65.145    117.361 124.835192     0.2334 1.6780e+02    -0.0786      0.938      1.360    28.1839 0.0000e+00
      0.974      0.056     5.0337     65.364    117.318 124.791843     0.2312 1.6786e+02    -0.0793      0.958      1.389    28.1819 0.0000e+00
      0.988      0.056     5.0527     65.479    117.262 124.734822     0.2358 1.6816e+02    -0.0810      0.970      1.407    28.1790 0.0000e+00
      1.000      0.052     5.0636     65.434    117.222 124.691418     0.2374 1.6778e+02    -0.0654      0.981      1.423    28.1768 0.0000e+00
      1.013      0.046     5.0805     65.235    117.211 124.676289     0.2246 1.6677e+02    -0.0618      0.994      1.441    28.1766 0.0000e+00
      1.025      0.041     5.1023     64.947    117.226 124.688302     0.2199 1.6589e+02    -0.0718      1.006      1.460    28.1787 0.0000e+00
      1.035      0.038     5.1122     64.712    117.240 124.700243     0.2329 1.6587e+02    -0.0503      1.016      1.474    28.1801 0.0000e+00
      1.044      0.035     5.1085     64.652    117.228 124.684253     0.2338 1.6640e+02    -0.0414      1.024      1.485    28.1793 0.0000e+00
      1.051      0.034     5.0919     64.752    117.181 124.631376     0.2137 1.6670e+02    -0.0673      1.030      1.494    28.1775 0.0000e+00
      1.058      0.034     5.0653     64.980    117.161 124.606562     0.2071 1.6638e+02    -0.0541      1.037      1.504    28.1761 0.0000e+00
      1.067      0.035     5.0417     65.322    117.211 124.657051     0.2228 1.6567e+02    -0.0193      1.047      1.518    28.1748 0.0000e+00
      1.076      0.038     5.0395     65.665    117.251 124.696175     0.2386 1.6537e+02    -0.0244      1.055      1.530    28.1732 0.0000e+00
      1.086      0.040     5.0490     65.874    117.228 124.670355     0.2510 1.6547e+02    -0.0464      1.064      1.543    28.1720 0.0000e+00
      1.097      0.042     5.0647     65.919    117.180 124.617694     0.2590 1.6583e+02    -0.0449      1.076      1.561    28.1708 0.0000e+00
      1.109      0.042     5.0962     65.822    117.170 124.605100     0.2495 1.6584e+02    -0.0068      1.088      1.579    28.1693 0.0000e+00
      1.120      0.042     5.1279     65.620    117.218 124.654492     0.2395 1.6553e+02     0.0032      1.099      1.594    28.1680 0.0000e+00
      1.130      0.041     5.1442     65.378    117.235 124.669230     0.2428 1.6546e+02    -0.0275      1.109      1.609    28.1675 0.0000e+00
      1.140      0.041     5.1466     65.160    117.216 124.646885     0.2373 1.6580e+02    -0.0350      1.118      1.622    28.1669 0.0000e+00
      1.150      0.042     5.1388     64.953    117.228 124.657143     0.2247 1.6655e+02    -0.0190      1.128      1.636    28.1662 0.0000e+00
      1.160      0.042     5.1208     64.696    117.230 124.656838     0.2206 1.6683e+02    -0.0058      1.136      1.648    28.1655 0.0000e+00
      1.172      0.043     5.1000     64.366    117.220 124.643192     0.2222 1.6659e+02    -0.0118      1.148      1.665    28.1641 0.0000e+00
      1.184      0.044     5.0830     63.965    117.207 124.628555     0.2269 1.6597e+02    -0.0577      1.162      1.685    28.1628 0.0000e+00
      1.195      0.045     5.0704     63.540    117.197 124.616276     0.2349 1.6542e+02    -0.1147      1.173      1.701    28.1614 0.0000e+00
      1.206      0.047     5.0500     63.206    117.212 124.631135     0.2404 1.6507e+02    -0.0828      1.182      1.715    28.1604 0.0000e+00
      1.217      0.047     5.0243     62.935    117.251 124.671802     0.2413 1.6443e+02    -0.0151      1.193      1.731    28.1600 0.0000e+00
      1.228      0.046     4.9937     62.567    117.278 124.698729     0.2367 1.6343e+02    -0.0169      1.203      1.745    28.1593 0.0000e+00
      1.242      0.043     4.9537     62.063    117.264 124.683879     0.2280 1.6238e+02    -0.0362      1.218      1.767    28.1585 0.0000e+00
      1.257      0.040     4.9291     61.529    117.213 124.628657     0.2237 1.6213e+02    -0.0427      1.235      1.791    28.1580 0.0000e+00
      1.268      0.038     4.9152     61.112    117.164 124.576705     0.2273 1.6265e+02    -0.0272      1.244      1.805    28.1575 0.0000e+00
      1.274      0.036     4.8872     60.967    117.188 124.601375     0.2363 1.6306e+02    -0.0197      1.250      1.813    28.1568 0.0000e+00
      1.279      0.034     4.8436     61.092    117.240 124.654116     0.2374 1.6288e+02    -0.0547      1.254      1.819    28.1567 0.0000e+00
      1.285      0.034     4.7989     61.241    117.256 124.668740     0.2322 1.6193e+02    -0.0735      1.258      1.825    28.1567 0.0000e+00
      1.296      0.035     4.7609     61.254    117.229 124.641773     0.2341 1.6058e+02    -0.0752      1.269      1.841    28.1567 0.0000e+00
      1.308      0.037     4.7470     61.206    117.184 124.600891     0.2343 1.6010e+02    -0.0752      1.286      1.865    28.1567 0.0000e+00
      1.318      0.039     4.7681     61.162    117.163 124.583685     0.2348 1.6053e+02    -0.0737      1.295      1.878    28.1554 0.0000e+00
      1.325      0.039     4.7854     61.100    117.150 124.570155     0.2410 1.6057e+02    -0.0573      1.298      1.882    28.1539 0.0000e+00
      1.335      0.039     4.7810     60.980    117.157 124.573721     0.2391 1.5995e+02    -0.0148      1.308      1.897    28.1540 0.0000e+00
      1.346      0.038     4.7752     60.747    117.213 124.626787     0.2292 1.5943e+02    -0.0052      1.321      1.916    28.1577 0.0000e+00
      1.356      0.038     4.7731     60.358    117.254 124.666112     0.2259 1.5912e+02    -0.0097      1.329      1.928    28.1613 0.0000e+00
      1.367      0.036     4.7689     59.856    117.233 124.639946     0.2336 1.5901e+02    -0.0017      1.341      1.945    28.1611 0.0000e+00
      1.377      0.032     4.7613     59.334    117.182 124.583236     0.2442 1.5890e+02    -0.0104      1.351      1.960    28.1586 0.0000e+00
      1.386      0.028     4.7457     58.869    117.131 124.526088     0.2497 1.5837e+02    -0.0116      1.359      1.972    28.1560 0.0000e+00
      1.392      0.027     4.7136     58.546    117.105 124.494623     0.2662 1.5768e+02    -0.0165      1.366      1.982    28.1536 0.0000e+00
      1.395      0.031     4.6715     58.528    117.091 124.475613     0.2870 1.5742e+02    -0.0352      1.368      1.984    28.1521 0.0000e+00
      1.399      0.042     4.6289     58.973    116.937 124.296232     0.2930 1.5704e+02    -0.0317      1.371      1.989    28.1514 0.0000e+00
      1.406      0.058     4.5908     60.044    116.518 123.758034     0.2956 1.5634e+02    -0.0087      1.377      1.997    28.1502 0.0000e+00
      1.419      0.074     4.5626     63.107    116.225 123.151702     0.2747 1.5553e+02     0.0027      1.387      2.012    28.1487 0.0000e+00
      1.442      0.087     4.5516     70.752    116.418 122.898351     0.2406 1.5429e+02    -0.0309      1.410      2.046    28.1475 0.0000e+00
      1.476      0.092     4.5931     83.351    116.775 122.876526     0.2292 1.5320e+02    -0.0717      1.445      2.096    28.1448 0.0000e+00
      1.512      0.088     4.6539     97.803    117.007 122.887176     0.2242 1.5265e+02    -0.0788      1.487      2.157    28.1371 0.0000e+00
      1.540      0.075     4.7935    110.841    117.120 122.890360     0.2318 1.5234e+02    -0.0821      1.515      2.198    28.0108 0.0000e+00
      1.555      0.057     5.3898    120.943    117.194 122.914860     0.2695 1.5188e+02    -0.0781      1.526      2.215    27.7576 0.0000e+00
      1.561      0.038     6.5280    127.670    117.213 122.910521     0.2986 1.5153e+02    -0.0656      1.532      2.222    27.5755 0.0000e+00
      1.564      0.024     7.7776    130.953    117.153 122.837853     0.2966 1.5142e+02    -0.0681      1.534      2.224    27.4910 0.0000e+00
      1.564      0.019     8.8434    130.752    117.173 122.854643     0.2811 1.5156e+02    -0.0727      1.533      2.224    27.4478 0.0000e+00
      1.564      0.024     9.6556    127.463    117.163 122.840717     0.2581 1.5186e+02    -0.0536      1.532      2.222    27.4312 0.0000e+00
      1.567      0.033    10.1855    122.525    117.068 122.737662     0.2356 1.5188e+02    -0.0430      1.535      2.226    27.4218 0.0000e+00
      1.577      0.043    10.4502    117.746    117.099 122.768021     0.2249 1.5159e+02    -0.0465      1.543      2.238    27.4189 0.0000e+00
      1.594      0.053    10.4323    114.069    117.195 122.866783     0.2335 1.5117e+02    -0.0279      1.561      2.264    27.4176 0.0000e+00
      1.614      0.058    10.1271    111.494    117.236 122.908765     0.2447 1.5100e+02    -0.0237      1.585      2.299    27.4165 0.0000e+00
      1.632      0.058     9.6743    109.724    117.197 122.866419     0.2479 1.5102e+02    -0.0652      1.602      2.323    27.4147 0.0000e+00
      1.647      0.051     9.2728    108.481    117.100 122.763982     0.2548 1.5083e+02    -0.1168      1.615      2.343    27.4138 0.0000e+00
      1.660      0.040     8.9891    107.586    117.097 122.761416     0.2672 1.5066e+02    -0.1324      1.629      2.363    27.4133 0.0000e+00
      1.670      0.029     8.7938    106.924    117.167 122.835398     0.2852 1.5056e+02    -0.1174      1.641      2.380    27.4129 0.0000e+00
      1.675      0.019     8.6626    106.384    117.172 122.840083     0.2984 1.5042e+02    -0.0726      1.645      2.386    27.4120 0.0000e+00
      1.675      0.012     8.5691    105.958    117.152 122.818058     0.3053 1.5025e+02    -0.0367      1.643      2.382    27.4119 0.0000e+00
      1.674      0.007     8.4999    105.703    117.175 122.841898     0.3077 1.5015e+02    -0.0619      1.641      2.380    27.4121 0.0000e+00
      1.674      0.004     8.4524    105.600    117.189 122.855529     0.3022 1.5015e+02    -0.0681      1.641      2.380    27.4124 0.0000e+00
      1.675      0.003     8.4100    105.619    117.181 122.846464     0.2987 1.5010e+02    -0.0421      1.643      2.383    27.4121 0.0000e+00
      1.678      0.004     8.3721    105.699    117.202 122.868700     0.2999 1.4995e+02    -0.0569      1.646      2.388    27.4116 0.0000e+00
      1.680      0.007     8.3545    105.693    117.185 122.851576     0.2996 1.4982e+02    -0.0753      1.648      2.390    27.4115 0.0000e+00
      1.680      0.012     8.3471    105.607    117.113 122.775826     0.2946 1.4964e+02    -0.0593      1.648      2.390    27.4110 0.0000e+00
      1.680      0.022     8.3480    105.593    117.108 122.771220     0.2835 1.4943e+02    -0.0351      1.646      2.388    27.4109 0.0000e+00
      1.682      0.035     8.3622    105.647    117.131 122.795884     0.2783 1.4943e+02    -0.0231      1.647      2.389    27.4110 0.0000e+00
      1.691      0.051     8.3619    105.695    117.138 122.801223     0.2749 1.4947e+02    -0.0165      1.656      2.401    27.4111 0.0000e+00
      1.707      0.068     8.3460    105.730    117.176 122.835766     0.2599 1.4949e+02    -0.0245      1.672      2.425    27.4110 0.0000e+00
      1.731      0.083     8.3476    105.753    117.151 122.804330     0.2437 1.4971e+02    -0.0504      1.695      2.459    27.4113 0.0000e+00
      1.758      0.096     8.3552    105.786    117.051 122.693918     0.2359 1.5036e+02    -0.0552      1.725      2.502    27.4123 0.0000e+00
      1.785      0.104     8.3572    105.844    117.025 122.660184     0.2523 1.5127e+02    -0.0483      1.752      2.541    27.4111 0.0000e+00
      1.811      0.107     8.3618    105.894    117.105 122.737444     0.2772 1.5197e+02    -0.0705      1.775      2.575    27.4086 0.0000e+00
      1.840      0.103     8.3627    105.919    117.113 122.741448     0.2849 1.5252e+02    -0.0825      1.802      2.614    27.4065 0.0000e+00
      1.871      0.095     8.3646    105.917    117.085 122.708592     0.2854 1.5301e+02    -0.0560      1.837      2.663    27.4038 0.0000e+00
      1.900      0.084     8.3715    105.841    117.191 122.817582     0.2831 1.5350e+02    -0.0593      1.868      2.708    27.4007 0.0000e+00
      1.920      0.071     8.3767    105.698    117.269 122.899813     0.2836 1.5403e+02    -0.0881      1.885      2.734    27.3982 0.0000e+00
      1.933      0.056     8.3771    105.527    117.189 122.816228     0.2816 1.5430e+02    -0.0951      1.896      2.751    27.3962 0.0000e+00
      1.943      0.044     8.3807    105.312    117.137 122.761781     0.2767 1.5432e+02    -0.0761      1.906      2.765    27.3945 0.0000e+00
      1.951      0.036     8.3743    105.135    117.162 122.787108     0.2843 1.5437e+02     0.0045      1.914      2.775    27.3938 0.0000e+00
      1.956      0.034     8.3596    105.142    117.092 122.713247     0.2965 1.5442e+02     0.1250      1.917      2.781    27.3939 0.0000e+00
      1.961      0.034     8.3496    105.302    117.002 122.618933     0.3029 1.5454e+02     0.1789      1.921      2.786    27.3944 0.0000e+00
      1.970      0.036     8.3300    105.463    117.051 122.669776     0.3091 1.5470e+02     0.1752      1.931      2.800    27.3943 0.0000e+00
      1.983      0.037     8.3085    105.518    117.095 122.714186     0.3115 1.5481e+02     0.1833      1.944      2.820    27.3942 0.0000e+00
      1.995      0.037     8.3116    105.475    116.996 122.610271     0.3051 1.5498e+02     0.1734      1.956      2.838    27.3939 0.0000e+00
      2.005      0.037     8.3298    105.412    116.895 122.504562     0.3007 1.5534e+02     0.1593      1.967      2.853    27.3936 0.0000e+00
      2.014      0.037     8.3454    105.347    116.851 122.459067     0.3025 1.5574e+02     0.1840      1.976      2.866    27.3935 0.0000e+00
      2.022      0.038     8.3500    105.204    116.861 122.469400     0.3005 1.5571e+02     0.1976      1.983      2.877    27.3930 0.0000e+00
      2.027      0.038     8.3426    104.959    116.950 122.561292     0.2939 1.5551e+02     0.1871      1.986      2.881    27.3929 0.0000e+00
      2.036      0.038     8.3374    104.732    117.001 122.615318     0.2917 1.5567e+02     0.1937      1.992      2.890    27.3929 0.0000e+00
      2.051      0.036     8.3349    104.631    117.029 122.645229     0.2917 1.5607e+02     0.2092      2.013      2.920    27.3931 0.0000e+00
      2.066      0.035     8.3262    104.607    117.033 122.650141     0.2855 1.5647e+02     0.2030      2.030      2.943    27.3931 0.0000e+00
      2.074      0.038     8.3015    104.527    116.991 122.606501     0.2861 1.5653e+02     0.1871      2.035      2.952    27.3924 0.0000e+00
      2.077      0.044     8.2796    104.378    117.111 122.731395     0.2993 1.5624e+02     0.1884      2.038      2.956    27.3925 0.0000e+00
      2.079      0.051     8.2731    104.252    117.240 122.864391     0.3068 1.5629e+02     0.1838      2.037      2.953    27.3929 0.0000e+00
      2.090      0.059     8.2772    104.212    117.164 122.782314     0.3064 1.5725e+02     0.1667      2.043      2.963    27.3933 0.0000e+00
      2.115      0.071     8.2710    104.317    117.082 122.693819     0.3037 1.5850e+02     0.1527      2.073      3.007    27.3937 0.0000e+00
      2.144      0.082     8.2542    104.525    117.008 122.612828     0.2996 1.5910e+02     0.1518      2.108      3.057    27.3933 0.0000e+00
      2.164      0.086     8.2450    104.647    116.954 122.553253     0.3002 1.5930e+02     0.1558      2.121      3.076    27.3917 0.0000e+00
      2.184      0.081     8.2386    104.590    116.988 122.587301     0.3021 1.6001e+02     0.1670      2.137      3.099    27.3910 0.0000e+00
      2.211      0.070     8.2471    104.469    117.016 122.615291     0.2968 1.6115e+02     0.1841      2.171      3.149    27.3908 0.0000e+00
      2.233      0.060     8.2716    104.394    117.019 122.618878     0.2875 1.6159e+02     0.1910      2.195      3.185    27.3889 0.0000e+00
      2.243      0.055     8.2860    104.402    116.966 122.562470     0.2854 1.6114e+02     0.2161      2.201      3.193    27.3869 0.0000e+00
      2.247      0.052     8.2748    104.521    116.889 122.478858     0.3062 1.6084e+02     0.2473      2.203      3.196    27.3862 0.0000e+00
      2.254      0.050     8.2624    104.697    116.841 122.426337     0.3404 1.6101e+02     0.2595      2.208      3.202    27.3861 0.0000e+00
      2.268      0.054     8.2570    104.862    116.823 122.404829     0.3518 1.6119e+02     0.2606      2.222      3.223    27.3863 0.0000e+00
      2.287      0.064     8.2548    105.002    116.909 122.491602     0.3487 1.6129e+02     0.2263      2.243      3.254    27.3859 0.0000e+00
      2.305      0.074     8.2671    105.074    117.009 122.588893     0.3544 1.6167e+02     0.1877      2.261      3.278    27.3846 0.0000e+00
      2.323      0.084     8.2840    104.989    116.925 122.489962     0.3604 1.6282e+02     0.1715      2.276      3.301    27.3834 0.0000e+00
      2.345      0.089     8.2960    104.706    116.843 122.386605     0.3604 1.6464e+02     0.1682      2.297      3.332    27.3827 0.0000e+00
      2.370      0.089     8.3088    104.315    116.971 122.498566     0.3546 1.6638e+02     0.1819      2.323      3.370    27.3813 0.0000e+00
      2.398      0.084     8.3181    103.998    117.101 122.616047     0.3512 1.6734e+02     0.1656      2.352      3.410    27.3785 0.0000e+00
      2.424      0.075     8.3138    103.863    117.076 122.579440     0.3533 1.6775e+02     0.1424      2.379      3.450    27.3739 0.0000e+00
      2.444      0.065     8.2901    103.869    116.974 122.465134     0.3547 1.6809e+02     0.1414      2.400      3.481    27.3665 0.0000e+00
      2.455      0.057     8.2535    103.902    116.920 122.393370     0.3585 1.6799e+02     0.1542      2.411      3.497    27.3559 0.0000e+00
      2.460      0.052     8.2272    103.968    116.877 122.325534     0.3654 1.6803e+02     0.1934      2.411      3.498    27.3460 0.0000e+00
      2.467      0.050     8.2178    104.174    116.898 122.326880     0.3686 1.6888e+02     0.2036      2.417      3.504    27.3427 0.0000e+00
      2.482      0.051     8.2240    104.527    117.058 122.477809     0.3625 1.6983e+02     0.1747      2.433      3.528    27.3424 0.0000e+00
      2.501      0.052     8.2274    104.910    117.103 122.513579     0.3608 1.7044e+02     0.1534      2.453      3.558    27.3352 0.0000e+00
      2.518      0.052     8.2286    105.177    116.953 122.350159     0.3649 1.7082e+02     0.1524      2.471      3.584    27.3240 0.0000e+00
      2.532      0.051     8.2469    105.269    116.884 122.275100     0.3600 1.7120e+02     0.1619      2.483      3.602    27.3145 0.0000e+00
      2.543      0.051     8.2793    105.244    116.965 122.356231     0.3541 1.7145e+02     0.1660      2.496      3.619    27.3076 0.0000e+00
      2.551      0.053     8.3158    105.180    116.991 122.376306     0.3544 1.7145e+02     0.2020      2.502      3.629    27.3030 0.0000e+00
      2.559      0.058     8.3387    105.101    117.004 122.381422     0.3625 1.7165e+02     0.2190      2.506      3.636    27.3003 0.0000e+00
      2.574      0.063     8.3441    104.986    117.046 122.418063     0.3656 1.7221e+02     0.1660      2.520      3.655    27.3000 0.0000e+00
      2.596      0.067     8.3390    104.811    117.042 122.410125     0.3576 1.7284e+02     0.1448      2.546      3.692    27.2987 0.0000e+00
      2.621      0.068     8.3345    104.578    117.057 122.421839     0.3615 1.7325e+02     0.1679      2.574      3.733    27.2949 0.0000e+00
      2.640      0.065     8.3296    104.406    117.061 122.423285     0.3695 1.7347e+02     0.1707      2.591      3.758    27.2906 0.0000e+00
      2.655      0.056     8.3214    104.392    117.066 122.427610     0.3591 1.7362e+02     0.1787      2.604      3.776    27.2880 0.0000e+00
      2.667      0.044     8.3091    104.463    117.111 122.474127     0.3478 1.7383e+02     0.1959      2.615      3.794    27.2865 0.0000e+00
      2.678      0.033     8.2867    104.559    117.079 122.440115     0.3455 1.7398e+02     0.1733      2.627      3.810    27.2851 0.0000e+00
      2.685      0.025     8.2675    104.677    116.934 122.289179     0.3487 1.7388e+02     0.1451      2.634      3.820    27.2840 0.0000e+00
      2.688      0.020     8.2723    104.801    116.864 122.217759     0.3610 1.7392e+02     0.1646      2.636      3.822    27.2831 0.0000e+00
      2.689      0.019     8.2790    104.894    116.967 122.326765     0.3637 1.7410e+02     0.2031      2.637      3.824    27.2828 0.0000e+00
      2.692      0.024     8.2856    104.849    117.083 122.447779     0.3549 1.7414e+02     0.2321      2.639      3.827    27.2829 0.0000e+00
      2.696      0.036     8.2967    104.631    117.091 122.453334     0.3502 1.7442e+02     0.2409      2.642      3.833    27.2830 0.0000e+00
      2.703      0.052     8.3051    104.383    116.974 122.325719     0.3508 1.7503e+02     0.2065      2.649      3.842    27.2839 0.0000e+00
      2.716      0.072     8.3179    104.299    116.860 122.200589     0.3626 1.7581e+02     0.1596      2.660      3.858    27.2849 0.0000e+00
      2.738      0.094     8.3152    104.350    116.898 122.236172     0.3707 1.7696e+02     0.1196      2.681      3.889    27.2850 0.0000e+00
      2.769      0.115     8.2945    104.351    117.007 122.346736     0.3623 1.7839e+02     0.1016      2.716      3.939    27.2840 0.0000e+00
      2.801      0.130     8.2660    104.261    116.975 122.309809     0.3730 1.7976e+02     0.1134      2.745      3.982    27.2811 0.0000e+00
      2.837      0.136     8.2615    104.164    116.870 122.198879     0.4048 1.8154e+02     0.1244      2.774      4.024    27.2781 0.0000e+00
      2.884      0.133     8.2749    104.131    116.904 122.233079     0.4183 1.8364e+02     0.1659      2.830      4.104    27.2766 0.0000e+00
      2.926      0.124     8.2743    104.136    116.984 122.314113     0.4144 1.8520e+02     0.2383      2.878      4.175    27.2753 0.0000e+00
      2.954      0.112     8.2648    104.109    117.030 122.360266     0.4273 1.8637e+02     0.3133      2.898      4.203    27.2735 0.0000e+00
      2.974      0.099     8.2542    104.064    117.054 122.381903     0.4609 1.8765e+02     0.3848      2.917      4.230    27.2727 0.0000e+00
      2.994      0.088     8.2528    104.094    116.985 122.302926     0.4832 1.8899e+02     0.4166      2.939      4.262    27.2726 0.0000e+00
      3.011      0.079     8.2566    104.205    116.917 122.223734     0.4883 1.9013e+02     0.4232      2.953      4.283    27.2719 0.0000e+00
      3.030      0.071     8.2547    104.307    116.939 122.242784     0.4977 1.9135e+02     0.4307      2.968      4.305    27.2712 0.0000e+00
      3.055      0.061     8.2464    104.336    116.957 122.260455     0.5178 1.9286e+02     0.4038      2.996      4.344    27.2698 0.0000e+00
      3.078      0.052     8.2491    104.264    116.865 122.164594     0.5324 1.9366e+02     0.3732      3.026      4.388    27.2665 0.0000e+00
      3.088      0.046     8.2628    104.146    116.681 121.970317     0.5357 1.9343e+02     0.4035      3.032      4.398    27.2624 0.0000e+00
      3.088      0.042     8.2722    104.106    116.673 121.957422     0.5316 1.9373e+02     0.4275      3.027      4.391    27.2605 0.0000e+00
      3.090      0.041     8.2755    104.136    116.858 122.145070     0.5260 1.9477e+02     0.3882      3.027      4.390    27.2609 0.0000e+00
      3.099      0.044     8.2692    104.101    116.909 122.193184     0.5280 1.9540e+02     0.3748      3.036      4.403    27.2611 0.0000e+00
      3.116      0.049     8.2538    103.987    116.788 122.061767     0.5307 1.9565e+02     0.4032      3.055      4.431    27.2602 0.0000e+00
      3.135      0.054     8.2510    103.907    116.721 121.988284     0.5319 1.9619e+02     0.4220      3.076      4.461    27.2582 0.0000e+00
      3.152      0.057     8.2606    103.909    116.786 122.054886     0.5339 1.9660e+02     0.4303      3.093      4.486    27.2559 0.0000e+00
      3.165      0.058     8.2582    103.935    116.848 122.116860     0.5288 1.9685e+02     0.4344      3.105      4.502    27.2534 0.0000e+00
      3.177      0.061     8.2445    103.970    116.860 122.123814     0.5225 1.9757e+02     0.4373      3.115      4.518    27.2511 0.0000e+00
      3.188      0.067     8.2362    104.009    116.883 122.138953     0.5274 1.9745e+02     0.4317      3.126      4.534    27.2500 0.0000e+00
      3.202      0.075     8.2407    104.000    116.917 122.163490     0.5364 1.9699e+02     0.4356      3.138      4.550    27.2495 0.0000e+00
      3.223      0.081     8.2422    103.899    116.911 122.147672     0.5435 1.9749e+02     0.4155      3.157      4.579    27.2486 0.0000e+00
      3.252      0.083     8.2446    103.724    116.855 122.084081     0.5527 1.9814e+02     0.3946      3.188      4.623    27.2460 0.0000e+00
      3.282      0.083     8.2511    103.600    116.851 122.076599     0.5614 1.9870e+02     0.4239      3.222      4.672    27.2420 0.0000e+00
      3.304      0.080     8.2516    103.597    116.968 122.193592     0.5704 1.9931e+02     0.4261      3.244      4.705    27.2365 0.0000e+00
      3.319      0.072     8.2458    103.642    117.048 122.271047     0.5829 2.0040e+02     0.4211      3.255      4.722    27.2323 0.0000e+00
      3.332      0.063     8.2262    103.696    116.980 122.194697     0.5921 2.0242e+02     0.4661      3.265      4.737    27.2306 0.0000e+00
      3.348      0.057     8.2135    103.725    116.883 122.088829     0.5864 2.0525e+02     0.5584      3.283      4.762    27.2295 0.0000e+00
      3.364      0.055     8.2184    103.605    116.817 122.013979     0.5743 2.0732e+02     0.6446      3.302      4.789    27.2278 0.0000e+00
      3.375      0.053     8.2227    103.311    116.783 121.971665     0.5749 2.0799e+02     0.6492      3.309      4.800    27.2246 0.0000e+00
      3.385      0.046     8.2264    102.992    116.736 121.918202     0.5771 2.1044e+02     0.6483      3.317      4.810    27.2218 0.0000e+00
      3.402      0.035     8.2348    102.731    116.731 121.913139     0.5919 2.1439e+02     0.6692      3.336      4.838    27.2205 0.0000e+00
      3.418      0.020     8.2280    102.530    116.790 121.978644     0.6326 2.1691e+02     0.6614      3.355      4.866    27.2181 0.0000e+00
      3.424      0.008     8.1970    102.399    116.767 121.960049     0.6532 2.1827e+02     0.6564      3.362      4.876    27.2146 0.0000e+00
      3.419      0.001     8.1708    102.359    116.698 121.892917     0.6421 2.1942e+02     0.6430      3.356      4.868    27.2125 0.0000e+00
      3.407      0.000     8.1509    102.419    116.723 121.917147     0.6193 2.1976e+02     0.6374      3.342      4.847    27.2125 0.0000e+00
      3.396      0.004     8.1336    102.509    116.857 122.048400     0.5939 2.1950e+02     0.6578      3.326      4.825    27.2144 0.0000e+00
      3.396      0.009     8.1232    102.579    116.930 122.115907     0.5788 2.2416e+02     0.6491      3.323      4.820    27.2176 0.0000e+00
      3.410      0.014     8.1173    102.668    116.936 122.119577     0.5747 2.2931e+02     0.6349      3.342      4.847    27.2203 0.0000e+00
      3.427      0.015     8.1259    102.767    116.909 122.092766     0.5965 2.2679e+02     0.6577      3.364      4.880    27.2193 0.0000e+00
      3.437      0.015     8.1364    102.834    116.815 121.996334     0.6340 2.2323e+02     0.6844      3.376      4.896    27.2146 0.0000e+00
      3.434      0.015     8.1388    102.912    116.798 121.976612     0.6468 2.2357e+02     0.6831      3.370      4.887    27.2105 0.0000e+00
      3.424      0.015     8.1469    103.035    116.818 121.990702     0.6476 2.2372e+02     0.6756      3.355      4.867    27.2090 0.0000e+00
      3.420      0.019     8.1575    103.181    116.797 121.962083     0.6531 2.2440e+02     0.6633      3.349      4.858    27.2107 0.0000e+00
      3.427      0.027     8.1598    103.347    116.811 121.971564     0.6516 2.2628e+02     0.6377      3.357      4.869    27.2123 0.0000e+00
      3.444      0.037     8.1646    103.481    116.879 122.037131     0.6475 2.2518e+02     0.6401      3.376      4.898    27.2105 0.0000e+00
      3.462      0.044     8.1772    103.480    116.918 122.072850     0.6468 2.2736e+02     0.6577      3.397      4.927    27.2076 0.0000e+00
      3.475      0.049     8.1880    103.355    116.847 121.994244     0.6601 2.2997e+02     0.6443      3.409      4.944    27.2045 0.0000e+00
      3.484      0.051     8.2022    103.214    116.767 121.905084     0.6870 2.2727e+02     0.6163      3.417      4.957    27.2020 0.0000e+00
      3.492      0.054     8.2188    103.113    116.752 121.881388     0.7037 2.2876e+02     0.6278      3.423      4.966    27.2001 0.0000e+00
      3.503      0.058     8.2177    102.961    116.726 121.844123     0.7050 2.3165e+02     0.6803      3.432      4.979    27.1981 0.0000e+00
      3.519      0.061     8.2042    102.675    116.753 121.863682     0.7033 2.2920e+02     0.7023      3.449      5.003    27.1963 0.0000e+00
      3.541      0.061     8.1908    102.373    116.937 122.049667     0.7000 2.2679e+02     0.6874      3.472      5.037    27.1941 0.0000e+00
      3.564      0.057     8.1865    102.223    117.069 122.183279     0.6915 2.2614e+02     0.6715      3.498      5.073    27.1902 0.0000e+00
      3.580      0.049     8.1809    102.267    116.941 122.046992     0.6866 2.2464e+02     0.6466      3.514      5.097    27.1854 0.0000e+00
      3.589      0.039     8.1526    102.428    116.740 121.834002     0.6936 2.2583e+02     0.6276      3.521      5.107    27.1819 0.0000e+00
      3.594      0.031     8.1230    102.531    116.702 121.790381     0.6981 2.2764e+02     0.6474      3.525      5.113    27.1795 0.0000e+00
      3.597      0.028     8.1111    102.445    116.772 121.860554     0.6973 2.2704e+02     0.6796      3.528      5.116    27.1776 0.0000e+00
      3.601      0.030     8.1166    102.299    116.779 121.864081     0.7015 2.2834e+02     0.6738      3.531      5.121    27.1766 0.0000e+00
      3.607      0.035     8.1346    102.280    116.754 121.833021     0.7140 2.3041e+02     0.6458      3.536      5.128    27.1752 0.0000e+00
      3.617      0.039     8.1503    102.367    116.816 121.894183     0.7362 2.3075e+02     0.6510      3.544      5.140    27.1733 0.0000e+00
      3.632      0.042     8.1377    102.474    116.911 121.989796     0.7527 2.3097e+02     0.7019      3.560      5.164    27.1725 0.0000e+00
      3.648      0.043     8.1175    102.554    116.957 122.034296     0.7576 2.3311e+02     0.7465      3.581      5.193    27.1715 0.0000e+00
      3.659      0.040     8.1203    102.599    116.887 121.954823     0.7608 2.3506e+02     0.7786      3.591      5.208    27.1687 0.0000e+00
      3.665      0.034     8.1296    102.634    116.724 121.779068     0.7649 2.3477e+02     0.8500      3.592      5.210    27.1664 0.0000e+00
      3.673      0.029     8.1394    102.641    116.634 121.682392     0.7647 2.3482e+02     0.9220      3.602      5.224    27.1660 0.0000e+00
      3.681      0.024     8.1465    102.577    116.628 121.672496     0.7573 2.3648e+02     0.9288      3.613      5.240    27.1648 0.0000e+00
      3.685      0.021     8.1491    102.494    116.622 121.659416     0.7543 2.3822e+02     0.8968      3.615      5.243    27.1610 0.0000e+00
      3.687      0.018     8.1526    102.479    116.631 121.660617     0.7630 2.3803e+02     0.9135      3.614      5.242    27.1582 0.0000e+00
      3.693      0.013     8.1560    102.480    116.662 121.686998     0.7674 2.3907e+02     0.9592      3.620      5.251    27.1580 0.0000e+00
      3.700      0.008     8.1493    102.434    116.682 121.705597     0.7640 2.4190e+02     0.9345      3.630      5.265    27.1568 0.0000e+00
      3.703      0.007     8.1380    102.404    116.723 121.749097     0.7655 2.4072e+02     0.8890      3.634      5.269    27.1533 0.0000e+00
      3.700      0.007     8.1408    102.447    116.775 121.803770     0.7674 2.3952e+02     0.8904      3.629      5.263    27.1492 0.0000e+00
      3.696      0.006     8.1452    102.565    116.793 121.821064     0.7605 2.4112e+02     0.9174      3.623      5.255    27.1463 0.0000e+00
      3.696      0.006     8.1369    102.715    116.797 121.821794     0.7523 2.4051e+02     0.9399      3.624      5.255    27.1461 0.0000e+00
      3.701      0.008     8.1337    102.836    116.790 121.812591     0.7550 2.3836e+02     0.9574      3.630      5.264    27.1468 0.0000e+00
      3.707      0.013     8.1367    102.933    116.823 121.846183     0.7579 2.3672e+02     0.9568      3.637      5.275    27.1473 0.0000e+00
      3.710      0.022     8.1473    103.040    116.868 121.886963     0.7527 2.3635e+02     0.9323      3.640      5.279    27.1462 0.0000e+00
      3.711      0.035     8.1627    103.134    116.825 121.828260     0.7527 2.3723e+02     0.9360      3.638      5.277    27.1436 0.0000e+00
      3.715      0.053     8.1713    103.142    116.769 121.750163     0.7497 2.3844e+02     0.9330      3.641      5.280    27.1432 0.0000e+00
      3.726      0.073     8.1777    103.059    116.733 121.692845     0.7256 2.3732e+02     0.8955      3.650      5.293    27.1440 0.0000e+00
      3.750      0.091     8.1864    102.940    116.735 121.680783     0.7040 2.3257e+02     0.8943      3.672      5.325    27.1419 0.0000e+00
      3.785      0.103     8.1989    102.838    116.802 121.740682     0.6963 2.2999e+02     0.9191      3.712      5.384    27.1355 0.0000e+00
      3.823      0.106     8.2002    102.743    116.803 121.735086     0.6760 2.2879e+02     0.8174      3.751      5.440    27.1262 0.0000e+00
      3.857      0.100     8.1930    102.601    116.822 121.749509     0.6494 2.2440e+02     0.5919      3.785      5.489    27.1174 0.0000e+00
      3.882      0.088     8.1827    102.409    116.985 121.915050     0.6424 2.2188e+02     0.4579      3.812      5.529    27.1116 0.0000e+00
      3.897      0.075     8.1751    102.261    117.102 122.031680     0.6445 2.2198e+02     0.4340      3.823      5.546    27.1075 0.0000e+00
      3.907      0.067     8.1709    102.295    117.078 122.000299     0.6319 2.2106e+02     0.3716      3.831      5.556    27.1042 0.0000e+00
      3.918      0.064     8.1599    102.530    116.964 121.876600     0.6019 2.1969e+02     0.2521      3.841      5.571    27.1025 0.0000e+00
      3.932      0.066     8.1425    102.863    116.795 121.695397     0.5764 2.1834e+02     0.1915      3.854      5.590    27.1008 0.0000e+00
      3.952      0.071     8.1251    103.178    116.691 121.582521     0.5665 2.1621e+02     0.1879      3.874      5.620    27.0981 0.0000e+00
      3.975      0.076     8.1278    103.403    116.715 121.602980     0.5690 2.1396e+02     0.1737      3.898      5.655    27.0955 0.0000e+00
      3.997      0.079     8.1511    103.580    116.782 121.669970     0.5800 2.1246e+02     0.1582      3.922      5.689    27.0933 0.0000e+00
      4.017      0.079     8.1808    103.772    116.824 121.710508     0.5865 2.1055e+02     0.1379      3.940      5.714    27.0910 0.0000e+00
      4.037      0.079     8.2095    103.936    116.801 121.683938     0.5789 2.0844e+02     0.1680      3.959      5.741    27.0892 0.0000e+00
      4.055      0.082     8.2257    104.036    116.746 121.621497     0.5839 2.0655e+02     0.2819      3.978      5.770    27.0877 0.0000e+00
      4.073      0.091     8.2359    104.109    116.768 121.637497     0.6201 2.0465e+02     0.3814      3.992      5.790    27.0861 0.0000e+00
      4.094      0.101     8.2550    104.167    116.877 121.740986     0.6446 2.0248e+02     0.4106      4.014      5.821    27.0851 0.0000e+00
      4.119      0.106     8.2691    104.133    116.923 121.781586     0.6464 1.9976e+02     0.4291      4.037      5.856    27.0839 0.0000e+00
      4.151      0.105     8.2756    103.932    116.867 121.719188     0.6589 1.9657e+02     0.5014      4.063      5.894    27.0819 0.0000e+00
      4.192      0.100     8.2806    103.553    116.820 121.668511     0.6832 1.9301e+02     0.5983      4.115      5.969    27.0791 0.0000e+00
      4.226      0.091     8.2891    103.065    116.866 121.714430     0.6971 1.9108e+02     0.6395      4.155      6.026    27.0743 0.0000e+00
      4.240      0.080     8.2900    102.603    116.950 121.796999     0.7056 1.9051e+02     0.6563      4.159      6.032    27.0702 0.0000e+00
      4.247      0.068     8.2734    102.205    116.942 121.780272     0.7256 1.8881e+02     0.7322      4.162      6.037    27.0690 0.0000e+00
      4.259      0.058     8.2432    101.847    116.891 121.716771     0.7478 1.8666e+02     0.8365      4.175      6.056    27.0689 0.0000e+00
      4.275      0.055     8.1976    101.569    116.831 121.642969     0.7570 1.8456e+02     0.8878      4.190      6.077    27.0685 0.0000e+00
      4.294      0.058     8.1606    101.398    116.776 121.569899     0.7593 1.8296e+02     0.9061      4.211      6.108    27.0667 0.0000e+00
      4.309      0.063     8.1325    101.319    116.748 121.515232     0.7665 1.8227e+02     0.9893      4.229      6.134    27.0628 0.0000e+00
      4.321      0.069     8.1013    101.292    116.655 121.391142     0.7664 1.8081e+02     1.1037      4.235      6.142    27.0576 0.0000e+00
      4.336      0.077     8.0799    101.261    116.525 121.228825     0.7575 1.7876e+02     1.1572      4.250      6.164    27.0539 0.0000e+00
      4.355      0.084     8.0673    101.192    116.510 121.189338     0.7543 1.7702e+02     1.1890      4.272      6.195    27.0478 0.0000e+00
      4.378      0.090     8.0643    101.072    116.589 121.254648     0.7547 1.7518e+02     1.1452      4.292      6.224    27.0355 0.0000e+00
      4.408      0.092     8.0653    100.815    116.677 121.336494     0.7536 1.7282e+02     1.0051      4.321      6.268    27.0230 0.0000e+00
      4.439      0.090     8.0663    100.399    116.772 121.428762     0.7489 1.7043e+02     0.9376      4.356      6.317    27.0115 0.0000e+00
      4.464      0.087     8.0608     99.990    116.764 121.415490     0.7495 1.6886e+02     0.9464      4.380      6.353    27.0002 0.0000e+00
      4.481      0.086     8.0557     99.700    116.671 121.312412     0.7438 1.6760e+02     0.9407      4.397      6.376    26.9932 0.0000e+00
      4.493      0.084     8.0397     99.529    116.641 121.273579     0.7236 1.6630e+02     0.9366      4.405      6.389    26.9897 0.0000e+00
      4.511      0.080     7.9970     99.406    116.660 121.286928     0.7140 1.6471e+02     0.9316      4.418      6.408    26.9876 0.0000e+00
      4.538      0.077     7.9634     99.268    116.712 121.337412     0.7132 1.6262e+02     0.9144      4.450      6.455    26.9860 0.0000e+00
      4.566      0.074     7.9405     99.241    116.782 121.406593     0.7230 1.6088e+02     0.9002      4.481      6.500    26.9827 0.0000e+00
      4.587      0.072     7.9291     99.438    116.757 121.373223     0.7450 1.5967e+02     0.8962      4.501      6.528    26.9787 0.0000e+00
      4.601      0.070     7.9245     99.685    116.687 121.274910     0.7542 1.5880e+02     0.9008      4.514      6.546    26.9763 0.0000e+00
      4.610      0.067     7.9085     99.775    116.699 121.240796     0.7477 1.5810e+02     0.9218      4.519      6.555    26.9748 0.0000e+00
      4.622      0.065     7.8992     99.770    116.741 121.233471     0.7449 1.5670e+02     1.0465      4.528      6.567    26.9735 0.0000e+00
      4.642      0.068     7.9231     99.807    116.741 121.186257     0.7544 1.5484e+02     1.2425      4.552      6.601    26.9728 0.0000e+00
      4.666      0.074     7.9533     99.866    116.685 121.079046     0.7586 1.5337e+02     1.3343      4.580      6.643    26.9634 0.0000e+00
      4.685      0.080     7.9591     99.820    116.559 120.891844     0.7525 1.5217e+02     1.3659      4.596      6.665    26.9398 0.0000e+00
      4.702      0.086     7.9569     99.607    116.371 120.627603     0.7503 1.5077e+02     1.6246      4.607      6.681    26.9154 0.0000e+00
      4.723      0.091     7.9629     99.217    116.276 120.407207     0.7659 1.4907e+02     2.0589      4.632      6.718    26.8986 0.0000e+00
      4.747      0.095     7.9765     98.667    116.454 120.409058     0.8027 1.4733e+02     2.2918      4.655      6.752    26.8783 0.0000e+00
      4.773      0.097     7.9774     97.991    116.652 120.445119     0.8228 1.4523e+02     2.3113      4.676      6.783    26.8515 0.0000e+00
      4.804      0.094     7.9630     97.133    116.662 120.365605     0.8184 1.4282e+02     2.3297      4.711      6.832    26.8315 0.0000e+00
      4.834      0.087     7.9394     96.048    116.595 120.265842     0.8355 1.4104e+02     2.5828      4.745      6.882    26.7845 0.0000e+00
      4.856      0.078     7.9055     94.873    116.490 120.125364     0.8732 1.4017e+02     3.0021      4.765      6.911    26.6889 0.0000e+00
      4.869      0.068     7.8661     93.805    116.460 120.030901     0.8852 1.3954e+02     3.2112      4.775      6.925    26.6040 0.0000e+00
      4.880      0.061     7.8059     92.934    116.514 120.010100     0.8761 1.3854e+02     3.2567      4.784      6.939    26.5701 0.0000e+00
      4.892      0.061     7.7128     92.236    116.585 120.010125     0.8756 1.3735e+02     3.3458      4.798      6.959    26.5702 0.0000e+00
      4.907      0.068     7.6133     91.698    116.671 120.031090     0.8800 1.3623e+02     3.4655      4.811      6.978    26.5608 0.0000e+00
      4.922      0.078     7.5295     91.325    116.700 119.990714     0.8850 1.3508e+02     3.5366      4.826      6.999    26.5272 0.0000e+00
      4.942      0.086     7.4659     91.005    116.723 119.930979     0.8936 1.3349e+02     3.5189      4.844      7.026    26.4934 0.0000e+00
      4.970      0.089     7.4153     90.621    116.725 119.854251     0.9055 1.3140e+02     3.4226      4.871      7.065    26.4616 0.0000e+00
      5.001      0.089     7.3727     90.257    116.601 119.676591     0.9243 1.2945e+02     3.3001      4.906      7.114    26.4332 0.0000e+00
      5.028      0.088     7.3511     90.138    116.521 119.555800     0.9396 1.2815e+02     3.2381      4.934      7.157    26.4076 0.0000e+00
      5.048      0.086     7.3358     90.399    116.583 119.552971     0.9429 1.2750e+02     3.2224      4.952      7.183    26.3679 0.0000e+00
      5.062      0.083     7.3069     90.944    116.784 119.642289     0.9992 1.2689e+02     3.0415      4.963      7.199    26.3280 0.0000e+00
      5.077      0.082     7.2720     91.595    117.185 119.885459     1.1173 1.2574e+02     2.7337      4.975      7.216    26.3100 0.0000e+00
      5.099      0.083     7.2580     92.326    117.656 120.174348     1.1833 1.2409e+02     2.5906      4.998      7.248    26.3009 0.0000e+00
      5.126      0.084     7.2870     93.311    118.076 120.407241     1.1989 1.2249e+02     2.5135      5.028      7.292    26.2760 0.0000e+00
      5.152      0.086     7.3442     94.724    118.391 120.518881     1.3225 1.2123e+02     2.0759      5.054      7.330    26.2259 0.0000e+00
      5.174      0.086     7.4084     96.511    118.644 120.500972     1.5430 1.2006e+02     1.3511      5.075      7.361    26.1507 0.0000e+00
      5.192      0.085     7.4727     98.392    118.937 120.463062     1.6628 1.1893e+02     0.9601      5.092      7.386    26.0629 0.0000e+00
      5.209      0.082     7.5567    100.141    119.242 120.469165     1.6787 1.1757e+02     0.9191      5.106      7.406    25.9804 0.0000e+00
      5.231      0.077     7.6838    101.866    119.418 120.437902     1.6732 1.1570e+02     0.8551      5.127      7.437    25.9044 0.0000e+00
      5.257      0.069     7.8546    103.696    119.322 120.221138     1.6484 1.1384e+02     0.7353      5.155      7.478    25.7908 0.0000e+00
      5.279      0.060     8.0423    105.399    119.114 119.962098     1.6304 1.1250e+02     0.6728      5.181      7.514    25.6280 0.0000e+00
      5.294      0.053     8.1992    106.670    118.808 119.624364     1.6214 1.1183e+02     0.6833      5.195      7.534    25.4912 0.0000e+00
      5.299      0.050     8.3437    107.389    118.099 118.797036     1.5992 1.1154e+02     0.6900      5.198      7.539    25.4090 0.0000e+00
      5.301      0.053     8.5133    107.553    117.459 117.868636     1.5707 1.1095e+02     0.6848      5.197      7.538    25.3593 0.0000e+00
      5.309      0.062     8.6657    107.152    117.667 117.672181     1.5539 1.0973e+02     0.6894      5.204      7.546    25.3438 0.0000e+00
      5.326      0.075     8.7710    106.025    118.367 117.989417     1.5520 1.0763e+02     0.7109      5.219      7.569    25.3492 0.0000e+00
      5.353      0.085     8.8350    104.082    118.798 118.158102     1.5392 1.0489e+02     0.8079      5.246      7.609    25.3208 0.0000e+00
      5.386      0.090     8.8674    101.724    118.910 118.143101     1.5115 1.0216e+02     1.0036      5.282      7.661    25.1902 0.0000e+00
      5.416      0.090     8.8734     99.706    118.916 118.080612     1.5038 9.9952e+01     1.1550      5.314      7.708    24.9902 0.0000e+00
      5.438      0.087     8.8161     98.470    118.761 117.811588     1.5063 9.8688e+01     1.1968      5.337      7.741    24.8150 0.0000e+00
      5.452      0.085     8.6609     97.904    118.350 117.208470     1.4900 9.7677e+01     1.1305      5.346      7.755    24.7012 0.0000e+00
      5.465      0.086     8.4426     97.829    117.957 116.583679     1.4628 9.6140e+01     1.0062      5.357      7.770    24.6613 0.0000e+00
      5.485      0.091     8.2606     98.339    118.000 116.393346     1.4464 9.4139e+01     0.9292      5.376      7.797    24.6530 0.0000e+00
      5.511      0.097     8.1743     99.609    118.283 116.475015     1.4473 9.1816e+01     0.8868      5.402      7.836    24.6096 0.0000e+00
      5.542      0.098     8.1484    101.561    118.419 116.479940     1.5176 8.9335e+01     0.9053      5.435      7.882    24.5163 0.0000e+00
      5.576      0.095     8.1536    103.810    118.459 116.452717     1.6541 8.7103e+01     0.9468      5.469      7.933    24.4100 0.0000e+00
      5.606      0.091     8.2037    105.921    118.360 116.282141     1.7374 8.5861e+01     0.9088      5.503      7.981    24.3090 0.0000e+00
      5.623      0.088     8.3249    107.573    118.221 115.985551     1.7870 8.5592e+01     0.8576      5.518      8.003    24.2191 0.0000e+00
      5.631      0.087     8.5125    108.591    118.191 115.729994     2.2888 8.5127e+01     0.8077      5.519      8.005    24.1630 0.0000e+00
      5.646      0.086     8.7165    108.966    118.186 115.509954     3.2270 8.3757e+01     0.7167      5.531      8.022    24.1459 0.0000e+00
      5.674      0.085     8.9056    108.911    118.349 115.506436     3.7493 8.2064e+01     0.6509      5.562      8.067    24.1354 0.0000e+00
      5.708      0.085     9.0613    108.751    118.490 115.550870     3.8883 8.0769e+01     0.6639      5.599      8.121    24.0610 0.0000e+00
      5.736      0.082     9.1673    108.707    118.290 115.297110     4.9242 7.9927e+01     0.7711      5.629      8.164    23.9484 0.0000e+00
      5.755      0.076     9.2086    108.835    118.128 115.028895     6.8153 7.9466e+01     0.8830      5.647      8.191    23.8552 0.0000e+00
      5.765      0.066     9.2039    109.048    118.159 114.898478     7.8711 7.9062e+01     0.9183      5.653      8.199    23.7817 0.0000e+00
      5.776      0.060     9.1914    109.232    118.092 114.674473     8.3082 7.8367e+01     0.9234      5.661      8.211    23.7443 0.0000e+00
      5.791      0.058     9.1853    109.253    118.016 114.433661    12.1438 7.7697e+01     1.1853      5.680      8.239    23.7420 0.0000e+00
      5.806      0.060     9.2090    108.885    118.060 114.304546    19.1602 7.7074e+01     1.7500      5.695      8.260    23.6944 0.0000e+00
      5.822      0.064     9.2458    107.933    117.982 114.067534    22.9769 7.6134e+01     2.0858      5.707      8.277    23.6062 0.0000e+00
      5.841      0.068     9.2724    106.392    117.735 113.612919    23.1865 7.5234e+01     2.1210      5.729      8.310    23.5526 0.0000e+00
      5.858      0.071     9.2964    104.473    117.698 113.238725    21.7205 7.4589e+01     2.1413      5.746      8.334    23.4786 0.0000e+00
      5.873      0.071     9.2851    102.334    117.994 113.155767    18.9937 7.3770e+01     2.1602      5.757      8.349    23.3974 0.0000e+00
      5.893      0.067     9.2158    100.109    118.338 113.291027    17.4933 7.2719e+01     2.1427      5.777      8.379    23.3421 0.0000e+00
      5.917      0.058     9.0873     98.326    118.436 113.374117    17.2084 7.1778e+01     2.1020      5.804      8.418    23.2684 0.0000e+00
      5.935      0.047     8.9431     97.514    118.264 113.206034    15.6963 7.1254e+01     1.9769      5.826      8.448    23.1143 0.0000e+00
      5.945      0.035     8.7993     97.539    118.161 113.031175    12.9689 7.1143e+01     1.7630      5.833      8.460    22.9069 0.0000e+00
      5.947      0.025     8.6008     97.971    118.227 112.964059    11.4909 7.1248e+01     1.6442      5.834      8.461    22.8243 0.0000e+00
      5.947      0.020     8.4162     98.662    118.410 112.939709    11.3593 7.1284e+01     1.6402      5.832      8.456    22.8648 0.0000e+00
      5.947      0.023     8.3549     99.581    118.760 113.009154    11.2995 7.1127e+01     1.6800      5.831      8.457    22.8721 0.0000e+00
      5.950      0.033     8.3842    100.608    119.010 112.985294    11.2101 7.0867e+01     1.7817      5.834      8.461    22.8263 0.0000e+00
      5.959      0.046     8.4289    101.684    119.155 112.923526    11.1622 7.0302e+01     1.8733      5.840      8.471    22.7808 0.0000e+00
      5.975      0.059     8.5001    102.731    119.318 112.943731    11.0936 6.9372e+01     1.8963      5.856      8.495    22.6985 0.0000e+00
      5.998      0.070     8.6077    103.555    119.350 112.820411    10.2851 6.8512e+01     1.9908      5.883      8.533    22.5714 0.0000e+00
      6.019      0.079     8.7158    103.988    119.370 112.591138     8.7907 6.7817e+01     2.1920      5.905      8.564    22.4533 0.0000e+00
      6.038      0.084     8.8243    103.902    119.432 112.352652     7.9627 6.6931e+01     2.3026      5.919      8.584    22.3659 0.0000e+00
      6.060      0.087     8.9313    103.272    119.382 111.981514     7.8783 6.5896e+01     2.2991      5.940      8.616    22.3248 0.0000e+00
      6.085      0.087     9.0136    102.196    119.432 111.579794     7.8918 6.5036e+01     2.3555      5.969      8.659    22.2825 0.0000e+00
      6.108      0.087     9.0774    100.741    119.813 111.380320     7.9267 6.4280e+01     2.4690      5.991      8.688    22.1604 0.0000e+00
      6.129      0.082     9.0956     98.884    120.223 111.273037     7.9359 6.3389e+01     2.5041      6.007      8.714    22.0255 0.0000e+00
      6.152      0.073     9.0528     96.584    120.393 111.099931     7.9336 6.2485e+01     2.5047      6.033      8.750    21.9198 0.0000e+00
      6.174      0.062     8.9898     93.964    120.461 110.922800     7.9506 6.1848e+01     2.6487      6.059      8.788    21.7324 0.0000e+00
      6.189      0.052     8.9090     91.304    120.604 110.835118     7.9774 6.1493e+01     2.9058      6.071      8.806    21.4610 0.0000e+00
      6.197      0.042     8.7863     88.829    120.788 110.789272     7.9964 6.1223e+01     3.0386      6.077      8.813    21.2415 0.0000e+00
      6.203      0.035     8.5977     86.611    120.729 110.504514     8.0074 6.0977e+01     3.0532      6.084      8.823    21.1250 0.0000e+00
      6.209      0.032     8.3684     84.680    120.614 110.118277     8.0502 6.0781e+01     3.0482      6.089      8.832    21.0355 0.0000e+00
      6.214      0.035     8.1384     83.090    120.824 110.004118     8.1327 6.0531e+01     3.0113      6.092      8.838    20.9433 0.0000e+00
      6.222      0.041     7.9301     81.840    120.975 109.873593     8.1809 6.0057e+01     2.9858      6.098      8.845    20.8572 0.0000e+00
      6.234      0.050     7.7456     80.782    120.930 109.562134     8.1649 5.9437e+01     2.9796      6.113      8.866    20.7698 0.0000e+00
      6.248      0.061     7.5862     79.635    120.942 109.236947     7.9914 5.8885e+01     2.8674      6.129      8.890    20.6531 0.0000e+00
      6.263      0.072     7.4662     78.243    120.876 108.803971     7.6867 5.8124e+01     2.6591      6.140      8.905    20.5040 0.0000e+00
      6.283      0.085     7.3705     76.683    120.677 108.211484     7.5145 5.6959e+01     2.5554      6.160      8.934    20.4062 0.0000e+00
      6.307      0.103     7.3016     75.013    120.439 107.388800     7.4267 5.5578e+01     2.5408      6.186      8.972    20.3110 0.0000e+00
      6.332      0.123     7.2259     73.152    120.626 106.625533     6.6425 5.3811e+01     2.3793      6.209      9.006    20.1592 0.0000e+00
      6.360      0.139     7.1162     71.013    121.464 106.341926     5.2025 5.1107e+01     2.0796      6.232      9.038    20.0007 0.0000e+00
      6.400      0.148     6.9913     68.473    122.165 106.207311     4.4080 4.7682e+01     1.9043      6.271      9.094    19.8547 0.0000e+00
      6.455      0.151     6.8736     65.283    122.223 105.814721     4.3105 4.4845e+01     1.8389      6.332      9.184    19.6425 0.0000e+00
      6.505      0.151     6.7635     61.367    122.110 105.274531     4.0671 4.3168e+01     1.7004      6.385      9.260    19.2143 0.0000e+00
      6.540      0.145     6.6326     56.965    122.415 104.922603     3.6239 4.2117e+01     1.4996      6.416      9.305    18.7168 0.0000e+00
      6.566      0.134     6.4503     52.611    122.857 104.693457     3.3738 4.1049e+01     1.3684      6.437      9.336    18.4051 0.0000e+00
      6.595      0.121     6.1682     49.025    122.992 104.343012     3.3576 3.9763e+01     1.3500      6.465      9.376    18.2887 0.0000e+00
      6.629      0.112     5.8074     46.700    123.100 104.023794     3.4366 3.8545e+01     1.3801      6.502      9.431    18.1484 0.0000e+00
      6.659      0.111     5.4100     45.767    123.321 103.763415     3.5749 3.7506e+01     1.3891      6.533      9.475    17.8440 0.0000e+00
      6.683      0.114     4.9946     46.117    123.356 103.306591     3.6522 3.6567e+01     1.3905      6.554      9.505    17.5720 0.0000e+00
      6.706      0.120     4.6509     47.472    123.291 102.724367     3.6852 3.5555e+01     1.3974      6.574      9.534    17.4101 0.0000e+00
      6.733      0.128     4.4408     49.413    123.475 102.310431     3.9827 3.4356e+01     1.4384      6.601      9.573    17.2567 0.0000e+00
      6.766      0.138     4.3701     51.415    123.792 102.048534     4.5274 3.2951e+01     1.5766      6.633      9.620    17.0719 0.0000e+00
      6.808      0.148     4.4341     53.046    123.994 101.737462     4.8178 3.1388e+01     1.6956      6.674      9.680    16.8707 0.0000e+00
      6.854      0.153     4.5964     54.085    124.206 101.410325     4.8060 3.0054e+01     1.7093      6.725      9.754    16.6696 0.0000e+00
      6.895      0.149     4.8323     54.459    124.497 101.226645     4.4197 2.8995e+01     1.7423      6.762      9.808    16.4158 0.0000e+00
      6.935      0.139     5.0668     54.148    124.574 101.015013     3.7098 2.7960e+01     1.8546      6.798      9.861    16.1971 0.0000e+00
      6.974      0.129     5.2503     53.036    124.449 100.622595     3.3236 2.7179e+01     1.9346      6.843      9.926    16.0409 0.0000e+00
      7.003      0.121     5.3830     51.053    124.552 100.296927     3.2696 2.6765e+01     1.9537      6.873      9.969    15.8062 0.0000e+00
      7.023      0.116     5.4394     48.426    124.837 100.074595     3.0139 2.6365e+01     2.0509      6.885      9.987    15.6138 0.0000e+00
      7.046      0.114     5.4215     45.510    124.885  99.705194     2.5387 2.5761e+01     2.2176      6.905     10.014    15.5505 0.0000e+00
      7.077      0.117     5.3289     42.430    124.849  99.304531     2.2747 2.5078e+01     2.2871      6.940     10.065    15.4475 0.0000e+00
      7.112      0.123     5.1414     39.218    125.072  99.112994     2.2499 2.4488e+01     2.3062      6.976     10.117    15.2649 0.0000e+00
      7.144      0.128     4.8806     36.086    125.304  98.955795     2.1256 2.3930e+01     2.4489      7.004     10.159    15.0681 0.0000e+00
      7.178      0.124     4.6012     33.287    125.329  98.697805     1.8823 2.3300e+01     2.6735      7.038     10.208    14.9082 0.0000e+00
      7.214      0.113     4.3065     30.964    125.433  98.582046     1.7523 2.2697e+01     2.7909      7.076     10.264    14.7706 0.0000e+00
      7.248      0.096     3.9835     29.170    125.556  98.577807     1.7419 2.2238e+01     2.8036      7.110     10.313    14.6144 0.0000e+00
      7.274      0.078     3.6658     27.844    125.523  98.510184     1.7306 2.1978e+01     2.7924      7.138     10.353    14.4726 0.0000e+00
      7.290      0.058     3.3859     26.982    125.513  98.445614     1.7109 2.1897e+01     2.7592      7.152     10.373    14.3622 0.0000e+00
      7.295      0.040     3.1493     26.681    125.569  98.410147     1.6952 2.1883e+01     2.7453      7.155     10.377    14.2771 0.0000e+00
      7.298      0.025     2.9736     26.939    125.665  98.421874     1.6869 2.1868e+01     2.7611      7.156     10.379    14.2424 0.0000e+00
      7.301      0.015     2.8392     27.649    125.674  98.382960     1.6797 2.1855e+01     2.7791      7.160     10.385    14.2424 0.0000e+00
      7.305      0.010     2.7440     28.637    125.699  98.348325     1.6779 2.1861e+01     2.7911      7.165     10.391    14.2191 0.0000e+00
      7.307      0.008     2.7182     29.716    125.939  98.479909     1.6834 2.1876e+01     2.7689      7.166     10.393    14.1779 0.0000e+00
      7.308      0.007     2.7495     30.791    126.070  98.543271     1.6842 2.1888e+01     2.7169      7.166     10.395    14.1526 0.0000e+00
      7.310      0.006     2.8290     31.832    125.958  98.433162     1.6704 2.1896e+01     2.7117      7.168     10.397    14.1421 0.0000e+00
      7.311      0.006     2.9409     32.790    125.910  98.374785     1.6473 2.1912e+01     2.7404      7.169     10.398    14.1180 0.0000e+00
      7.313      0.006     3.0560     33.626    125.950  98.382395     1.6299 2.1942e+01     2.7545      7.171     10.400    14.0909 0.0000e+00
      7.314      0.007     3.1674     34.349    125.900  98.320780     1.6251 2.1944e+01     2.7791      7.172     10.402    14.0770 0.0000e+00
      7.315      0.008     3.2773     34.957    125.826  98.242877     1.6412 2.1903e+01     2.7974      7.174     10.405    14.0705 0.0000e+00
      7.318      0.008     3.3787     35.459    125.770  98.189801     1.6689 2.1874e+01     2.7706      7.176     10.408    14.0635 0.0000e+00
      7.320      0.008     3.4636     35.919    125.636  98.087760     1.6826 2.1850e+01     2.7300      7.179     10.411    14.0521 0.0000e+00
      7.323      0.009     3.5393     36.364    125.481  97.962827     1.6853 2.1793e+01     2.7177      7.181     10.415    14.0443 0.0000e+00
      7.325      0.012     3.6037     36.709    125.432  97.905437     1.6841 2.1739e+01     2.7599      7.183     10.419    14.0338 0.0000e+00
      7.327      0.017     3.6517     36.922    125.506  97.938801     1.6506 2.1689e+01     2.8626      7.185     10.421    14.0292 0.0000e+00
      7.329      0.026     3.6964     37.067    125.571  97.957475     1.5921 2.1589e+01     2.9635      7.185     10.421    14.0349 0.0000e+00
      7.334      0.040     3.7478     37.169    125.521  97.858703     1.5582 2.1394e+01     3.0178      7.190     10.429    14.0347 0.0000e+00
      7.345      0.058     3.7864     37.237    125.353  97.630063     1.5522 2.1099e+01     3.0386      7.200     10.444    14.0239 0.0000e+00
      7.360      0.078     3.8033     37.274    125.184  97.372750     1.5278 2.0699e+01     3.0435      7.215     10.465    14.0140 0.0000e+00
      7.382      0.095     3.8201     37.253    125.136  97.199715     1.4716 2.0154e+01     3.0428      7.237     10.496    14.0060 0.0000e+00
      7.413      0.109     3.8319     37.163    125.094  97.036376     1.4366 1.9444e+01     3.0302      7.267     10.540    13.9841 0.0000e+00
      7.448      0.117     3.8413     37.033    124.978  96.828172     1.4248 1.8668e+01     2.9942      7.304     10.593    13.9426 0.0000e+00
      7.484      0.119     3.8521     36.951    124.884  96.657625     1.3210 1.8020e+01     2.8138      7.340     10.646    13.8894 0.0000e+00
      7.516      0.118     3.8548     37.086    124.924  96.609011     1.1265 1.7531e+01     2.4963      7.372     10.693    13.8335 0.0000e+00
      7.544      0.115     3.8487     37.602    125.068  96.648994     1.0150 1.7124e+01     2.3143      7.399     10.732    13.7803 0.0000e+00
      7.569      0.112     3.8374     38.514    125.098  96.596034     0.9969 1.6750e+01     2.2952      7.422     10.765    13.7318 0.0000e+00
      7.594      0.110     3.8250     39.729    125.095  96.513527     0.9420 1.6322e+01     2.2998      7.446     10.800    13.6927 0.0000e+00
      7.622      0.111     3.8335     41.147    125.216  96.536829     0.8360 1.5804e+01     2.3008      7.474     10.840    13.6628 0.0000e+00
      7.653      0.116     3.8899     42.663    125.211  96.468989     0.7731 1.5307e+01     2.3079      7.506     10.887    13.6364 0.0000e+00
      7.682      0.121     3.9918     44.139    125.093  96.306266     0.7714 1.4893e+01     2.3169      7.535     10.930    13.6063 0.0000e+00
      7.710      0.126     4.1246     45.426    125.143  96.272180     0.7718 1.4429e+01     2.3072      7.559     10.964    13.5708 0.0000e+00
      7.743      0.129     4.2781     46.460    125.293  96.329234     0.7600 1.3860e+01     2.2930      7.591     11.009    13.5428 0.0000e+00
      7.781      0.130     4.4428     47.260    125.341  96.314877     0.7507 1.3290e+01     2.2822      7.632     11.069    13.5226 0.0000e+00
      7.818      0.131     4.6064     47.847    125.308  96.234764     0.7471 1.2760e+01     2.2793      7.668     11.121    13.4911 0.0000e+00
      7.851      0.131     4.7467     48.230    125.307  96.177920     0.7326 1.2291e+01     2.2924      7.700     11.168    13.4581 0.0000e+00
      7.882      0.128     4.8539     48.405    125.367  96.172435     0.7065 1.1879e+01     2.3036      7.730     11.211    13.4377 0.0000e+00
      7.913      0.122     4.9399     48.385    125.418  96.168394     0.6910 1.1453e+01     2.3125      7.759     11.253    13.4190 0.0000e+00
      7.945      0.116     5.0022     48.160    125.235  95.992769     0.6929 1.1007e+01     2.3311      7.791     11.300    13.3963 0.0000e+00
      7.977      0.111     5.0458     47.666    125.051  95.819908     0.6682 1.0609e+01     2.2885      7.824     11.348    13.3727 0.0000e+00
      8.006      0.109     5.0659     46.929    125.316  95.985517     0.6093 1.0307e+01     2.1750      7.854     11.392    13.3524 0.0000e+00
      8.029      0.109     5.0643     46.041    125.680  96.224102     0.5788 1.0075e+01     2.1256      7.875     11.422    13.3342 0.0000e+00
      8.051      0.112     5.0480     45.043    125.764  96.252438     0.5852 9.8246e+00     2.1719      7.894     11.448    13.3215 0.0000e+00
      8.077      0.119     4.9957     43.958    125.727  96.191852     0.5916 9.4943e+00     2.2544      7.918     11.484    13.3106 0.0000e+00
      8.109      0.131     4.9147     42.818    125.751  96.172687     0.5865 9.1087e+00     2.2987      7.951     11.534    13.2947 0.0000e+00
      8.145      0.149     4.8241     41.652    125.793  96.156892     0.5840 8.7307e+00     2.2615      7.988     11.586    13.2776 0.0000e+00
      8.183      0.167     4.7199     40.479    125.841  96.137051     0.5884 8.3397e+00     2.2503      8.024     11.637    13.2630 0.0000e+00
      8.226      0.179     4.6060     39.273    125.999  96.205186     0.5872 7.8703e+00     2.4042      8.063     11.695    13.2516 0.0000e+00
      8.277      0.184     4.4873     37.955    126.171  96.299485     0.5786 7.3534e+00     2.6462      8.114     11.768    13.2383 0.0000e+00
      8.337      0.185     4.3654     36.482    126.237  96.323544     0.5709 6.8646e+00     2.7724      8.177     11.859    13.2186 0.0000e+00
      8.392      0.185     4.2457     34.910    126.150  96.223592     0.5714 6.5060e+00     2.7973      8.238     11.948    13.1942 0.0000e+00
      8.432      0.183     4.1251     33.371    126.064  96.112657     0.5679 6.3055e+00     2.8793      8.274     12.001    13.1713 0.0000e+00
      8.464      0.180     3.9906     32.033    126.151  96.140143     0.5545 6.0379e+00     3.0079      8.293     12.028    13.1564 0.0000e+00
      8.508      0.176     3.8338     31.007    126.109  96.079073     0.5481 5.6236e+00     3.0826      8.339     12.094    13.1503 0.0000e+00
      8.560      0.175     3.6654     30.337    125.932  95.919148     0.5507 5.2669e+00     3.0958      8.399     12.182    13.1385 0.0000e+00
      8.610      0.175     3.4975     30.041    125.859  95.841247     0.5432 4.9855e+00     3.0648      8.443     12.245    13.1156 0.0000e+00
      8.656      0.172     3.3546     30.133    125.763  95.750191     0.5259 4.7186e+00     3.0163      8.490     12.313    13.1000 0.0000e+00
      8.700      0.163     3.2464     30.615    125.633  95.635546     0.5243 4.5072e+00     2.9894      8.534     12.379    13.0908 0.0000e+00
      8.738      0.152     3.1759     31.387    125.709  95.681106     0.5330 4.3238e+00     3.0142      8.568     12.428    13.0798 0.0000e+00
      8.774      0.145     3.1456     32.293    126.001  95.892351     0.5527 4.1356e+00     3.1110      8.604     12.480    13.0711 0.0000e+00
      8.809      0.143     3.1537     33.239    126.169  96.010013     0.5981 3.9697e+00     3.2330      8.639     12.530    13.0641 0.0000e+00
      8.842      0.144     3.2094     34.241    126.185  96.013903     0.6308 3.8312e+00     3.2865      8.671     12.577    13.0582 0.0000e+00
      8.874      0.147     3.2977     35.286    126.273  96.075608     0.6362 3.6709e+00     3.3125      8.700     12.619    13.0534 0.0000e+00
      8.911      0.149     3.3979     36.251    126.366  96.143032     0.6369 3.4573e+00     3.6840      8.735     12.670    13.0489 0.0000e+00
      8.956      0.149     3.4952     37.003    126.380  96.147955     0.6398 3.2458e+00     4.3449      8.784     12.741    13.0450 0.0000e+00
      9.000      0.147     3.5999     37.420    126.285  96.067011     0.6453 3.0946e+00     4.6774      8.830     12.806    13.0414 0.0000e+00
      9.037      0.142     3.7169     37.387    126.097  95.913597     0.6510 2.9750e+00     4.7171      8.864     12.855    13.0393 0.0000e+00
      9.070      0.137     3.8226     36.855    126.127  95.927785     0.7089 2.8467e+00     5.0307      8.894     12.899    13.0388 0.0000e+00
      9.102      0.134     3.9064     35.875    126.368  96.102317     0.8168 2.7297e+00     5.5853      8.926     12.947    13.0369 0.0000e+00
      9.133      0.133     3.9555     34.586    126.399  96.116611     0.8806 2.6413e+00     5.8614      8.957     12.991    13.0331 0.0000e+00
      9.163      0.133     3.9548     33.222    126.207  95.964374     0.9251 2.5416e+00     6.0683      8.982     13.028    13.0284 0.0000e+00
      9.198      0.130     3.8964     32.035    126.119  95.896379     1.2422 2.4066e+00     8.1559      9.018     13.080    13.0251 0.0000e+00
      9.240      0.122     3.7890     31.164    126.132  95.907530     1.8191 2.2877e+00    11.9439      9.064     13.146    13.0219 0.0000e+00
      9.278      0.109     3.6451     30.721    126.203  95.962963     2.1512 2.2127e+00    14.0347      9.103     13.201    13.0177 0.0000e+00
      9.305      0.091     3.4892     30.811    126.369  96.089805     2.2233 2.1536e+00    14.4841      9.128     13.239    13.0148 0.0000e+00
      9.323      0.071     3.3621     31.373    126.352  96.078863     2.6741 2.1108e+00    17.5486      9.144     13.263    13.0144 0.0000e+00
      9.334      0.051     3.2665     32.182    126.195  95.966905     3.5180 2.0832e+00    23.1406      9.155     13.278    13.0158 0.0000e+00
      9.342      0.035     3.2130     33.040    126.167  95.962211     3.9820 2.0638e+00    26.2706      9.162     13.288    13.0163 0.0000e+00
      9.347      0.023     3.2249     33.847    126.299  96.090242     4.0113 2.0515e+00    27.9964      9.167     13.295    13.0163 0.0000e+00
      9.351      0.016     3.2949     34.493    126.418  96.220752     3.9319 2.0263e+00    44.1792      9.171     13.302    13.0166 0.0000e+00
      9.354      0.012     3.3884     34.871    126.287  96.177936     3.7939 1.9927e+00    73.7541      9.174     13.306    13.0187 0.0000e+00
      9.356      0.009     3.4790     34.969    126.132  96.117546     3.7213 1.9616e+00    89.8076      9.175     13.307    13.0248 0.0000e+00
      9.357      0.008     3.5681     34.866    126.253  96.239929     3.6869 1.9246e+00    90.7185      9.176     13.308    13.0367 0.0000e+00
      9.359      0.007     3.6396     34.639    126.406  96.363491     3.3346 1.8598e+00    85.2483      9.178     13.311    13.0500 0.0000e+00
      9.361      0.007     3.6783     34.378    126.348  96.317329     2.6874 1.7763e+00    75.0294      9.180     13.314    13.0744 0.0000e+00
      9.363      0.008     3.6815     34.180    126.228  96.226704     2.3293 1.7211e+00    69.4052      9.182     13.318    13.1053 0.0000e+00
      9.365      0.010     3.6675     34.079    126.205  96.221386     2.2814 1.6896e+00    68.5404      9.184     13.320    13.1139 0.0000e+00
      9.365      0.010     3.6415     34.085    126.236  96.253037     2.1694 1.6343e+00    64.3329      9.184     13.320    13.1143 0.0000e+00
      9.368      0.009     3.6077     34.162    126.187  96.200721     1.9722 1.5299e+00    56.6415      9.186     13.323    13.1131 0.0000e+00
      9.373      0.008     3.5886     34.236    126.050  96.065628     1.8734 1.4192e+00    52.4159      9.193     13.333    13.1096 0.0000e+00
      9.377      0.007     3.5757     34.296    125.977  95.981904     1.8768 1.3822e+00    51.5569      9.198     13.340    13.1184 0.0000e+00
      9.378      0.005     3.5765     34.347    125.943  95.937658     1.9173 1.4054e+00    46.1860      9.196     13.339    13.1259 0.0000e+00
      9.377      0.002     3.5905     34.377    125.957  95.939321     2.0078 1.4228e+00    36.4017      9.195     13.337    13.1173 0.0000e+00
      9.376      0.000     3.5983     34.372    126.135  96.070103     2.0605 1.4328e+00    31.0356      9.195     13.336    13.1021 0.0000e+00
      9.376     -0.001     3.6050     34.328    126.253  96.156637     2.0430 1.4505e+00    30.2974      9.194     13.335    13.0905 0.0000e+00
      9.376     -0.001     3.6123     34.255    126.178  96.100092     1.9092 1.4665e+00    27.6821      9.194     13.335    13.0830 0.0000e+00
      9.375      0.000     3.6154     34.180    126.048  95.999464     1.6654 1.4730e+00    22.9674      9.194     13.335    13.0803 0.0000e+00
      9.375      0.000     3.6156     34.132    125.918  95.893568     1.5226 1.4714e+00    20.3626      9.194     13.334    13.0793 0.0000e+00
      9.376     -0.004     3.6110     34.099    125.330  95.432736     1.4998 1.4610e+00    20.0486      9.194     13.335    13.0773 0.0000e+00
      9.377     -0.015     3.6019     34.038    118.340  90.087002     1.4330 1.4468e+00    19.3428      9.196     13.337    13.0776 0.0000e+00
      9.377     -0.039     3.5925     33.948     40.159  30.509500     1.3144 1.4733e+00    18.0433      9.196     13.338    13.0790 0.0000e+00
      9.373     -0.082     3.5878     33.875   -821.065-625.594605     1.2531 1.5984e+00    17.3137      9.194     13.335    13.0751 0.0000e+00
      9.359     -0.149     3.5877     33.836  -1610.654 -1.227e+03     1.2476 1.8143e+00    17.0451      9.184     13.321    13.0705 0.0000e+00
      9.329     -0.236     3.5823     33.842   -821.312-625.947230     1.1427 2.0788e+00    14.4518      9.158     13.283    13.0628 0.0000e+00
      9.269     -0.329     3.5699     33.884     39.738  30.366260     0.9384 2.4010e+00     9.6823      9.104     13.204    13.0482 0.0000e+00
      9.169     -0.411     3.5628     33.934    117.882  89.942328     0.8321 2.8881e+00     7.1007      9.010     13.068    13.0588 0.0000e+00
      9.026     -0.468     3.5557     34.040    124.960  95.334004     0.8281 3.5862e+00     7.1334      8.857     12.847    13.0945 0.0000e+00
      8.863     -0.491     3.5529     34.255    125.479  95.692749     0.7947 4.3554e+00     9.7680      8.685     12.598    13.1202 0.0000e+00
      8.710     -0.482     3.5595     34.580    125.485  95.642141     0.7321 5.1219e+00    14.5445      8.535     12.379    13.1369 0.0000e+00
      8.583     -0.448     3.5602     34.982    125.580  95.675644     0.7040 5.8109e+00    17.1295      8.404     12.189    13.1465 0.0000e+00
      8.487     -0.402     3.5688     35.408    125.606  95.689105     0.6979 6.3561e+00    17.1622      8.315     12.059    13.1481 0.0000e+00
      8.411     -0.359     3.5937     35.857    125.559  95.668667     0.6575 6.9546e+00    14.6648      8.251     11.968    13.1319 0.0000e+00
      8.335     -0.324     3.6304     36.356    125.573  95.701019     0.5982 7.6779e+00    10.0397      8.176     11.858    13.1023 0.0000e+00
      8.255     -0.292     3.6776     36.859    125.665  95.807841     0.5711 8.4469e+00     7.5216      8.095     11.741    13.0847 0.0000e+00
      8.173     -0.265     3.7226     37.322    125.672  95.870457     0.5718 9.3422e+00     7.2555      8.018     11.629    13.0849 0.0000e+00
      8.093     -0.247     3.7653     37.741    125.473  95.777031     0.5728 1.0169e+01     6.7885      7.929     11.501    13.0941 0.0000e+00
      8.035     -0.242     3.8210     38.114    125.319  95.700018     0.5741 1.0540e+01     5.9602      7.864     11.405    13.1007 0.0000e+00
      8.005     -0.242     3.8750     38.516    125.446  95.824843     0.5784 1.0782e+01     5.4806      7.851     11.386    13.1127 0.0000e+00
      7.971     -0.246     3.9196     39.071    125.613  95.992143     0.5815 1.1680e+01     5.3496      7.837     11.367    13.1401 0.0000e+00
      7.898     -0.261     3.9635     39.789    125.662  96.088120     0.5857 1.3253e+01     4.7543      7.756     11.249    13.1669 0.0000e+00
      7.803     -0.287     3.9982     40.571    125.692  96.167992     0.5857 1.4682e+01     3.6730      7.639     11.081    13.1820 0.0000e+00
      7.723     -0.316     4.0325     41.345    125.674  96.208671     0.5827 1.5711e+01     3.0561      7.566     10.974    13.1884 0.0000e+00
      7.653     -0.334     4.0898     42.109    125.536  96.171339     0.5924 1.7055e+01     2.9941      7.515     10.900    13.2017 0.0000e+00
      7.568     -0.337     4.1674     42.849    125.459  96.193500     0.6424 1.8956e+01     2.8900      7.428     10.774    13.2320 0.0000e+00
      7.470     -0.332     4.2507     43.505    125.603  96.408604     0.7188 2.0937e+01     2.6557      7.320     10.617    13.2537 0.0000e+00
      7.376     -0.327     4.3287     44.013    125.818  96.728771     0.7530 2.2839e+01     2.5301      7.232     10.489    13.2700 0.0000e+00
      7.289     -0.319     4.4060     44.357    125.914  96.999541     0.7613 2.4589e+01     2.5384      7.145     10.363    13.2999 0.0000e+00
      7.211     -0.309     4.4832     44.563    125.863  97.162336     0.8619 2.5950e+01     2.5496      7.064     10.245    13.3321 0.0000e+00
      7.145     -0.303     4.5508     44.646    125.748  97.266861     1.0420 2.7257e+01     2.5291      7.008     10.164    13.3654 0.0000e+00
      7.079     -0.307     4.5985     44.551    125.743  97.446150     1.1354 2.8841e+01     2.4958      6.945     10.072    13.4294 0.0000e+00
      7.006     -0.318     4.6232     44.162    125.955  97.831678     1.1494 3.0779e+01     2.4906      6.873      9.969    13.5168 0.0000e+00
      6.921     -0.338     4.6362     43.457    126.145  98.318100     1.3429 3.3429e+01     2.4313      6.793      9.852    13.5951 0.0000e+00
      6.826     -0.363     4.6377     42.558    126.481  99.036178     1.7140 3.6628e+01     2.3288      6.694      9.708    13.6745 0.0000e+00
      6.729     -0.392     4.6276     41.621    127.201 100.246934     1.9173 4.0153e+01     2.3156      6.600      9.572    13.7442 0.0000e+00
      6.630     -0.420     4.5817     40.831    127.421 101.444409     1.9638 4.4257e+01     2.3405      6.505      9.435    13.8090 0.0000e+00
      6.525     -0.444     4.4886     40.483    126.981 102.410801     2.3622 4.9888e+01     2.2171      6.405      9.288    13.9511 0.0000e+00
      6.407     -0.462     4.3723     40.851    126.367 103.348126     3.0920 5.7093e+01     1.9914      6.290      9.123    14.1384 0.0000e+00
      6.276     -0.473     4.2541     42.102    125.343 103.921407     3.4884 6.3584e+01     1.8774      6.153      8.925    14.3252 0.0000e+00
      6.144     -0.478     4.1215     44.371    124.694 104.506252     3.5831 6.8744e+01     1.8691      6.025      8.738    14.7630 0.0000e+00
      6.018     -0.473     4.0253     47.596    124.651 105.378190     4.1854 7.3716e+01     1.9254      5.899      8.556    15.3230 0.0000e+00
      5.900     -0.462     4.0144     51.598    124.260 106.015197     5.2648 7.8745e+01     2.0431      5.782      8.385    15.8615 0.0000e+00
      5.787     -0.447     4.0706     56.225    123.697 106.553434     5.8487 8.4385e+01     2.1241      5.677      8.235    16.5269 0.0000e+00
      5.677     -0.435     4.2593     61.220    123.407 107.321342     5.9142 9.0874e+01     2.1497      5.566      8.073    16.9395 0.0000e+00
      5.569     -0.430     4.5525     66.280    123.568 108.554280     6.1340 9.8347e+01     2.1476      5.462      7.921    17.2297 0.0000e+00
      5.463     -0.431     4.8941     71.187    123.573 109.944020     6.5296 1.0700e+02     2.1324      5.357      7.771    17.6608 0.0000e+00
      5.357     -0.435     5.3026     75.915    122.953 111.040230     6.7347 1.1567e+02     2.1381      5.252      7.617    18.0611 0.0000e+00
      5.247     -0.440     5.7343     80.578    122.153 111.927308     6.7076 1.2404e+02     2.1473      5.150      7.470    18.4874 0.0000e+00
      5.131     -0.445     6.1698     85.331    121.308 112.628358     6.2447 1.3206e+02     1.9698      5.031      7.297    18.8627 0.0000e+00
      5.013     -0.450     6.5526     90.392    120.783 113.451736     5.3939 1.3935e+02     1.6052      4.914      7.128    19.4220 0.0000e+00
      4.896     -0.451     6.8747     95.779    120.265 114.113038     4.9174 1.4627e+02     1.4124      4.801      6.964    20.1881 0.0000e+00
      4.782     -0.448     7.2068    101.286    119.470 114.285776     4.8014 1.5299e+02     1.4233      4.687      6.798    20.8156 0.0000e+00
      4.668     -0.442     7.5248    106.469    119.235 114.655416     4.1566 1.5999e+02     1.6008      4.581      6.645    21.4546 0.0000e+00
      4.552     -0.434     7.8917    110.519    119.385 115.310749     2.9911 1.6701e+02     1.9447      4.461      6.470    21.9799 0.0000e+00
      4.442     -0.426     8.2968    112.975    119.376 115.937885     2.3522 1.7343e+02     2.1131      4.353      6.312    22.4516 0.0000e+00
      4.337     -0.418     8.7013    113.956    119.257 116.512036     2.2846 1.8050e+02     2.0916      4.256      6.173    22.9131 0.0000e+00
      4.232     -0.407     9.1566    113.699    119.218 117.208456     2.0602 1.8819e+02     2.0628      4.146      6.014    23.0715 0.0000e+00
      4.129     -0.394     9.4838    112.420    119.158 118.018293     1.6332 1.9584e+02     2.0055      4.050      5.875    23.2550 0.0000e+00
      4.028     -0.380     9.6291    110.527    118.774 118.600163     1.3968 2.0375e+02     1.9488      3.952      5.732    23.5544 0.0000e+00
      3.928     -0.365     9.6539    108.622    118.339 119.063132     1.3693 2.0965e+02     1.9268      3.845      5.577    23.8431 0.0000e+00
      3.839     -0.350     9.5755    107.029    117.999 119.526041     1.3602 2.1296e+02     1.9099      3.763      5.459    24.1256 0.0000e+00
      3.754     -0.339     9.3965    105.810    117.579 119.766041     1.3649 2.1527e+02     1.7454      3.681      5.340    24.4902 0.0000e+00
      3.672     -0.333     9.1346    104.931    117.266 119.852068     1.3661 2.1566e+02     1.4824      3.596      5.216    24.9472 0.0000e+00
      3.596     -0.331     8.9115    104.199    117.232 120.021260     1.3576 2.1384e+02     1.3735      3.530      5.118    25.3091 0.0000e+00
      3.515     -0.333     8.7257    103.483    117.096 120.039027     1.3481 2.1089e+02     1.3551      3.454      5.009    25.6530 0.0000e+00
      3.424     -0.337     8.5741    102.879    116.919 119.930757     1.2510 2.0793e+02     1.2264      3.357      4.869    25.9740 0.0000e+00
      3.333     -0.339     8.4858    102.381    117.093 120.144324     1.0590 2.0582e+02     1.0183      3.265      4.735    26.1359 0.0000e+00
      3.248     -0.339     8.4281    101.874    117.150 120.439104     0.9516 2.0329e+02     0.8992      3.188      4.625    26.1713 0.0000e+00
      3.158     -0.340     8.3481    101.470    116.898 120.494835     0.9414 1.9964e+02     0.8843      3.098      4.494    26.2656 0.0000e+00
      3.070     -0.341     8.2913    101.258    116.768 120.477740     0.8743 1.9694e+02     0.8386      3.002      4.355    26.3129 0.0000e+00
      2.994     -0.344     8.2731    101.167    116.801 120.505355     0.7554 1.9519e+02     0.7241      2.940      4.264    26.2364 0.0000e+00
      2.913     -0.350     8.2025    101.204    116.806 120.555925     0.7011 1.9239e+02     0.6672      2.867      4.158    26.3761 0.0000e+00
      2.815     -0.357     8.1346    101.339    116.839 120.680092     0.7032 1.8906e+02     0.6660      2.758      4.000    26.5909 0.0000e+00
      2.718     -0.362     8.1235    101.471    117.033 120.983885     0.6770 1.8663e+02     0.6408      2.661      3.858    26.5984 0.0000e+00
      2.628     -0.367     8.1177    101.626    117.126 121.228644     0.6180 1.8336e+02     0.6371      2.584      3.748    26.5616 0.0000e+00
      2.529     -0.373     8.1170    101.891    116.990 121.252873     0.5805 1.7808e+02     0.6558      2.482      3.601    26.5914 0.0000e+00
      2.430     -0.378     8.1263    102.242    116.895 121.277110     0.5694 1.7371e+02     0.6604      2.372      3.441    26.6425 0.0000e+00
      2.346     -0.383     8.1310    102.564    116.905 121.385490     0.5451 1.7139e+02     0.5901      2.302      3.339    26.6687 0.0000e+00
      2.256     -0.384     8.1290    102.809    116.964 121.540500     0.5038 1.6891e+02     0.4586      2.227      3.229    26.7394 0.0000e+00
      2.143     -0.384     8.1377    103.032    116.986 121.651154     0.4765 1.6603e+02     0.3749      2.101      3.047    26.8297 0.0000e+00
      2.031     -0.381     8.1654    103.307    116.956 121.700588     0.4665 1.6441e+02     0.3671      1.978      2.867    26.8679 0.0000e+00
      1.941     -0.373     8.1857    103.605    117.014 121.865536     0.4349 1.6396e+02     0.3654      1.903      2.761    26.9112 0.0000e+00
      1.853     -0.364     8.1980    103.849    117.088 122.077141     0.3809 1.6353e+02     0.2853      1.826      2.649    26.9494 0.0000e+00
      1.755     -0.361     8.2060    104.076    116.987 122.076972     0.3512 1.6307e+02     0.1884      1.711      2.482    26.9902 0.0000e+00
      1.670     -0.370     8.2249    104.314    116.873 122.000068     0.3530 1.6341e+02     0.1550      1.628      2.362    27.0191 0.0000e+00
      1.597     -0.387     8.2480    104.481    116.898 122.033957     0.3586 1.6593e+02     0.2247      1.582      2.294    27.0552 0.0000e+00
      1.500     -0.407     8.2527    104.516    116.930 122.077550     0.3591 1.6958e+02     0.3446      1.483      2.152    27.1327 0.0000e+00
      1.377     -0.427     8.2621    104.506    116.932 122.117979     0.3582 1.7153e+02     0.3681      1.344      1.950    27.1804 0.0000e+00
      1.256     -0.452     8.2830    104.586    116.939 122.181855     0.3574 1.7385e+02     0.3371      1.231      1.785    27.1919 0.0000e+00
      1.138     -0.475     8.2993    104.763    116.927 122.236190     0.3400 1.7800e+02     0.2800      1.118      1.621    27.1902 0.0000e+00
      1.020     -0.483     8.2995    104.976    116.973 122.365865     0.3038 1.8155e+02     0.1921      0.997      1.446    27.1879 0.0000e+00
      0.900     -0.477     8.2894    105.151    117.091 122.590485     0.2845 1.8556e+02     0.2010      0.892      1.294    27.2088 0.0000e+00
      0.766     -0.464     8.2932    105.224    117.133 122.769811     0.2888 1.9111e+02     0.2500      0.753      1.091    27.2344 0.0000e+00
      0.631     -0.441     8.3057    105.298    117.178 122.965698     0.2783 1.9540e+02     0.2011      0.603      0.876    27.2609 0.0000e+00
      0.519     -0.403     8.3175    105.489    117.318 123.254140     0.2433 1.9539e+02     0.1592      0.507      0.736    27.2982 0.0000e+00
      0.423     -0.348     8.3311    105.720    117.316 123.393069     0.2210 2.0414e+02     0.1897      0.415      0.601    27.3343 0.0000e+00
      0.335     -0.280     8.3230    105.911    117.154 123.349851     0.2165 2.2011e+02     0.2264      0.319      0.463    27.3971 0.0000e+00
      0.266     -0.212     8.3116    106.010    117.116 123.413830     0.2151 2.1853e+02     0.5694      0.254      0.368    27.4680 0.0000e+00
      0.222     -0.152     8.3252    105.938    117.219 123.621175     0.2221 2.1334e+02     1.2114      0.207      0.301    27.5197 0.0000e+00
      0.204     -0.101     8.3351    105.744    117.367 123.879100     0.2318 2.1264e+02     1.5685      0.193      0.281    27.5860 0.0000e+00
      0.201     -0.057     8.3415    105.602    117.573 124.213594     0.2365 2.0516e+02     1.6940      0.201      0.291    27.6434 0.0000e+00
      0.198     -0.025     8.3487    105.582    117.729 124.528245     0.2365 1.9937e+02     2.5570      0.196      0.285    27.6812 0.0000e+00
      0.190     -0.005     8.3348    105.592    117.711 124.682686     0.2313 1.9222e+02     4.1420      0.183      0.267    27.7242 0.0000e+00
      0.186      0.006     8.3066    105.553    117.547 124.648880     0.2251 1.9168e+02     5.0295      0.178      0.259    27.7666 0.0000e+00
      0.191      0.012     8.2860    105.504    117.367 124.528950     0.2228 2.0199e+02     5.0820      0.186      0.270    27.8116 0.0000e+00
      0.202      0.017     8.2802    105.541    117.276 124.460451     0.2207 2.0164e+02     4.7429      0.200      0.291    27.8736 0.0000e+00
      0.212      0.021     8.2707    105.667    117.232 124.434571     0.2171 2.0228e+02     4.1228      0.211      0.306    27.9613 0.0000e+00
      0.217      0.025     8.2564    105.798    117.194 124.420685     0.2144 2.1052e+02     3.7645      0.214      0.310    28.0275 0.0000e+00
      0.217      0.028     8.2453    105.881    117.172 124.429013     0.2137 2.0573e+02     3.6380      0.212      0.308    28.0501 0.0000e+00
      0.220      0.031     8.2467    105.868    117.243 124.535316     0.1996 1.9744e+02     2.6276      0.214      0.310    28.0569 0.0000e+00
      0.229      0.034     8.2603    105.711    117.363 124.682929     0.1740 1.9514e+02     0.7841      0.222      0.322    28.0635 0.0000e+00
      0.244      0.034     8.2687    105.446    117.328 124.645059     0.1638 1.9384e+02    -0.1805      0.238      0.346    28.0757 0.0000e+00
      0.260      0.027     8.2746    105.212    117.195 124.486680     0.1638 1.9353e+02    -0.2461      0.257      0.373    28.0900 0.0000e+00
      0.270      0.003     8.2735    105.127    117.144 124.404911     0.1653 1.9286e+02    -0.2841      0.269      0.390    28.1053 0.0000e+00
      0.274     -0.044     8.2590    105.195    117.115 124.338429     0.1724 1.9171e+02    -0.3308      0.269      0.391    28.1149 0.0000e+00
      0.271     -0.113     8.2337    105.346    117.120 124.296661     0.1725 1.9023e+02    -0.3653      0.269      0.389    28.1146 0.0000e+00
      0.254     -0.195     8.2120    105.436    117.226 124.377272     0.1661 2.0499e+02    -0.3577      0.263      0.382    28.1052 0.0000e+00
      0.199     -0.275     8.2089    105.359    117.269 124.426374     0.1559 2.8478e+02    -0.1013      0.212      0.308    28.0929 0.0000e+00
      0.100     -0.340     8.2163    104.963    117.187 124.344727     0.1360 7.1850e+02     0.3661      0.107      0.155    28.0811 0.0000e+00
     -0.026     -0.376     8.2375    103.878    117.085 124.208578     0.1249 1.1906e+03     0.6240     -0.025     -0.037    28.0551 0.0000e+00
     -0.155     -0.373     8.2511    101.927    117.018 124.076078     0.1428 1.2103e+03     0.7507     -0.158     -0.229    28.0341 0.0000e+00
     -0.270     -0.331     8.2421     99.353    116.989 123.970288     0.4052 1.4158e+03     2.0353     -0.271     -0.393    28.0460 0.0000e+00
     -0.360     -0.263     8.2268     96.568    116.974 123.884224     0.8948 1.8028e+03     4.4142     -0.368     -0.534    28.0536 0.0000e+00
     -0.411     -0.188     8.1501     93.903    117.080 123.922039     1.1557 1.6154e+03     5.7208     -0.418     -0.607    28.0409 0.0000e+00
     -0.426     -0.122     7.9911     91.480    117.329 124.086364     1.1061 1.4083e+03     5.8522     -0.421     -0.611    28.0116 0.0000e+00
     -0.427     -0.070     7.7839     89.559    117.500 124.165783     0.3301 1.7988e+03     6.0372     -0.417     -0.604    27.9748 0.0000e+00
     -0.432     -0.037     7.5576     88.823    117.529 124.131869    -1.0837 1.9294e+03     6.3772     -0.421     -0.610    27.9476 0.0000e+00
     -0.442     -0.021     7.3520     89.638    117.530 124.085457    -1.8471 1.4002e+03     6.5649     -0.435     -0.631    27.9204 0.0000e+00
     -0.450     -0.016     7.1665     91.391    117.528 124.013777    -1.8512 8.6866e+02     6.4529     -0.444     -0.644    27.8760 0.0000e+00
     -0.453     -0.013     6.9963     92.894    117.403 123.810717    -1.1414 7.3438e+02     5.1262     -0.444     -0.644    27.8195 0.0000e+00
     -0.453     -0.008     6.9234     93.183    116.293 122.585033     0.1634 8.4173e+02     2.7452     -0.444     -0.645    27.7981 0.0000e+00
     -0.453     -0.003     7.0122     92.274    104.340 109.944309     0.8677 8.7603e+02     1.4576     -0.444     -0.644    27.7906 0.0000e+00
     -0.453      0.000     7.1898     90.937     72.500  76.366199     0.9067 8.6556e+02     1.3334     -0.444     -0.645    27.7509 0.0000e+00
     -0.453      0.001     7.3473     89.748     37.736  39.730220     0.6084 9.0355e+02     1.1752     -0.444     -0.645    27.7179 0.0000e+00
     -0.452      0.001     7.3699     88.880     20.121  21.169102     0.0270 8.9337e+02     0.8844     -0.443     -0.643    27.6993 0.0000e+00
     -0.452      0.001     7.2702     88.532     16.386  17.231710    -0.2706 8.0433e+02     0.7354     -0.443     -0.643    27.6756 0.0000e+00
     -0.452 -9.990e-29     7.1531 -9.990e-29 -9.990e-29 -9.990e-29 -9.990e-29 7.0261e+02 -9.990e-29     -0.443     -0.643    27.6511 0.0000e+00
     -0.452 -9.990e-29     7.0638 -9.990e-29 -9.990e-29 -9.990e-29 -9.990e-29 6.1934e+02 -9.990e-29     -0.443     -0.643    27.6238 0.0000e+00
     -0.452 -9.990e-29     6.9959 -9.990e-29 -9.990e-29 -9.990e-29 -9.990e-29 5.9234e+02 -9.990e-29     -0.443     -0.643    27.5820 0.0000e+00
     -0.452 -9.990e-29     6.9596 -9.990e-29 -9.990e-29 -9.990e-29 -9.990e-29 6.0136e+02 -9.990e-29     -0.444     -0.644    27.5549 0.0000e+00
