* Sea-Bird SBE19plus  Data File:
* FileName = C:\DATA\081919_fcr_0006.hex
* Software version 2.8.0.119 SB_Terminal.dll
* Temperature SN = 7809
* Conductivity SN = 7809
* System UpLoad Time = Aug 20 2019 10:49:46
* <ApplicationData>
* <Seaterm232>
* <SoftwareVersion>2.8.0.119</SoftwareVersion>
* <BuildDate>07-Nov-2018</BuildDate>
* </Seaterm232>
* </ApplicationData>
* cast   6 19 Aug 2019 11:44:57 samples 2999 to 3893, avg = 1, stop = mag switch
# nquan = 16
# nvalues = 804                         
# units = specified
# name 0 = depFM: Depth [fresh water, m]
# name 1 = dz/dtM: Descent Rate [m/s]
# name 2 = sbeox0Mg/L: Oxygen, SBE 43 [mg/l]
# name 3 = sbeox0PS: Oxygen, SBE 43 [% saturation]
# name 4 = specc: Specific Conductance [uS/cm]
# name 5 = c0uS/cm: Conductivity [uS/cm]
# name 6 = flECO-AFL: Fluorescence, WET Labs ECO-AFL/FL [mg/m^3]
# name 7 = ph: pH
# name 8 = orp: Oxidation Reduction Potential [mV]
# name 9 = par/sat/log: PAR/Logarithmic, Satlantic
# name 10 = turbWETntu0: Turbidity, WET Labs ECO [NTU]
# name 11 = prdM: Pressure, Strain Gauge [db]
# name 12 = prdE: Pressure, Strain Gauge [psi]
# name 13 = tv290C: Temperature [ITS-90, deg C]
# name 14 = density00: Density [density, kg/m^3]
# name 15 = flag:  0.000e+00
# span 0 =     -0.550,      6.688       
# span 1 =     -0.009,      0.177       
# span 2 =     0.0902,    11.3178       
# span 3 =      0.867,    144.562       
# span 4 =      3.661,     75.636       
# span 5 =   3.409684,  58.888378       
# span 6 =    -0.6347,    12.9549       
# span 7 =      7.395,      9.127       
# span 8 =    82.6988,   252.7003       
# span 9 = 1.2354e-01, 1.8111e+03       
# span 10 =    -5.8443,    34.5588      
# span 11 =     -0.540,      6.559      
# span 12 =     -0.783,      9.513      
# span 13 =    11.9055,    28.3619      
# span 14 =   996.1509,   999.5618      
# span 15 = 0.0000e+00, 0.0000e+00      
# interval = seconds: 0.25
# start_time = Aug 19 2019 11:44:57 [Instrument's time stamp, header]
# bad_flag = -9.990e-29
# <Sensors count="9" >
#   <sensor Channel="1" >
#     <!-- Count, Temperature -->
#     <TemperatureSensor SensorID="58" >
#       <SerialNumber>7809</SerialNumber>
#       <CalibrationDate>24-Mar-19</CalibrationDate>
#       <A0>1.21792325e-003</A0>
#       <A1>2.81669265e-004</A1>
#       <A2>-1.60333336e-006</A2>
#       <A3>1.98414625e-007</A3>
#       <Slope>1.00000000</Slope>
#       <Offset>0.0000</Offset>
#     </TemperatureSensor>
#   </sensor>
#   <sensor Channel="2" >
#     <!-- Frequency 0, Conductivity -->
#     <ConductivitySensor SensorID="3" >
#       <SerialNumber>7809</SerialNumber>
#       <CalibrationDate>24-Mar-19</CalibrationDate>
#       <UseG_J>1</UseG_J>
#       <!-- Cell const and series R are applicable only for wide range sensors. -->
#       <SeriesR>0.0000</SeriesR>
#       <CellConst>2000.0000</CellConst>
#       <ConductivityType>0</ConductivityType>
#       <Coefficients equation="0" >
#         <A>0.00000000e+000</A>
#         <B>0.00000000e+000</B>
#         <C>0.00000000e+000</C>
#         <D>0.00000000e+000</D>
#         <M>0.0</M>
#         <CPcor>-9.57000000e-008</CPcor>
#       </Coefficients>
#       <Coefficients equation="1" >
#         <G>-1.00589325e+000</G>
#         <H>1.26816302e-001</H>
#         <I>-1.51560448e-004</I>
#         <J>2.67137274e-005</J>
#         <CPcor>-9.57000000e-008</CPcor>
#         <CTcor>3.2500e-006</CTcor>
#         <!-- WBOTC not applicable unless ConductivityType = 1. -->
#         <WBOTC>0.00000000e+000</WBOTC>
#       </Coefficients>
#       <Slope>1.00000000</Slope>
#       <Offset>0.00000</Offset>
#     </ConductivitySensor>
#   </sensor>
#   <sensor Channel="3" >
#     <!-- Count, Pressure, Strain Gauge -->
#     <PressureSensor SensorID="46" >
#       <SerialNumber>7809</SerialNumber>
#       <CalibrationDate>11-Mar-19</CalibrationDate>
#       <PA0>4.56561833e-002</PA0>
#       <PA1>4.85095118e-004</PA1>
#       <PA2>-2.88327090e-012</PA2>
#       <PTEMPA0>-5.48784562e+001</PTEMPA0>
#       <PTEMPA1>5.53756816e+001</PTEMPA1>
#       <PTEMPA2>-5.86727098e-001</PTEMPA2>
#       <PTCA0>5.25246745e+005</PTCA0>
#       <PTCA1>1.22304214e+001</PTCA1>
#       <PTCA2>-3.56745036e-001</PTCA2>
#       <PTCB0>2.51668750e+001</PTCB0>
#       <PTCB1>3.75000000e-004</PTCB1>
#       <PTCB2>0.00000000e+000</PTCB2>
#       <Offset>0.000000</Offset>
#     </PressureSensor>
#   </sensor>
#   <sensor Channel="4" >
#     <!-- A/D voltage 0, Oxygen, SBE 43 -->
#     <OxygenSensor SensorID="38" >
#       <SerialNumber>0434</SerialNumber>
#       <CalibrationDate>13-Apr-19</CalibrationDate>
#       <Use2007Equation>1</Use2007Equation>
#       <CalibrationCoefficients equation="0" >
#         <!-- Coefficients for Owens-Millard equation. -->
#         <Boc>0.0000</Boc>
#         <Soc>0.0000e+000</Soc>
#         <offset>0.0000</offset>
#         <Pcor>0.00e+000</Pcor>
#         <Tcor>0.0000</Tcor>
#         <Tau>0.0</Tau>
#       </CalibrationCoefficients>
#       <CalibrationCoefficients equation="1" >
#         <!-- Coefficients for Sea-Bird equation - SBE calibration in 2007 and later. -->
#         <Soc>4.2007e-001</Soc>
#         <offset>-0.6109</offset>
#         <A>-4.3656e-003</A>
#         <B> 1.7017e-004</B>
#         <C>-2.5341e-006</C>
#         <D0> 2.5826e+000</D0>
#         <D1> 1.92634e-004</D1>
#         <D2>-4.64803e-002</D2>
#         <E> 3.6000e-002</E>
#         <Tau20> 1.1800</Tau20>
#         <H1>-3.3000e-002</H1>
#         <H2> 5.0000e+003</H2>
#         <H3> 1.4500e+003</H3>
#       </CalibrationCoefficients>
#     </OxygenSensor>
#   </sensor>
#   <sensor Channel="5" >
#     <!-- A/D voltage 1, PAR/Logarithmic, Satlantic -->
#     <PARLog_SatlanticSensor SensorID="76" >
#       <SerialNumber>1122</SerialNumber>
#       <CalibrationDate>08-May-2019</CalibrationDate>
#       <a0>9.7456e-001</a0>
#       <a1>8.1640e-001</a1>
#       <Im>1.3589e+000</Im>
#       <Multiplier>1.0000e+000</Multiplier>
#     </PARLog_SatlanticSensor>
#   </sensor>
#   <sensor Channel="6" >
#     <!-- A/D voltage 2, pH -->
#     <pH_Sensor SensorID="43" >
#       <SerialNumber>0363</SerialNumber>
#       <CalibrationDate>15-Apr-19</CalibrationDate>
#       <Slope>4.5952</Slope>
#       <Offset>2.5370</Offset>
#     </pH_Sensor>
#   </sensor>
#   <sensor Channel="7" >
#     <!-- A/D voltage 3, Oxidation Reduction Potential -->
#     <OxidationReductionPotentialSensor SensorID="41" >
#       <SerialNumber>0363</SerialNumber>
#       <CalibrationDate>15-Apr-19</CalibrationDate>
#       <B>2.499480</B>
#       <M>-0.496195</M>
#       <Offset>0.0</Offset>
#     </OxidationReductionPotentialSensor>
#   </sensor>
#   <sensor Channel="8" >
#     <!-- A/D voltage 4, Fluorometer, WET Labs ECO-AFL/FL -->
#     <FluoroWetlabECO_AFL_FL_Sensor SensorID="20" >
#       <SerialNumber>FLNTURT-2496</SerialNumber>
#       <CalibrationDate>08-May-2019</CalibrationDate>
#       <ScaleFactor>5.00000000e+001</ScaleFactor>
#       <!-- Dark output -->
#       <Vblank>0.0550</Vblank>
#     </FluoroWetlabECO_AFL_FL_Sensor>
#   </sensor>
#   <sensor Channel="9" >
#     <!-- A/D voltage 5, Turbidity Meter, WET Labs, ECO-NTU -->
#     <TurbidityMeter SensorID="67" >
#       <SerialNumber>FLNTURT-2496</SerialNumber>
#       <CalibrationDate>08-May-2019</CalibrationDate>
#       <ScaleFactor>189.000000</ScaleFactor>
#       <!-- Dark output -->
#       <DarkVoltage>0.071000</DarkVoltage>
#     </TurbidityMeter>
#   </sensor>
# </Sensors>
# datcnv_date = Aug 20 2019 10:51:57, 7.26.7.129 [datcnv_vars = 15]
# datcnv_in = C:\DATA\081919_fcr45.hex C:\DATA\SBE19plusV2_7809.xmlcon
# datcnv_skipover = 0
# datcnv_ox_hysteresis_correction = yes
# datcnv_ox_tau_correction = yes
# filter_date = Aug 20 2019 10:52:12, 7.26.7.129
# filter_in = C:\DATA\081919_fcr45.cnv
# filter_low_pass_tc_A = 0.030
# filter_low_pass_tc_B = 0.150
# filter_low_pass_A_vars = prdM prdE tv290C density00
# filter_low_pass_B_vars = depFM dz/dtM sbeox0Mg/L sbeox0PS specc c0uS/cm flECO-AFL ph orp par/sat/log turbWETntu0
# alignctd_date = Aug 20 2019 10:52:31, 7.26.7.129
# alignctd_in = C:\DATA\081919_fcr45.cnv
# alignctd_adv = dz/dtM 1.000, sbeox0Mg/L 1.000, sbeox0PS 1.000, specc 1.000, c0uS/cm 1.000, flECO-AFL 1.000, ph 1.000, orp 1.000, turbWETntu0 1.000                                                                                 
# file_type = ascii
*END*
     -0.549 3.3070e-24     7.4347     84.315      4.169   3.881864    -0.1240      7.609   106.3720 1.8762e+02    -0.5151     -0.538     -0.780    21.5430   997.8808 0.0000e+00
     -0.549 3.6377e-23     7.4218     84.171      3.770   3.510755    -0.1213      7.616   104.7056 1.9609e+02    -0.5137     -0.538     -0.781    21.5496   997.8792 0.0000e+00
     -0.549 4.0014e-22     7.4019     83.949      3.661   3.409684    -0.1153      7.622   102.9068 2.0222e+02    -0.5163     -0.538     -0.781    21.5549   997.8781 0.0000e+00
     -0.549 4.4016e-21     7.3844     83.753      4.149   3.863831    -0.1218      7.627   101.4872 2.0404e+02    -0.5136     -0.538     -0.781    21.5572   997.8775 0.0000e+00
     -0.549 4.8417e-20     7.3770     83.673      7.419   6.910625    -0.1299      7.629   101.2213 2.0403e+02    -0.4816     -0.538     -0.781    21.5595   997.8769 0.0000e+00
     -0.549 5.3259e-19     7.3732     83.636     14.425  13.436629    -0.1268      7.630   101.5846 2.0344e+02    -0.4556     -0.539     -0.782    21.5607   997.8764 0.0000e+00
     -0.549 5.8585e-18     7.3638     83.540     20.595  19.186267    -0.1190      7.634   101.5774 2.0092e+02    -0.4945     -0.539     -0.781    21.5627   997.8761 0.0000e+00
     -0.549 6.4444e-17     7.3471     83.383     20.034  18.668427    -0.1225      7.639   101.1348 1.9309e+02    -0.5595     -0.539     -0.781    21.5638   997.8757 0.0000e+00
     -0.549 7.0888e-16     7.3254     83.246     14.688  13.703504    -0.1342      7.643   100.4492 1.8298e+02    -0.5530     -0.539     -0.781    21.5672   997.8755 0.0000e+00
     -0.549 7.7977e-15     7.3089     83.243     11.715  10.960790    -0.1388      7.644    99.4820 1.7754e+02    -0.4815     -0.539     -0.782    21.5679   997.8777 0.0000e+00
     -0.549 8.5774e-14     7.3107     83.419     11.257  10.554284    -0.1344      7.642    98.5609 1.7720e+02    -0.4490     -0.539     -0.781    21.5743   997.8789 0.0000e+00
     -0.549 9.4352e-13     7.3311     83.729     12.267  11.514274    -0.1240      7.638    97.4869 1.7919e+02    -0.4870     -0.539     -0.781    21.5768   997.8782 0.0000e+00
     -0.550 1.0379e-11     7.3611     84.113     13.702  12.867177    -0.1179      7.636    95.4437 1.8206e+02    -0.5480     -0.539     -0.782    21.6354   997.8620 0.0000e+00
     -0.550 1.1417e-10     7.3966     84.570     12.987  12.203567    -0.1207      7.632    94.1623 1.8547e+02    -0.5641     -0.539     -0.782    21.7933   997.8264 0.0000e+00
     -0.550 1.2558e-09     7.4396     85.125     12.341  11.606459    -0.1234      7.627    95.7596 1.9056e+02    -0.5509     -0.539     -0.781    21.8988   997.8026 0.0000e+00
     -0.550 1.3814e-08     7.4896     85.746     12.066  11.354524    -0.1511      7.623    98.7535 1.9768e+02    -0.5523     -0.539     -0.782    21.9289   997.7958 0.0000e+00
     -0.550 1.5195e-07     7.5407     86.359     11.276  10.615597    -0.2045      7.621   101.4518 2.0732e+02    -0.5147     -0.539     -0.782    21.9455   997.7935 0.0000e+00
     -0.550      0.000     7.5876     86.912     10.378   9.772146    -0.2315      7.618   104.1214 2.4411e+02    -0.4570     -0.539     -0.782    21.9739   997.7859 0.0000e+00
     -0.550      0.000     7.6276     87.379      8.834   8.319273    -0.1819      7.615   105.9934 3.3580e+02    -0.5763     -0.540     -0.783    22.0243   997.7745 0.0000e+00
     -0.550      0.000     7.6600     87.760      8.031   7.564139     0.3941      7.596    96.9846 3.9274e+02    -1.9567     -0.539     -0.782    22.0554   997.7675 0.0000e+00
     -0.550      0.002     7.6850     88.089      8.614   8.121188     1.4365      7.595    82.6988 4.3443e+02    -4.3982     -0.539     -0.782    22.0653   997.7647 0.0000e+00
     -0.550      0.009     7.6763     88.357     10.310   9.793861     2.0002      7.699   115.3237 5.9729e+02    -5.7145     -0.539     -0.782    22.0779   997.7621 0.0000e+00
     -0.550      0.024     7.5891     88.478     16.835  16.315136     2.0507      7.899   189.7093 6.8340e+02    -5.8443     -0.539     -0.782    22.0776   997.7614 0.0000e+00
     -0.549      0.046     7.4413     88.436     27.980  27.614700     1.9952      8.099   231.9124 6.1705e+02    -5.7711     -0.540     -0.783    22.0904   997.7583 0.0000e+00
     -0.543      0.073     7.2979     88.298     35.993  36.051720     1.3118      8.253   239.5395 7.1256e+02    -4.9936     -0.538     -0.781    22.0759   997.7619 0.0000e+00
     -0.521      0.101     7.1814     88.101     38.373  38.957757     0.0746      8.366   243.4691 9.7590e+02    -3.6209     -0.518     -0.752    22.1196   997.7522 0.0000e+00
     -0.484      0.129     7.0824     87.861     38.720  39.776789    -0.5919      8.446   245.4389 1.1644e+03    -2.8073     -0.475     -0.691    22.8466   997.5848 0.0000e+00
     -0.439      0.154     6.9918     87.572     38.774  40.241986    -0.6347      8.494   228.6821 1.2651e+03    -1.8745     -0.430     -0.624    24.1064   997.2858 0.0000e+00
     -0.394      0.171     6.9048     87.227     38.567  40.393217    -0.3995      8.520   211.8245 1.3580e+03     7.5922     -0.387     -0.561    25.0740   997.0448 0.0000e+00
     -0.348      0.177     6.8306     86.888     38.170  40.272733     0.0583      8.544   231.0732 1.4526e+03    24.9388     -0.343     -0.498    25.7809   996.8607 0.0000e+00
     -0.300      0.172     6.7794     86.634     37.718  39.991871     0.3137      8.563   251.7387 1.5316e+03    34.3654     -0.296     -0.429    26.3887   996.6993 0.0000e+00
     -0.251      0.157     6.7514     86.504     37.363  39.727390     0.3557      8.572   252.7003 1.5865e+03    34.5588     -0.245     -0.355    26.8934   996.5624 0.0000e+00
     -0.206      0.136     6.7438     86.495     37.155  39.550883     0.7137      8.575   249.9272 1.6369e+03    27.2772     -0.199     -0.289    27.3969   996.4235 0.0000e+00
     -0.170      0.110     6.7515     86.576     37.064  39.444835     1.3921      8.575   230.2548 1.6787e+03    13.8348     -0.161     -0.235    27.8056   996.3089 0.0000e+00
     -0.147      0.084     6.7663     86.715     36.983  39.333880     1.7694      8.572   195.4392 1.6890e+03     6.5251     -0.140     -0.202    28.0438   996.2414 0.0000e+00
     -0.136      0.060     6.7810     86.876     36.834  39.161485     1.8162      8.574   193.6097 1.6752e+03     5.8822     -0.132     -0.191    28.1881   996.2001 0.0000e+00
     -0.131      0.041     6.7940     87.012     36.705  39.010882     1.8282      8.583   224.3957 1.6637e+03     5.7666     -0.129     -0.187    28.2477   996.1831 0.0000e+00
     -0.127      0.030     6.8089     87.113     36.710  38.972957     1.8276      8.584   223.5998 1.6717e+03     5.6519     -0.127     -0.184    28.2079   996.1944 0.0000e+00
     -0.121      0.026     6.8241     87.184     36.870  39.083745     1.8174      8.576   190.0952 1.7043e+03     5.6095     -0.120     -0.174    28.1623   996.2075 0.0000e+00
     -0.112      0.029     6.8324     87.235     37.072  39.271156     1.8094      8.573   171.7097 1.7415e+03     5.6141     -0.109     -0.156    28.1492   996.2112 0.0000e+00
     -0.107      0.033     6.8329     87.291     37.229  39.461454     1.8088      8.577   184.7383 1.7546e+03     5.6420     -0.105     -0.152    28.1526   996.2102 0.0000e+00
     -0.101      0.035     6.8279     87.330     37.379  39.670695     1.8183      8.579   201.4428 1.7596e+03     5.7175     -0.103     -0.150    28.0922   996.2275 0.0000e+00
     -0.089      0.035     6.8233     87.370     37.487  39.833258     1.8295      8.575   189.3862 1.7757e+03     5.7740     -0.088     -0.128    27.9711   996.2620 0.0000e+00
     -0.075      0.033     6.8419     87.673     37.524  39.903517     1.8221      8.572   170.4309 1.7798e+03     5.7676     -0.071     -0.104    27.9320   996.2732 0.0000e+00
     -0.065      0.029     6.9118     88.613     37.547  39.948906     1.8160      8.573   165.3283 1.7566e+03     5.7381     -0.061     -0.089    27.9814   996.2592 0.0000e+00
     -0.060      0.022     7.0158     89.988     37.577  40.001191     1.8338      8.574   164.1723 1.7143e+03     5.7452     -0.058     -0.084    28.0594   996.2372 0.0000e+00
     -0.055      0.013     7.1138     91.274     37.589  40.027869     1.8641      8.574   163.5087 1.6538e+03     5.7882     -0.055     -0.079    28.1338   996.2161 0.0000e+00
     -0.053      0.007     7.2105     92.532     37.572  40.017556     1.8785      8.573   163.1549 1.5208e+03     5.7994     -0.048     -0.070    28.1703   996.2057 0.0000e+00
     -0.055      0.006     7.3139     93.882     37.549  40.003479     1.8692      8.571   162.9059 1.3737e+03     5.7820     -0.053     -0.077    28.1891   996.2004 0.0000e+00
     -0.058      0.008     7.4124     95.175     37.520  39.984641     1.8476      8.570   162.5636 1.2115e+03     5.7742     -0.060     -0.086    28.2237   996.1904 0.0000e+00
     -0.058      0.013     7.4903     96.193     37.449  39.916769     1.8249      8.572   162.1995 1.0778e+03     5.7709     -0.058     -0.083    28.2423   996.1851 0.0000e+00
     -0.053      0.017     7.5346     96.765     37.354  39.817676     1.8209      8.577   161.8599 1.2408e+03     5.7753     -0.053     -0.078    28.2432   996.1848 0.0000e+00
     -0.044      0.019     7.5680     97.185     37.284  39.738745     1.8241      8.583   161.5541 1.4528e+03     5.7936     -0.044     -0.064    28.2613   996.1797 0.0000e+00
     -0.034      0.018     7.6168     97.811     37.270  39.724190     1.8291      8.590   161.4266 1.3929e+03     5.7636     -0.033     -0.047    28.2800   996.1744 0.0000e+00
     -0.027      0.014     7.6698     98.508     37.305  39.768655     1.8554      8.595   161.5236 1.2518e+03     5.6736     -0.025     -0.036    28.2918   996.1710 0.0000e+00
     -0.024      0.008     7.7053     98.976     37.300  39.768526     1.8814      8.599   161.5217 1.1152e+03     5.6236     -0.022     -0.031    28.2959   996.1698 0.0000e+00
     -0.027      0.003     7.7148     99.092     37.260  39.722646     1.8928      8.604   161.4038 8.7718e+02     5.6184     -0.026     -0.039    28.2831   996.1734 0.0000e+00
     -0.032     -0.002     7.6994     98.883     37.264  39.721767     1.8805      8.609   161.3891 6.8597e+02     5.6429     -0.033     -0.048    28.2806   996.1740 0.0000e+00
     -0.033     -0.004     7.6659     98.448     37.299  39.757887     1.8448      8.614   161.4304 7.4431e+02     5.7242     -0.034     -0.049    28.2965   996.1696 0.0000e+00
     -0.032     -0.004     7.6205     97.866     37.318  39.778489     1.8260      8.618   161.4725 8.7466e+02     5.8145     -0.031     -0.044    28.3073   996.1665 0.0000e+00
     -0.032     -0.004     7.5684     97.199     37.318  39.780412     1.8263      8.622   161.5538 8.7088e+02     5.8492     -0.030     -0.045    28.2998   996.1685 0.0000e+00
     -0.033     -0.005     7.5235     96.629     37.317  39.781138     1.8223      8.626   161.7254 8.1925e+02     5.7517     -0.032     -0.047    28.2882   996.1719 0.0000e+00
     -0.034     -0.005     7.5002     96.337     37.320  39.787277     1.8127      8.629   161.9125 7.6272e+02     5.5857     -0.032     -0.047    28.2885   996.1718 0.0000e+00
     -0.036     -0.005     7.5072     96.440     37.318  39.791162     1.8054      8.632   162.0087 6.5692e+02     5.5126     -0.035     -0.051    28.2898   996.1715 0.0000e+00
     -0.039     -0.003     7.5510     97.017     37.288  39.764633     1.8043      8.635   162.0282 5.5564e+02     5.5231     -0.039     -0.056    28.2913   996.1711 0.0000e+00
     -0.041     -0.001     7.6268     97.999     37.243  39.720458     1.8072      8.637   162.0627 5.4020e+02     5.5494     -0.041     -0.060    28.2949   996.1700 0.0000e+00
     -0.041      0.002     7.7221     99.226     37.223  39.701414     1.8493      8.640   162.1687 6.3567e+02     5.6013     -0.042     -0.061    28.2978   996.1692 0.0000e+00
     -0.038      0.005     7.8295    100.613     37.242  39.724826     1.9322      8.643   162.2760 7.4227e+02     5.6914     -0.037     -0.054    28.3055   996.1670 0.0000e+00
     -0.035      0.007     7.9385    102.027     37.261  39.749606     1.9847      8.646   162.3277 7.9314e+02     5.7540     -0.033     -0.048    28.3171   996.1637 0.0000e+00
     -0.033      0.007     8.0327    103.250     37.255  39.747109     2.0077      8.649   162.3640 8.4699e+02     5.7687     -0.032     -0.046    28.3214   996.1624 0.0000e+00
     -0.031      0.006     8.1032    104.164     37.262  39.758126     2.0457      8.653   162.4565 9.2109e+02     5.7705     -0.030     -0.044    28.3197   996.1629 0.0000e+00
     -0.031      0.005     8.1514    104.788     37.258  39.755851     2.0891      8.658   162.5869 9.3367e+02     5.7437     -0.029     -0.042    28.3249   996.1615 0.0000e+00
     -0.031      0.004     8.1829    105.190     37.225  39.719615     2.1069      8.663   162.7349 9.0410e+02     5.7066     -0.030     -0.043    28.3328   996.1592 0.0000e+00
     -0.030      0.002     8.2046    105.458     37.211  39.700880     2.1052      8.666   162.9559 9.3795e+02     5.7143     -0.030     -0.044    28.3395   996.1572 0.0000e+00
     -0.028      0.000     8.2235    105.701     37.229  39.719764     2.1117      8.666   163.2797 1.0413e+03     5.8042     -0.027     -0.040    28.3443   996.1558 0.0000e+00
     -0.025     -0.001     8.2448    105.992     37.258  39.757499     2.1248      8.667   163.5525 1.0953e+03     5.9413     -0.023     -0.033    28.3474   996.1549 0.0000e+00
     -0.026      0.000     8.2664    106.287     37.269  39.776247     2.1256      8.667   163.6730 9.4831e+02     5.9965     -0.024     -0.034    28.3472   996.1551 0.0000e+00
     -0.031      0.002     8.2810    106.470     37.252  39.756022     2.1214      8.668   163.7903 7.3285e+02     5.9794     -0.031     -0.045    28.3365   996.1581 0.0000e+00
     -0.034      0.003     8.2818    106.443     37.216  39.703398     2.1259      8.670   163.9378 7.5429e+02     5.9642     -0.036     -0.052    28.3332   996.1590 0.0000e+00
     -0.031      0.004     8.2673    106.217     37.179  39.647804     2.1279      8.675   164.0808 9.8477e+02     5.9104     -0.033     -0.047    28.3471   996.1551 0.0000e+00
     -0.025      0.005     8.2427    105.891     37.190  39.655134     2.1197      8.680   164.1415 1.1830e+03     5.8213     -0.024     -0.035    28.3610   996.1512 0.0000e+00
     -0.020      0.006     8.2146    105.547     37.252  39.728544     2.1137      8.684   164.0700 1.2251e+03     5.7393     -0.018     -0.026    28.3619   996.1509 0.0000e+00
     -0.019      0.006     8.1871    105.214     37.287  39.773626     2.0972      8.687   164.0767 1.1320e+03     5.7375     -0.018     -0.027    28.3358   996.1583 0.0000e+00
     -0.022      0.005     8.1557    104.819     37.267  39.755861     2.0590      8.692   164.3091 1.0510e+03     5.7990     -0.021     -0.032    28.3045   996.1673 0.0000e+00
     -0.023      0.003     8.1131    104.269     37.219  39.704198     2.0345      8.697   164.4710 1.0843e+03     5.7949     -0.023     -0.034    28.3025   996.1679 0.0000e+00
     -0.021      0.002     8.0611    103.593     37.177  39.656825     2.0176      8.702   164.4845 1.1758e+03     5.7536     -0.021     -0.030    28.3176   996.1636 0.0000e+00
     -0.018      0.002     8.0080    102.906     37.152  39.627447     1.9930      8.706   164.6447 1.2375e+03     5.7263     -0.017     -0.024    28.3298   996.1601 0.0000e+00
     -0.017      0.001     7.9628    102.328     37.128  39.602914     1.9803      8.710   164.8593 1.2186e+03     5.6614     -0.015     -0.022    28.3356   996.1584 0.0000e+00
     -0.018      0.000     7.9331    101.949     37.138  39.614114     1.9679      8.714   165.0144 1.1423e+03     5.5909     -0.017     -0.025    28.3327   996.1592 0.0000e+00
     -0.019     -0.003     7.9216    101.801     37.158  39.635906     1.9469      8.717   165.2297 1.0613e+03     5.5619     -0.019     -0.027    28.3258   996.1612 0.0000e+00
     -0.020     -0.005     7.9270    101.869     37.137  39.612477     1.9345      8.719   165.4830 9.8416e+02     5.5731     -0.019     -0.028    28.3241   996.1616 0.0000e+00
     -0.021     -0.005     7.9473    102.126     37.112  39.584766     1.9222      8.721   165.6675 8.6795e+02     5.6614     -0.020     -0.029    28.3260   996.1610 0.0000e+00
     -0.023     -0.004     7.9774    102.508     37.086  39.554776     1.9022      8.722   165.7409 7.5239e+02     5.7778     -0.022     -0.032    28.3278   996.1606 0.0000e+00
     -0.025     -0.002     8.0104    102.923     37.041  39.503784     1.8925      8.723   165.7676 7.1585e+02     5.7998     -0.025     -0.036    28.3286   996.1604 0.0000e+00
     -0.026     -0.002     8.0396    103.286     37.019  39.476064     1.8914      8.723   165.9048 7.4026e+02     5.7645     -0.026     -0.037    28.3267   996.1609 0.0000e+00
     -0.025     -0.002     8.0572    103.504     37.021  39.473544     1.9140      8.724   166.1951 8.1852e+02     5.7766     -0.024     -0.035    28.3254   996.1613 0.0000e+00
     -0.023     -0.003     8.0572    103.502     37.021  39.473296     1.9672      8.725   166.4376 8.4622e+02     5.8147     -0.021     -0.032    28.3239   996.1618 0.0000e+00
     -0.022     -0.003     8.0405    103.294     37.018  39.473065     2.0060      8.727   166.5144 7.3661e+02     5.8323     -0.021     -0.030    28.3179   996.1634 0.0000e+00
     -0.024     -0.003     8.0131    102.951     37.013  39.470759     2.0184      8.730   166.6072 5.7873e+02     5.8256     -0.023     -0.034    28.3106   996.1654 0.0000e+00
     -0.029     -0.002     7.9818    102.547     36.990  39.445428     2.0563      8.731   166.7854 4.6820e+02     5.7990     -0.028     -0.041    28.3040   996.1673 0.0000e+00
     -0.031     -0.002     7.9491    102.098     36.978  39.420702     2.1261      8.732   166.9479 4.5975e+02     5.7731     -0.032     -0.047    28.3024   996.1678 0.0000e+00
     -0.030     -0.001     7.9109    101.560     37.001  39.425704     2.1687      8.734   167.1089 5.4265e+02     5.7750     -0.030     -0.044    28.3085   996.1661 0.0000e+00
     -0.026     -0.001     7.8635    100.917     36.970  39.378911     2.1815      8.735   167.2703 6.0995e+02     5.7889     -0.024     -0.035    28.3157   996.1640 0.0000e+00
     -0.025     -0.001     7.8066    100.177     36.900  39.299276     2.1160      8.735   167.4362 5.8969e+02     5.7765     -0.022     -0.033    28.3183   996.1633 0.0000e+00
     -0.027     -0.002     7.7406     99.326     36.891  39.288066     1.9660      8.736   167.7385 5.1422e+02     5.7568     -0.026     -0.038    28.3016   996.1681 0.0000e+00
     -0.029     -0.005     7.6697     98.416     36.908  39.306854     1.8770      8.738   167.9994 4.2573e+02     5.7800     -0.028     -0.041    28.2652   996.1786 0.0000e+00
     -0.031     -0.006     7.6030     97.566     36.933  39.335994     1.8720      8.740   168.0104 3.8148e+02     5.8275     -0.031     -0.045    28.2444   996.1845 0.0000e+00
     -0.033     -0.006     7.5486     96.881     36.975  39.386488     1.8800      8.743   168.0429 3.7988e+02     5.8393     -0.032     -0.047    28.2447   996.1843 0.0000e+00
     -0.034     -0.005     7.5142     96.447     36.994  39.409541     1.8780      8.746   168.1353 3.6538e+02     5.8239     -0.032     -0.047    28.2432   996.1848 0.0000e+00
     -0.036     -0.002     7.5025     96.286     36.953  39.360812     1.8739      8.751   168.1800 3.6040e+02     5.8055     -0.035     -0.052    28.2404   996.1855 0.0000e+00
     -0.037      0.001     7.5076     96.321     36.794  39.178184     1.8744      8.755   168.3260 3.6883e+02     5.8143     -0.036     -0.053    28.2451   996.1841 0.0000e+00
     -0.036      0.004     7.5188     96.426     36.563  38.915327     1.8751      8.758   168.5231 3.7469e+02     5.8315     -0.035     -0.051    28.2539   996.1817 0.0000e+00
     -0.035      0.005     7.5214     96.439     36.449  38.785237     1.9339      8.760   168.6701 3.8760e+02     5.8168     -0.035     -0.051    28.2619   996.1794 0.0000e+00
     -0.032      0.004     7.5052     96.229     36.533  38.874843     2.0484      8.764   168.8133 4.2820e+02     5.8006     -0.033     -0.048    28.2569   996.1808 0.0000e+00
     -0.027      0.002     7.4718     95.800     36.695  39.046569     2.1140      8.769   168.9640 5.3556e+02     5.7997     -0.027     -0.039    28.2358   996.1869 0.0000e+00
     -0.025      0.000     7.4281     95.232     36.793  39.147634     2.1200      8.774   169.1152 5.8925e+02     5.8052     -0.022     -0.032    28.2066   996.1951 0.0000e+00
     -0.027     -0.001     7.3800     94.613     36.792  39.144617     2.1391      8.779   169.1787 4.8552e+02     5.8025     -0.025     -0.037    28.1923   996.1991 0.0000e+00
     -0.032     -0.002     7.3364     94.049     36.727  39.073567     2.1974      8.782   169.2166 3.8180e+02     5.7995     -0.033     -0.048    28.2009   996.1967 0.0000e+00
     -0.035     -0.002     7.3044     93.617     36.654  38.986857     2.2441      8.786   169.4006 3.7998e+02     5.8014     -0.037     -0.053    28.1990   996.1973 0.0000e+00
     -0.034     -0.002     7.2820     93.295     36.608  38.921414     2.2531      8.791   169.5970 4.4080e+02     5.7931     -0.035     -0.050    28.1893   996.2001 0.0000e+00
     -0.031     -0.001     7.2640     93.030     36.618  38.917073     2.2799      8.797   169.6980 4.9551e+02     5.7313     -0.030     -0.043    28.1912   996.1996 0.0000e+00
     -0.029      0.001     7.2469     92.783     36.645  38.934342     2.3427      8.804   169.7616 4.7588e+02     5.6441     -0.027     -0.039    28.1934   996.1990 0.0000e+00
     -0.031      0.001     7.2284     92.526     36.599  38.876280     2.3801      8.811   169.8495 4.1628e+02     5.6243     -0.030     -0.043    28.1791   996.2031 0.0000e+00
     -0.034      0.000     7.2081     92.250     36.521  38.786344     2.3759      8.817   169.9868 3.9180e+02     5.6223     -0.034     -0.049    28.1528   996.2105 0.0000e+00
     -0.034     -0.001     7.1838     91.925     36.480  38.735620     2.3527      8.823   170.0451 4.1577e+02     5.6863     -0.035     -0.051    28.1302   996.2168 0.0000e+00
     -0.032     -0.001     7.1520     91.500     36.460  38.707322     2.3246      8.829   170.0376 4.5159e+02     5.8734     -0.032     -0.046    28.1140   996.2216 0.0000e+00
     -0.031     -0.000     7.1124     90.974     36.460  38.698089     2.3131      8.835   170.1547 4.5957e+02     5.9837     -0.029     -0.042    28.1025   996.2249 0.0000e+00
     -0.031     -0.000     7.0694     90.404     36.459  38.687445     2.3094      8.840   170.3417 4.3975e+02     6.0040     -0.030     -0.044    28.0944   996.2271 0.0000e+00
     -0.032     -0.000     7.0261     89.832     36.424  38.642093     2.2713      8.844   170.4062 4.2442e+02     6.0532     -0.032     -0.046    28.0854   996.2297 0.0000e+00
     -0.032     -0.001     6.9839     89.275     36.387  38.594080     2.2075      8.847   170.5042 4.2822e+02     6.0868     -0.033     -0.047    28.0743   996.2328 0.0000e+00
     -0.032     -0.001     6.9442     88.751     36.354  38.551252     2.1802      8.851   170.6667 4.4619e+02     6.0832     -0.032     -0.047    28.0623   996.2362 0.0000e+00
     -0.032     -0.001     6.9032     88.210     36.318  38.505112     2.1840      8.854   170.7359 4.6244e+02     6.0749     -0.031     -0.045    28.0498   996.2398 0.0000e+00
     -0.032     -0.001     6.8590     87.626     36.303  38.480535     2.1841      8.859   170.9104 4.5775e+02     6.0520     -0.032     -0.046    28.0379   996.2432 0.0000e+00
     -0.032     -0.001     6.8184     87.090     36.277  38.444519     2.1907      8.862   171.1419 4.4604e+02     5.9705     -0.032     -0.046    28.0265   996.2464 0.0000e+00
     -0.033     -0.001     6.7829     86.619     36.230  38.387022     2.2117      8.864   171.2987 4.3639e+02     5.8758     -0.033     -0.047    28.0154   996.2495 0.0000e+00
     -0.034     -0.001     6.7491     86.171     36.208  38.356623     2.2294      8.867   171.4292 4.2772e+02     5.8573     -0.034     -0.049    28.0045   996.2526 0.0000e+00
     -0.034     -0.001     6.7161     85.734     36.191  38.330873     2.2397      8.871   171.5157 4.2286e+02     5.8780     -0.033     -0.048    27.9927   996.2559 0.0000e+00
     -0.034     -0.001     6.6833     85.299     36.137  38.266094     2.2318      8.873   171.5694 4.1027e+02     5.8632     -0.033     -0.047    27.9811   996.2593 0.0000e+00
     -0.034     -0.001     6.6512     84.873     36.090  38.208138     2.2047      8.876   171.6494 4.0510e+02     5.8424     -0.034     -0.049    27.9701   996.2623 0.0000e+00
     -0.034     -0.001     6.6203     84.465     36.090  38.201417     2.1891      8.877   171.8797 4.0841e+02     5.8565     -0.034     -0.049    27.9596   996.2653 0.0000e+00
     -0.034     -0.001     6.5903     84.070     36.080  38.184817     2.1817      8.879   172.0312 3.9280e+02     5.8693     -0.033     -0.048    27.9494   996.2682 0.0000e+00
     -0.035     -0.001     6.5608     83.679     36.040  38.134365     2.1492      8.882   172.0190 3.6943e+02     5.8992     -0.035     -0.051    27.9383   996.2714 0.0000e+00
     -0.036     -0.001     6.5307     83.281     36.013  38.099204     2.0914      8.883   172.1621 3.6822e+02     5.9560     -0.037     -0.053    27.9277   996.2743 0.0000e+00
     -0.036     -0.002     6.4996     82.872     35.998  38.077065     2.0558      8.884   172.3844 3.8367e+02     5.9989     -0.036     -0.052    27.9190   996.2767 0.0000e+00
     -0.036     -0.002     6.4693     82.474     35.984  38.057108     2.0562      8.887   172.5568 3.8299e+02     6.0240     -0.035     -0.050    27.9100   996.2793 0.0000e+00
     -0.036     -0.001     6.4403     82.091     35.982  38.048327     2.0620      8.890   172.6982 3.6093e+02     5.9983     -0.034     -0.049    27.8995   996.2823 0.0000e+00
     -0.038     -0.001     6.4108     81.700     35.975  38.034362     2.0558      8.891   172.8032 3.4451e+02     5.9504     -0.037     -0.054    27.8894   996.2852 0.0000e+00
     -0.039     -0.001     6.3797     81.289     35.964  38.015195     2.0507      8.892   172.9647 3.4551e+02     5.9687     -0.039     -0.056    27.8819   996.2872 0.0000e+00
     -0.038     -0.001     6.3499     80.898     35.962  38.006997     2.0528      8.894   173.1887 3.5191e+02     6.0234     -0.037     -0.054    27.8746   996.2893 0.0000e+00
     -0.038     -0.001     6.3234     80.549     35.960  37.998709     2.0558      8.896   173.3606 3.5264e+02     6.0213     -0.036     -0.052    27.8655   996.2919 0.0000e+00
     -0.038     -0.000     6.2974     80.204     35.947  37.978446     2.0692      8.899   173.4087 3.4759e+02     5.9756     -0.036     -0.053    27.8549   996.2949 0.0000e+00
     -0.039 4.4707e-07     6.2714     79.860     35.928  37.952422     2.0766      8.901   173.4253 3.4397e+02     5.9630     -0.038     -0.055    27.8450   996.2977 0.0000e+00
     -0.039      0.000     6.2483     79.552     35.921  37.937946     2.0666      8.904   173.4759 3.4808e+02     5.9999     -0.039     -0.056    27.8370   996.2999 0.0000e+00
     -0.038      0.000     6.2276     79.277     35.919  37.930362     2.0608      8.907   173.5901 3.5968e+02     6.0294     -0.037     -0.054    27.8293   996.3021 0.0000e+00
     -0.036      0.001     6.2056     78.986     35.919  37.924192     2.0592      8.910   173.6878 3.6609e+02     6.0243     -0.036     -0.052    27.8200   996.3047 0.0000e+00
     -0.036      0.002     6.1831     78.688     35.927  37.926815     2.0550      8.912   173.7102 3.6081e+02     6.0358     -0.035     -0.051    27.8097   996.3077 0.0000e+00
     -0.037      0.002     6.1620     78.407     35.907  37.898581     2.0531      8.914   173.8613 3.5583e+02     6.0369     -0.036     -0.053    27.8004   996.3103 0.0000e+00
     -0.037      0.002     6.1422     78.142     35.854  37.836709     2.0542      8.918   174.0523 3.6023e+02     5.9726     -0.037     -0.054    27.7930   996.3123 0.0000e+00
     -0.036      0.002     6.1230     77.887     35.838  37.813470     2.0420      8.920   174.2119 3.7459e+02     5.8484     -0.036     -0.052    27.7854   996.3145 0.0000e+00
     -0.035      0.003     6.1040     77.633     35.838  37.808019     2.0184      8.921   174.3294 3.8398e+02     5.6820     -0.033     -0.048    27.7761   996.3172 0.0000e+00
     -0.034      0.005     6.0856     77.389     35.808  37.770793     2.0123      8.924   174.3538 3.7851e+02     5.5675     -0.032     -0.046    27.7662   996.3199 0.0000e+00
     -0.034      0.005     6.0676     77.150     35.788  37.744214     2.0116      8.927   174.5070 3.7463e+02     5.5448     -0.033     -0.048    27.7572   996.3224 0.0000e+00
     -0.033      0.004     6.0497     76.916     35.788  37.740549     2.0437      8.930   174.7188 3.9425e+02     5.6361     -0.032     -0.047    27.7492   996.3246 0.0000e+00
     -0.030      0.003     6.0310     76.672     35.778  37.726472     2.1315      8.931   174.9359 4.3812e+02     5.7865     -0.030     -0.044    27.7413   996.3269 0.0000e+00
     -0.027      0.003     6.0093     76.390     35.757  37.700958     2.1889      8.931   175.1531 4.6008e+02     5.8235     -0.027     -0.038    27.7328   996.3294 0.0000e+00
     -0.027      0.003     5.9857     76.079     35.747  37.685963     2.1917      8.932   175.2806 4.3619e+02     5.7888     -0.025     -0.036    27.7254   996.3314 0.0000e+00
     -0.029      0.002     5.9632     75.781     35.741  37.672104     2.1659      8.933   175.4451 4.0327e+02     5.8910     -0.028     -0.041    27.7197   996.3330 0.0000e+00
     -0.030      0.002     5.9434     75.516     35.736  37.660334     2.1288      8.933   175.6795 4.0957e+02     6.1424     -0.030     -0.044    27.7168   996.3338 0.0000e+00
     -0.028      0.003     5.9261     75.285     35.751  37.670597     2.1243      8.933   175.8769 4.4223e+02     6.3049     -0.027     -0.041    27.7133   996.3347 0.0000e+00
     -0.026      0.005     5.9108     75.080     35.756  37.669225     2.1370      8.934   175.9398 4.3157e+02     6.3148     -0.025     -0.037    27.7046   996.3373 0.0000e+00
     -0.026      0.008     5.8993     74.923     35.737  37.643731     2.1360      8.935   175.9228 3.9231e+02     6.2301     -0.025     -0.036    27.6946   996.3401 0.0000e+00
     -0.025      0.010     5.8915     74.814     35.716  37.616251     2.1291      8.937   175.9296 4.0108e+02     6.0996     -0.026     -0.037    27.6857   996.3426 0.0000e+00
     -0.022      0.010     5.8835     74.704     35.696  37.590858     2.1229      8.938   175.9364 4.6562e+02     6.0474     -0.023     -0.033    27.6774   996.3449 0.0000e+00
     -0.017      0.009     5.8733     74.568     35.699  37.590597     2.1215      8.940   176.0054 5.0619e+02     6.0577     -0.015     -0.023    27.6683   996.3476 0.0000e+00
     -0.012      0.007     5.8611     74.408     35.724  37.613087     2.1203      8.942   176.2473 4.9121e+02     6.0597     -0.011     -0.016    27.6595   996.3500 0.0000e+00
     -0.011      0.006     5.8476     74.228     35.845  37.735832     2.1425      8.944   176.4516 4.7361e+02     6.1698     -0.011     -0.015    27.6533   996.3518 0.0000e+00
     -0.012      0.006     5.8378     74.099     36.396  38.312978     2.2000      8.946   176.5822 4.4892e+02     6.3739     -0.011     -0.016    27.6475   996.3533 0.0000e+00
     -0.013      0.007     5.8641     74.460     37.401  39.386160     2.2435      8.947   176.7082 4.3023e+02     6.4632     -0.013     -0.020    27.6424   996.3547 0.0000e+00
     -0.013      0.008     6.0278     76.642     38.216  40.301049     2.2608      8.948   176.7716 5.2519e+02     6.4623     -0.014     -0.021    27.6379   996.3561 0.0000e+00
     -0.009      0.010     6.4851     82.631     38.490  40.678035     2.2882      8.949   176.9173 7.7054e+02     6.3643     -0.010     -0.014    27.6321   996.3577 0.0000e+00
     -0.004      0.012     7.2946     93.123     38.499  40.770270     2.3312      8.951   177.0933 1.0887e+03     6.1621     -0.002     -0.003    27.6222   996.3606 0.0000e+00
      0.001      0.012     8.2967    106.036     38.460  40.781540     2.3564      8.956   177.1789 1.3740e+03     6.0491      0.002      0.003    27.6233   996.3607 0.0000e+00
      0.004      0.009     9.2653    118.464     38.412  40.750897     2.3579      8.961   177.2643 1.5414e+03     6.0468      0.004      0.005    27.7003   996.3394 0.0000e+00
      0.006      0.004    10.0875    128.959     38.385  40.717227     2.3234      8.967   177.4371 1.5938e+03     6.0030      0.006      0.009    27.8426   996.2993 0.0000e+00
      0.008     -0.001    10.7212    137.001     38.379  40.691851     2.2524      8.972   177.6337 1.5869e+03     5.8801      0.008      0.012    27.9599   996.2661 0.0000e+00
      0.008     -0.006    11.1355    142.245     38.399  40.697985     2.2008      8.977   177.7497 1.5155e+03     5.8070      0.009      0.013    28.0261   996.2473 0.0000e+00
      0.004     -0.009    11.3178    144.562     38.431  40.727876     2.1769      8.981   177.8063 1.3284e+03     5.8069      0.005      0.008    28.0501   996.2405 0.0000e+00
     -0.003     -0.009    11.2928    144.250     38.436  40.735835     2.1287      8.986   177.8876 1.0919e+03     5.9775     -0.003     -0.004    28.0398   996.2433 0.0000e+00
     -0.008     -0.007    11.1369    142.264     38.430  40.730735     2.0517      8.990   177.9588 9.7922e+02     6.2963     -0.010     -0.014    28.0042   996.2534 0.0000e+00
     -0.008     -0.003    10.9413    139.752     38.433  40.729704     2.0083      8.992   177.9786 1.0145e+03     6.4501     -0.009     -0.013    27.9791   996.2605 0.0000e+00
     -0.007      0.002    10.7586    137.394     38.434  40.723367     2.0025      8.992   178.0407 1.0782e+03     6.4603     -0.007     -0.010    27.9802   996.2603 0.0000e+00
     -0.006      0.006    10.6002    135.359     38.432  40.717582     1.9992      8.993   178.1943 1.1472e+03     6.4856     -0.006     -0.008    27.9854   996.2587 0.0000e+00
     -0.003      0.007    10.4701    133.699     38.437  40.723239     1.9940      8.996   178.3732 1.2838e+03     6.5266     -0.003     -0.004    27.9908   996.2572 0.0000e+00
      0.001      0.007    10.3683    132.398     38.442  40.728277     1.9922      9.000   178.4822 1.3820e+03     6.5300      0.002      0.003    27.9853   996.2589 0.0000e+00
      0.004      0.008    10.2886    131.369     38.433  40.715008     1.9950      9.003   178.5655 1.3260e+03     6.4943      0.004      0.006    27.9678   996.2638 0.0000e+00
      0.004      0.009    10.2313    130.622     38.414  40.689771     2.0105      9.005   178.7784 1.2295e+03     6.4219      0.004      0.005    27.9640   996.2650 0.0000e+00
      0.004      0.009    10.1941    130.135     38.405  40.677071     2.0406      9.005   180.3681 1.1965e+03     6.3105      0.003      0.004    27.9695   996.2634 0.0000e+00
      0.006      0.010    10.1681    129.797     38.418  40.688414     2.0645      9.006   193.8282 1.2860e+03     6.2614      0.004      0.006    27.9680   996.2639 0.0000e+00
      0.010      0.011    10.1486    129.541     38.432  40.699951     2.0737      9.008   213.5838 1.4884e+03     6.2539      0.010      0.015    27.9629   996.2653 0.0000e+00
      0.015      0.011    10.1367    129.381     38.425  40.689594     2.0644      9.009   222.8898 1.6313e+03     6.2206      0.016      0.024    27.9551   996.2674 0.0000e+00
      0.019      0.010    10.1360    129.352     38.431  40.690150     2.0394      9.009   229.6845 1.6258e+03     6.1541      0.018      0.027    27.9491   996.2692 0.0000e+00
      0.021      0.007    10.1460    129.445     38.457  40.706665     2.0143      9.011   235.5112 1.5648e+03     6.0716      0.021      0.031    27.9475   996.2697 0.0000e+00
      0.022      0.006    10.1592    129.575     38.462  40.698800     2.0038      9.015   236.1228 1.5012e+03     6.0426      0.023      0.033    27.9450   996.2704 0.0000e+00
      0.021      0.009    10.1643    129.619     38.431  40.658508     1.9983      9.018   236.0476 1.3485e+03     6.0652      0.022      0.031    27.9416   996.2714 0.0000e+00
      0.020      0.017    10.1620    129.577     38.380  40.600395     2.0000      9.018   234.8596 1.2203e+03     6.1152      0.019      0.028    27.9361   996.2729 0.0000e+00
      0.022      0.029    10.1596    129.515     38.359  40.567516     2.0339      9.017   224.0826 1.2076e+03     6.1893      0.019      0.027    27.9180   996.2780 0.0000e+00
      0.030      0.047    10.1569    129.419     38.389  40.578381     2.0690      9.015   205.0329 1.0862e+03     6.2728      0.027      0.038    27.8962   996.2842 0.0000e+00
      0.045      0.070    10.1577    129.354     38.377  40.541271     2.0778      9.016   203.1950 1.0150e+03     6.3382      0.044      0.064    27.8886   996.2864 0.0000e+00
      0.063      0.092    10.1709    129.437     38.305  40.436199     2.0892      9.022   212.5309 1.4615e+03     6.3901      0.061      0.089    27.8896   996.2862 0.0000e+00
      0.087      0.106    10.1971    129.677     38.287  40.387146     2.1112      9.029   206.5772 1.8111e+03     6.4418      0.079      0.115    27.8778   996.2896 0.0000e+00
      0.125      0.108    10.2302    130.020     38.317  40.392511     2.1358      9.035   196.9434 1.4133e+03     6.4386      0.119      0.172    27.8459   996.2989 0.0000e+00
      0.170      0.098    10.2574    130.313     38.317  40.374064     2.1606      9.040   193.4461 1.0822e+03     6.4169      0.172      0.250    27.8138   996.3082 0.0000e+00
      0.204      0.081    10.2660    130.379     38.312  40.354523     2.2633      9.045   191.0489 1.0306e+03     6.2781      0.208      0.303    27.7787   996.3181 0.0000e+00
      0.219      0.058    10.2551    130.201     38.317  40.346675     2.4416      9.051   196.6102 8.3671e+02     5.9726      0.219      0.318    27.7321   996.3314 0.0000e+00
      0.220      0.032    10.2282    129.828     38.322  40.342636     2.5309      9.057   203.5580 7.1002e+02     5.8031      0.217      0.315    27.6960   996.3416 0.0000e+00
      0.217      0.010    10.1893    129.322     38.352  40.369155     2.5445      9.061   197.5329 7.5168e+02     5.8026      0.212      0.307    27.6766   996.3470 0.0000e+00
      0.214     -0.004    10.1444    128.758     38.392  40.413369     2.5197      9.065   189.7529 9.0668e+02     5.8675      0.210      0.304    27.6601   996.3516 0.0000e+00
      0.213     -0.008    10.0961    128.163     38.405  40.432843     2.4398      9.068   188.2161 1.2173e+03     5.9655      0.210      0.304    27.6409   996.3570 0.0000e+00
      0.211     -0.005    10.0464    127.553     38.380  40.414171     2.3842      9.072   187.2977 1.4152e+03     6.0047      0.207      0.301    27.6260   996.3612 0.0000e+00
      0.207      0.003    10.0049    127.043     38.340  40.378072     2.3679      9.075   186.3921 1.2397e+03     6.0139      0.203      0.294    27.6199   996.3629 0.0000e+00
      0.204      0.016     9.9826    126.763     38.278  40.313800     2.3647      9.075   185.7851 1.0227e+03     6.0109      0.200      0.289    27.6234   996.3619 0.0000e+00
      0.205      0.032     9.9828    126.743     38.185  40.208410     2.3713      9.075   185.2930 9.4272e+02     6.0669      0.199      0.288    27.6337   996.3590 0.0000e+00
      0.215      0.048    10.0019    126.928     38.119  40.119532     2.3868      9.076   184.8304 8.8759e+02     6.1993      0.207      0.300    27.6438   996.3563 0.0000e+00
      0.234      0.064    10.0324    127.238     38.092  40.064429     2.3954      9.078   184.5797 8.7635e+02     6.2674      0.228      0.331    27.6524   996.3538 0.0000e+00
      0.257      0.078    10.0643    127.569     38.102  40.049980     2.3891      9.081   184.4983 8.7840e+02     6.2674      0.253      0.367    27.6570   996.3526 0.0000e+00
      0.281      0.086    10.0851    127.784     38.137  40.071761     2.4671      9.084   184.2755 8.9553e+02     6.3638      0.276      0.400    27.6482   996.3552 0.0000e+00
      0.304      0.087    10.0841    127.749     38.147  40.073828     2.6363      9.088   184.0378 9.2886e+02     6.5814      0.297      0.432    27.6209   996.3629 0.0000e+00
      0.328      0.081    10.0643    127.484     38.153  40.074962     2.7272      9.092   184.1197 8.9999e+02     6.7027      0.321      0.465    27.5819   996.3740 0.0000e+00
      0.353      0.071    10.0376    127.137     38.166  40.085453     2.7331      9.094   184.5770 8.1523e+02     6.6833      0.348      0.505    27.5449   996.3845 0.0000e+00
      0.373      0.064    10.0046    126.714     38.156  40.073701     2.7766      9.092   185.0929 7.6329e+02     6.6747      0.369      0.535    27.5246   996.3903 0.0000e+00
      0.384      0.062     9.9646    126.192     38.148  40.059831     2.8628      9.090   185.2809 7.3723e+02     6.6960      0.379      0.549    27.5188   996.3919 0.0000e+00
      0.389      0.063     9.9307    125.727     38.145  40.044723     2.9170      9.090   185.3018 7.1336e+02     6.7117      0.382      0.554    27.5118   996.3938 0.0000e+00
      0.398      0.065     9.9138    125.466     38.134  40.017970     2.9295      9.091   185.3454 7.0681e+02     6.7341      0.385      0.557    27.5067   996.3953 0.0000e+00
      0.419      0.069     9.9132    125.408     38.124  39.990262     2.9709      9.094   185.2924 6.5852e+02     6.7376      0.408      0.591    27.5093   996.3947 0.0000e+00
      0.447      0.073     9.9241    125.491     38.117  39.963613     3.0537      9.097   185.2625 5.9811e+02     6.7210      0.442      0.641    27.5049   996.3961 0.0000e+00
      0.471      0.075     9.9425    125.674     38.120  39.949662     3.1067      9.100   185.4139 5.7730e+02     6.7296      0.463      0.671    27.4844   996.4019 0.0000e+00
      0.489      0.076     9.9609    125.874     38.130  39.948508     3.1259      9.102   185.4886 5.7284e+02     6.7436      0.483      0.699    27.4628   996.4081 0.0000e+00
      0.504      0.074     9.9733    126.015     38.135  39.949653     3.1899      9.103   185.3918 5.7290e+02     6.8250      0.496      0.720    27.4422   996.4138 0.0000e+00
      0.517      0.070     9.9829    126.135     38.149  39.963493     3.2909      9.103   185.4482 5.4965e+02     7.0246      0.505      0.731    27.4149   996.4215 0.0000e+00
      0.535      0.068     9.9952    126.286     38.175  39.988885     3.3425      9.104   185.6536 4.9615e+02     7.1586      0.523      0.758    27.3906   996.4285 0.0000e+00
      0.557      0.065    10.0122    126.481     38.194  40.002737     3.3535      9.105   185.7246 4.4430e+02     7.1670      0.547      0.794    27.3756   996.4326 0.0000e+00
      0.578      0.062    10.0352    126.746     38.204  40.003999     3.3630      9.106   185.7046 4.0374e+02     7.1589      0.569      0.825    27.3697   996.4344 0.0000e+00
      0.593      0.058    10.0595    127.037     38.209  40.004124     3.3968      9.107   185.7555 3.7500e+02     7.1599      0.584      0.847    27.3723   996.4338 0.0000e+00
      0.604      0.053    10.0784    127.277     38.209  40.004239     3.4678      9.109   185.8237 3.6333e+02     7.1454      0.593      0.859    27.3724   996.4337 0.0000e+00
      0.614      0.048    10.0929    127.468     38.207  40.005394     3.5189      9.111   185.8406 3.6617e+02     7.1472      0.601      0.871    27.3615   996.4368 0.0000e+00
      0.625      0.043    10.1057    127.636     38.217  40.018089     3.5384      9.113   185.8737 3.8419e+02     7.1820      0.612      0.887    27.3469   996.4409 0.0000e+00
      0.638      0.042    10.1198    127.818     38.228  40.030776     3.5734      9.115   185.9668 4.0391e+02     7.0085      0.627      0.909    27.3387   996.4433 0.0000e+00
      0.649      0.042    10.1337    127.989     38.231  40.031825     3.6208      9.117   186.1054 4.0879e+02     6.6557      0.638      0.926    27.3414   996.4426 0.0000e+00
      0.658      0.043    10.1393    128.050     38.233  40.030776     3.6437      9.118   186.2595 4.1039e+02     6.4885      0.645      0.935    27.3471   996.4410 0.0000e+00
      0.667      0.043    10.1352    127.992     38.223  40.018090     3.6512      9.119   186.3675 4.2188e+02     6.4613      0.653      0.948    27.3496   996.4403 0.0000e+00
      0.678      0.043    10.1256    127.874     38.209  40.005394     3.6852      9.120   186.4643 4.3009e+02     6.4586      0.664      0.964    27.3521   996.4397 0.0000e+00
      0.690      0.043    10.1141    127.734     38.206  40.004229     3.7431      9.121   186.5697 4.2767e+02     6.5214      0.676      0.982    27.3506   996.4402 0.0000e+00
      0.704      0.043    10.1045    127.613     38.206  40.004009     3.7701      9.122   186.6954 4.2327e+02     6.5648      0.691      1.003    27.3438   996.4421 0.0000e+00
      0.716      0.043    10.0990    127.540     38.206  40.002729     3.7604      9.123   186.8656 4.2177e+02     6.5251      0.704      1.021    27.3402   996.4432 0.0000e+00
      0.724      0.044    10.1010    127.556     38.196  39.988763     3.7121      9.123   186.9062 4.1834e+02     6.3690      0.711      1.031    27.3440   996.4422 0.0000e+00
      0.733      0.045    10.1110    127.664     38.176  39.962108     3.6363      9.122   186.8430 4.1017e+02     6.1516      0.717      1.040    27.3468   996.4414 0.0000e+00
      0.743      0.047    10.1234    127.793     38.159  39.934357     3.5992      9.122   186.9615 4.0134e+02     6.0264      0.728      1.055    27.3462   996.4416 0.0000e+00
      0.757      0.049    10.1366    127.921     38.146  39.907143     3.5929      9.123   187.2204 3.9241e+02     6.0021      0.742      1.076    27.3447   996.4421 0.0000e+00
      0.773      0.050    10.1485    128.030     38.139  39.886976     3.5860      9.124   187.3923 3.8158e+02     6.0221      0.757      1.099    27.3413   996.4432 0.0000e+00
      0.788      0.050    10.1558    128.093     38.142  39.880938     3.5845      9.125   187.4903 3.7174e+02     6.0383      0.774      1.123    27.3336   996.4454 0.0000e+00
      0.800      0.050    10.1571    128.093     38.163  39.897608     3.5924      9.126   187.6312 3.6678e+02     6.0344      0.786      1.140    27.3215   996.4487 0.0000e+00
      0.810      0.051    10.1470    127.960     38.166  39.898083     3.6029      9.127   187.8916 3.6293e+02     6.0404      0.793      1.152    27.3030   996.4539 0.0000e+00
      0.820      0.053    10.1271    127.711     38.094  39.823189     3.5997      9.127   188.2296 3.5579e+02     6.0453      0.803      1.166    27.2828   996.4595 0.0000e+00
      0.833      0.056    10.1066    127.451     37.968  39.690373     3.6059      9.126   188.4488 3.4593e+02     6.1593      0.814      1.181    27.2705   996.4630 0.0000e+00
      0.849      0.061    10.0940    127.265     37.853  39.561845     3.6346      9.122   188.7352 3.3455e+02     6.4033      0.831      1.206    27.2633   996.4651 0.0000e+00
      0.868      0.067    10.0907    127.158     37.791  39.475296     3.6515      9.116   189.1964 3.2323e+02     6.5378      0.852      1.236    27.2613   996.4658 0.0000e+00
      0.886      0.072    10.0893    127.044     37.755  39.405647     3.6633      9.111   189.4649 3.1330e+02     6.5069      0.869      1.261    27.2640   996.4651 0.0000e+00
      0.902      0.076    10.0825    126.849     37.741  39.354487     3.6811      9.108   189.5734 3.0325e+02     6.4549      0.884      1.282    27.2664   996.4645 0.0000e+00
      0.921      0.077    10.0666    126.549     37.783  39.364512     3.6931      9.108   189.6469 2.9111e+02     6.4674      0.902      1.308    27.2575   996.4669 0.0000e+00
      0.944      0.076    10.0391    126.121     37.843  39.399845     3.6965      9.108   189.7521 2.7849e+02     6.4933      0.926      1.343    27.2269   996.4755 0.0000e+00
      0.968      0.072     9.9997    125.564     37.863  39.400763     3.6965      9.108   189.9841 2.6769e+02     6.5054      0.951      1.379    27.1817   996.4881 0.0000e+00
      0.988      0.066     9.9557    124.978     37.849  39.375579     3.6837      9.109   190.1293 2.5954e+02     6.4181      0.970      1.407    27.1302   996.5024 0.0000e+00
      1.005      0.058     9.9168    124.478     37.828  39.349262     3.6545      9.110   190.1312 2.5342e+02     6.1595      0.986      1.430    27.0839   996.5154 0.0000e+00
      1.017      0.049     9.8902    124.132     37.820  39.336472     3.6472      9.111   190.1791 2.4940e+02     6.0000      0.998      1.447    27.0489   996.5250 0.0000e+00
      1.025      0.042     9.8780    123.971     37.835  39.347901     3.6650      9.111   190.3643 2.4679e+02     6.0291      1.005      1.457    27.0177   996.5336 0.0000e+00
      1.032      0.038     9.8766    123.959     37.845  39.360484     3.6789      9.110   190.5640 2.4376e+02     6.0530      1.011      1.466    27.0046   996.5374 0.0000e+00
      1.040      0.035     9.8829    124.046     37.843  39.361648     3.6853      9.110   190.7012 2.4057e+02     6.0267      1.020      1.480    27.0064   996.5368 0.0000e+00
      1.050      0.033     9.8948    124.198     37.842  39.361980     3.6903      9.111   190.8184 2.3723e+02     6.0058      1.030      1.494    26.9971   996.5394 0.0000e+00
      1.060      0.031     9.9092    124.370     37.847  39.364496     3.6963      9.111   190.8623 2.3376e+02     6.0302      1.042      1.510    26.9904   996.5414 0.0000e+00
      1.070      0.031     9.9261    124.555     37.882  39.392069     3.6880      9.112   190.8880 2.3147e+02     6.1256      1.052      1.525    26.9964   996.5398 0.0000e+00
      1.075      0.031     9.9493    124.795     37.947  39.441422     3.6681      9.112   191.0425 2.3014e+02     6.2406      1.055      1.530    27.0010   996.5385 0.0000e+00
      1.079      0.035     9.9790    125.105     37.979  39.453343     3.6639      9.111   191.4403 2.2803e+02     6.2746      1.056      1.532    27.0026   996.5380 0.0000e+00
      1.085      0.044    10.0105    125.435     37.958  39.409221     3.6627      9.109   191.9123 2.2465e+02     6.2412      1.063      1.540    27.0015   996.5383 0.0000e+00
      1.095      0.056    10.0426    125.735     37.874  39.288791     3.6801      9.106   192.1888 2.2014e+02     6.3284      1.073      1.556    26.9911   996.5413 0.0000e+00
      1.110      0.069    10.0839    126.066     37.729  39.076350     3.7354      9.104   192.3744 2.1343e+02     6.5744      1.086      1.575    26.9647   996.5486 0.0000e+00
      1.131      0.077    10.1462    126.584     37.615  38.871865     3.7759      9.103   192.6075 2.0427e+02     6.7256      1.106      1.605    26.9320   996.5577 0.0000e+00
      1.160      0.079    10.2274    127.323     37.617  38.784101     3.7804      9.105   192.8565 1.9434e+02     6.7146      1.138      1.650    26.9100   996.5639 0.0000e+00
      1.189      0.074    10.3191    128.248     37.678  38.776814     3.7632      9.107   193.0616 1.8619e+02     6.6372      1.169      1.695    26.8766   996.5731 0.0000e+00
      1.210      0.065    10.4274    129.463     37.664  38.720173     3.7409      9.108   193.2810 1.8158e+02     6.4458      1.191      1.727    26.7931   996.5960 0.0000e+00
      1.222      0.055    10.5602    131.030     37.579  38.607024     3.7280      9.108   193.4441 1.7982e+02     6.2032      1.200      1.742    26.6667   996.6304 0.0000e+00
      1.227      0.046    10.7130    132.852     37.485  38.487836     3.7198      9.107   193.4854 1.7845e+02     6.0963      1.202      1.744    26.5351   996.6661 0.0000e+00
      1.232      0.039    10.8707    134.724     37.383  38.358171     3.7113      9.105   193.6081 1.7571e+02     6.0704      1.207      1.750    26.4353   996.6931 0.0000e+00
      1.242      0.034    11.0125    136.370     37.368  38.308772     3.7029      9.104   193.8090 1.7208e+02     6.0219      1.218      1.766    26.3888   996.7057 0.0000e+00
      1.255      0.030    11.1199    137.591     37.488  38.398320     3.6967      9.104   193.9354 1.6858e+02     6.0010      1.231      1.786    26.3618   996.7130 0.0000e+00
      1.267      0.026    11.1846    138.350     37.651  38.552153     3.6976      9.103   194.0177 1.6626e+02     6.0146      1.244      1.805    26.3300   996.7216 0.0000e+00
      1.273      0.020    11.2042    138.650     37.787  38.708740     3.7043      9.103   194.1159 1.6554e+02     6.0225      1.251      1.815    26.3033   996.7288 0.0000e+00
      1.275      0.015    11.1783    138.457     37.869  38.831632     3.7436      9.102   194.2622 1.6546e+02     5.9650      1.251      1.814    26.2528   996.7422 0.0000e+00
      1.275      0.010    11.1164    137.835     37.888  38.895468     3.8252      9.101   194.4100 1.6548e+02     5.8435      1.250      1.813    26.1957   996.7577 0.0000e+00
      1.275      0.008    11.0401    137.018     37.863  38.909345     3.8853      9.101   194.4410 1.6548e+02     5.7664      1.250      1.813    26.1759   996.7630 0.0000e+00
      1.275      0.009    10.9731    136.274     37.801  38.872515     3.9063      9.101   194.4642 1.6474e+02     5.7861      1.249      1.812    26.2028   996.7559 0.0000e+00
      1.278      0.011    10.9290    135.759     37.690  38.767601     3.9308      9.101   194.5181 1.6338e+02     5.8851      1.253      1.817    26.2630   996.7398 0.0000e+00
      1.283      0.015    10.9095    135.495     37.588  38.656511     3.9654      9.101   194.6631 1.6221e+02     5.9807      1.259      1.827    26.3252   996.7232 0.0000e+00
      1.288      0.019    10.9110    135.442     37.501  38.544977     3.9871      9.101   194.8413 1.6104e+02     5.9916      1.263      1.832    26.3811   996.7081 0.0000e+00
      1.292      0.021    10.9309    135.574     37.366  38.371192     4.0021      9.101   194.7788 1.5973e+02     5.9836      1.267      1.837    26.4189   996.6979 0.0000e+00
      1.297      0.022    10.9618    135.808     37.249  38.205648     4.0166      9.102   194.7682 1.5822e+02     6.1137      1.271      1.845    26.4311   996.6946 0.0000e+00
      1.304      0.021    10.9940    136.037     37.225  38.130271     4.0153      9.104   194.9710 1.5628e+02     6.3524      1.278      1.853    26.4213   996.6972 0.0000e+00
      1.312      0.019    11.0185    136.190     37.297  38.157980     4.0038      9.104   195.0798 1.5443e+02     6.4774      1.287      1.866    26.3915   996.7052 0.0000e+00
      1.318      0.018    11.0193    136.123     37.446  38.286693     3.9992      9.103   195.2239 1.5328e+02     6.4774      1.293      1.877    26.3433   996.7182 0.0000e+00
      1.321      0.018    10.9854    135.723     37.567  38.416954     4.0121      9.102   195.5945 1.5307e+02     6.4514      1.296      1.880    26.2810   996.7349 0.0000e+00
      1.321      0.020    10.9183    134.977     37.526  38.399944     4.0559      9.098   195.8620 1.5317e+02     6.3260      1.296      1.880    26.2079   996.7545 0.0000e+00
      1.323      0.024    10.8272    133.931     37.376  38.271497     4.1114      9.093   195.8764 1.5229e+02     6.1090      1.296      1.880    26.1361   996.7738 0.0000e+00
      1.329      0.028    10.7242    132.674     37.299  38.196976     4.1373      9.089   195.8545 1.4970e+02     5.9900      1.301      1.886    26.1013   996.7831 0.0000e+00
      1.340      0.030    10.6229    131.397     37.306  38.197171     4.1521      9.088   196.0270 1.4597e+02     6.0016      1.312      1.903    26.1143   996.7797 0.0000e+00
      1.355      0.031    10.5430    130.381     37.266  38.146883     4.2988      9.087   196.4132 1.4312e+02     6.0852      1.331      1.930    26.1579   996.7681 0.0000e+00
      1.365      0.031    10.4997    129.786     37.111  37.969799     4.5678      9.085   196.8248 1.4193e+02     6.2149      1.342      1.945    26.2057   996.7553 0.0000e+00
      1.370      0.030    10.4857    129.479     36.956  37.769903     4.7078      9.081   197.3042 1.4139e+02     6.2909      1.344      1.949    26.2050   996.7556 0.0000e+00
      1.373      0.030    10.4764    129.163     36.885  37.634166     4.7254      9.076   197.7350 1.4061e+02     6.2839      1.346      1.952    26.1830   996.7615 0.0000e+00
      1.377      0.031    10.4525    128.658     36.853  37.534555     4.9194      9.067   197.9903 1.3902e+02     6.1955      1.350      1.957    26.1832   996.7614 0.0000e+00
      1.385      0.035    10.4099    127.965     36.826  37.454062     5.2859      9.058   198.5836 1.3659e+02     6.0748      1.358      1.969    26.1633   996.7667 0.0000e+00
      1.397      0.040    10.3561    127.140     36.784  37.359071     5.4894      9.049   199.6602 1.3388e+02     6.0364      1.370      1.988    26.1070   996.7817 0.0000e+00
      1.410      0.045    10.2862    126.065     36.770  37.274591     5.5059      9.039   200.7696 1.3145e+02     6.0260      1.384      2.007    26.0118   996.8070 0.0000e+00
      1.422      0.047    10.1769    124.480     36.832  37.257677     5.5637      9.030   201.9298 1.2910e+02     5.8181      1.395      2.023    25.9066   996.8350 0.0000e+00
      1.435      0.046    10.0149    122.290     36.923  37.281394     5.6942      9.021   203.2773 1.2631e+02     5.4894      1.406      2.039    25.8442   996.8517 0.0000e+00
      1.448      0.043     9.8007    119.535     36.995  37.307357     5.7747      9.011   204.4999 1.2372e+02     5.3623      1.421      2.061    25.7898   996.8660 0.0000e+00
      1.460      0.039     9.5481    116.392     37.026  37.317620     5.7921      9.001   205.4417 1.2195e+02     5.3625      1.433      2.079    25.6871   996.8930 0.0000e+00
      1.468      0.037     9.2760    113.072     36.988  37.278504     5.8520      8.990   206.1476 1.2065e+02     5.2294      1.441      2.090    25.5652   996.9252 0.0000e+00
      1.475      0.036     8.9951    109.642     36.928  37.215249     5.9531      8.978   206.1510 1.1942e+02     4.9985      1.447      2.099    25.4696   996.9501 0.0000e+00
      1.482      0.036     8.7227    106.277     36.917  37.187554     6.0088      8.966   205.6547 1.1796e+02     4.8646      1.453      2.107    25.4038   996.9673 0.0000e+00
      1.491      0.038     8.4846    103.322     36.948  37.197516     6.0226      8.954   206.0842 1.1595e+02     4.8553      1.461      2.119    25.3732   996.9753 0.0000e+00
      1.502      0.041     8.3065    101.101     36.979  37.208716     6.0239      8.942   206.7839 1.1355e+02     4.8534      1.473      2.136    25.3895   996.9712 0.0000e+00
      1.514      0.044     8.1951     99.678     36.994  37.196003     5.9981      8.930   206.5429 1.1138e+02     4.6782      1.486      2.155    25.3948   996.9698 0.0000e+00
      1.526      0.048     8.1255     98.752     37.001  37.170700     5.9626      8.917   206.8700 1.0940e+02     4.3757      1.496      2.170    25.3594   996.9790 0.0000e+00
      1.537      0.051     8.0655     97.953     37.015  37.156626     5.9511      8.905   208.1577 1.0730e+02     4.2107      1.507      2.187    25.3291   996.9869 0.0000e+00
      1.550      0.053     8.0026     97.121     37.040  37.152750     5.9544      8.894   209.1197 1.0506e+02     4.1902      1.519      2.205    25.3092   996.9922 0.0000e+00
      1.565      0.055     7.9292     96.143     37.048  37.123789     5.8893      8.884   209.4672 1.0274e+02     4.0959      1.533      2.225    25.2715   997.0020 0.0000e+00
      1.580      0.055     7.8311     94.848     37.029  37.060302     5.7539      8.875   209.6923 1.0047e+02     3.8896      1.550      2.248    25.2180   997.0159 0.0000e+00
      1.595      0.054     7.7061     93.215     37.040  37.019812     5.6690      8.867   210.1209 9.8052e+01     3.7604      1.563      2.267    25.1841   997.0247 0.0000e+00
      1.610      0.052     7.5561     91.288     37.085  37.014983     5.6515      8.860   210.6058 9.5573e+01     3.7140      1.579      2.290    25.1516   997.0332 0.0000e+00
      1.625      0.049     7.3772     89.032     37.115  37.001841     5.6125      8.852   211.1672 9.3708e+01     3.5906      1.594      2.313    25.0999   997.0465 0.0000e+00
      1.636      0.046     7.1733     86.497     37.136  36.987806     5.5359      8.845   211.8318 9.2344e+01     3.4150      1.604      2.327    25.0406   997.0618 0.0000e+00
      1.646      0.043     6.9456     83.706     37.141  36.972174     5.4960      8.839   212.4470 9.1037e+01     3.3270      1.614      2.341    24.9652   997.0812 0.0000e+00
      1.655      0.041     6.6935     80.643     37.120  36.939747     5.5039      8.832   212.9271 8.9698e+01     3.2811      1.623      2.354    24.8942   997.0994 0.0000e+00
      1.664      0.040     6.4304     77.433     37.115  36.913087     5.5705      8.825   213.3348 8.8164e+01     3.1871      1.631      2.366    24.8409   997.1130 0.0000e+00
      1.675      0.040     6.1661     74.187     37.141  36.903702     5.6940      8.818   213.7628 8.6569e+01     3.0759      1.643      2.383    24.7893   997.1262 0.0000e+00
      1.687      0.040     5.9076     71.013     37.163  36.889688     5.7744      8.812   214.1443 8.5044e+01     3.0176      1.654      2.400    24.7576   997.1343 0.0000e+00
      1.698      0.039     5.6696     68.099     37.175  36.870530     5.8141      8.807   214.5059 8.3764e+01     3.0069      1.665      2.416    24.7573   997.1344 0.0000e+00
      1.707      0.039     5.4658     65.600     37.197  36.862441     6.0528      8.802   214.9516 8.2811e+01     2.9796      1.675      2.430    24.7324   997.1409 0.0000e+00
      1.716      0.040     5.2978     63.538     37.219  36.855312     6.4849      8.795   215.3176 8.1793e+01     2.9171      1.682      2.440    24.6713   997.1564 0.0000e+00
      1.725      0.041     5.1514     61.744     37.237  36.847766     6.7211      8.788   215.5742 8.0619e+01     2.8405      1.691      2.453    24.6242   997.1683 0.0000e+00
      1.735      0.044     5.0110     60.030     37.245  36.834639     6.7409      8.780   215.9029 7.9337e+01     2.8074      1.701      2.467    24.5855   997.1781 0.0000e+00
      1.747      0.046     4.8696     58.306     37.254  36.823506     6.7500      8.772   216.1953 7.7860e+01     2.8118      1.713      2.483    24.5436   997.1887 0.0000e+00
      1.760      0.048     4.7214     56.503     37.292  36.840082     6.8579      8.765   216.4423 7.6343e+01     2.7632      1.727      2.505    24.5033   997.1989 0.0000e+00
      1.774      0.049     4.5622     54.577     37.312  36.844606     7.0483      8.758   216.8248 7.4954e+01     2.6787      1.740      2.524    24.4685   997.2078 0.0000e+00
      1.788      0.049     4.3931     52.547     37.286  36.814710     7.1444      8.751   217.2923 7.3659e+01     2.6415      1.753      2.542    24.4433   997.2142 0.0000e+00
      1.799      0.050     4.2143     50.407     37.269  36.795972     7.1528      8.744   217.7070 7.2524e+01     2.6414      1.765      2.560    24.4172   997.2207 0.0000e+00
      1.810      0.051     4.0280     48.166     37.292  36.808458     7.2017      8.737   217.9670 7.1403e+01     2.6122      1.774      2.573    24.3856   997.2287 0.0000e+00
      1.822      0.051     3.8430     45.935     37.340  36.838721     7.2931      8.730   218.1132 6.9977e+01     2.5497      1.785      2.590    24.3604   997.2350 0.0000e+00
      1.837      0.051     3.6749     43.910     37.360  36.844488     7.3473      8.723   218.3555 6.8415e+01     2.5090      1.801      2.612    24.3603   997.2351 0.0000e+00
      1.852      0.051     3.5403     42.292     37.339  36.814693     7.3633      8.716   218.7453 6.7046e+01     2.4809      1.817      2.636    24.3665   997.2337 0.0000e+00
      1.867      0.051     3.4419     41.107     37.329  36.795825     7.3910      8.710   219.1276 6.6023e+01     2.4059      1.832      2.657    24.3491   997.2381 0.0000e+00
      1.878      0.051     3.3683     40.212     37.357  36.806762     7.4309      8.704   219.3639 6.5223e+01     2.2913      1.842      2.671    24.3199   997.2454 0.0000e+00
      1.888      0.051     3.3042     39.423     37.394  36.819961     7.4555      8.696   219.6231 6.4331e+01     2.2421      1.850      2.684    24.2997   997.2505 0.0000e+00
      1.899      0.052     3.2405     38.638     37.429  36.828429     7.4549      8.687   220.1111 6.3243e+01     2.2697      1.861      2.700    24.2931   997.2522 0.0000e+00
      1.914      0.056     3.1803     37.893     37.478  36.845628     7.3892      8.678   220.5315 6.2040e+01     2.2976      1.876      2.721    24.2851   997.2543 0.0000e+00
      1.929      0.061     3.1221     37.163     37.509  36.837456     7.2765      8.670   220.6629 6.0811e+01     2.2837      1.893      2.745    24.2616   997.2602 0.0000e+00
      1.944      0.065     3.0475     36.235     37.509  36.793032     7.2270      8.665   220.7528 5.9527e+01     2.2659      1.907      2.765    24.2277   997.2687 0.0000e+00
      1.961      0.067     2.9423     34.944     37.516  36.752753     7.2333      8.659   220.9308 5.8123e+01     2.2797      1.922      2.788    24.1928   997.2775 0.0000e+00
      1.981      0.066     2.8037     33.257     37.545  36.731212     7.3181      8.653   221.0940 5.6729e+01     2.2211      1.943      2.818    24.1550   997.2870 0.0000e+00
      2.001      0.065     2.6320     31.183     37.586  36.722927     7.4814      8.648   221.1772 5.5495e+01     2.0810      1.964      2.848    24.1027   997.3001 0.0000e+00
      2.018      0.062     2.4236     28.684     37.621  36.715979     7.5693      8.642   221.2480 5.4437e+01     1.9945      1.980      2.872    24.0404   997.3156 0.0000e+00
      2.032      0.058     2.1684     25.642     37.651  36.710619     7.5745      8.636   221.4339 5.3568e+01     1.9955      1.994      2.891    23.9777   997.3311 0.0000e+00
      2.045      0.054     1.8703     22.101     37.692  36.721549     7.5702      8.630   221.6179 5.2737e+01     2.0266      2.005      2.908    23.9106   997.3476 0.0000e+00
      2.058      0.052     1.5562     18.379     37.717  36.721137     7.4824      8.624   221.6657 5.1890e+01     2.0429      2.018      2.928    23.8430   997.3643 0.0000e+00
      2.070      0.052     1.2529     14.791     37.720  36.705599     7.3104      8.618   221.6685 5.1215e+01     2.0294      2.031      2.946    23.7869   997.3781 0.0000e+00
      2.082      0.052     0.9793     11.557     37.750  36.724074     7.2158      8.613   221.6521 5.0519e+01     1.9936      2.040      2.959    23.7434   997.3888 0.0000e+00
      2.095      0.052     0.7503      8.852     37.789  36.754080     7.1882      8.607   221.6392 4.9521e+01     1.9716      2.052      2.977    23.7047   997.3983 0.0000e+00
      2.111      0.050     0.5695      6.717     37.794  36.751027     6.8988      8.601   221.7703 4.8493e+01     1.9930      2.070      3.004    23.6713   997.4065 0.0000e+00
      2.126      0.047     0.4367      5.151     37.798  36.750621     6.3609      8.595   222.0323 4.7694e+01     1.9900      2.086      3.027    23.6460   997.4128 0.0000e+00
      2.138      0.042     0.3520      4.152     37.795  36.749164     6.0679      8.589   222.3123 4.7092e+01     1.9346      2.098      3.043    23.6341   997.4157 0.0000e+00
      2.148      0.037     0.3040      3.586     37.775  36.733423     6.0442      8.583   222.5749 4.6694e+01     1.9135      2.109      3.058    23.6243   997.4181 0.0000e+00
      2.155      0.032     0.2804      3.307     37.798  36.750715     6.0576      8.576   222.7986 4.6444e+01     1.9313      2.114      3.066    23.6127   997.4210 0.0000e+00
      2.160      0.029     0.2819      3.324     37.829  36.767812     6.0825      8.570   222.9518 4.6142e+01     1.9530      2.117      3.070    23.6068   997.4224 0.0000e+00
      2.166      0.029     0.3057      3.602     37.834  36.749710     6.0853      8.564   223.0505 4.5709e+01     1.9790      2.124      3.080    23.6086   997.4220 0.0000e+00
      2.174      0.031     0.3430      4.038     37.842  36.722230     6.0568      8.559   223.1315 4.5271e+01     1.9844      2.133      3.094    23.6220   997.4188 0.0000e+00
      2.182      0.035     0.3895      4.580     37.851  36.689387     5.8674      8.554   223.1566 4.4846e+01     1.9851      2.140      3.103    23.6131   997.4210 0.0000e+00
      2.191      0.040     0.4368      5.132     37.872  36.669914     5.5289      8.551   223.1826 4.4323e+01     1.9878      2.147      3.113    23.5939   997.4257 0.0000e+00
      2.202      0.044     0.4753      5.580     37.916  36.677148     5.3461      8.546   223.2739 4.3710e+01     1.9835      2.159      3.130    23.5715   997.4312 0.0000e+00
      2.214      0.047     0.4993      5.858     37.978  36.713333     5.3214      8.541   223.3997 4.3080e+01     1.9985      2.171      3.149    23.5150   997.4449 0.0000e+00
      2.227      0.049     0.5051      5.924     38.076  36.790023     5.3168      8.534   223.4992 4.2449e+01     2.0053      2.183      3.167    23.4579   997.4587 0.0000e+00
      2.241      0.049     0.4931      5.779     38.160  36.842697     5.3421      8.528   223.5297 4.1838e+01     2.0006      2.198      3.188    23.4090   997.4706 0.0000e+00
      2.255      0.045     0.4688      5.489     38.202  36.842383     5.3677      8.523   223.5970 4.1234e+01     2.0080      2.212      3.208    23.3539   997.4840 0.0000e+00
      2.269      0.039     0.4379      5.123     38.250  36.849638     5.3751      8.517   223.7965 4.0698e+01     2.0289      2.225      3.227    23.3246   997.4911 0.0000e+00
      2.279      0.033     0.4049      4.733     38.292  36.866893     5.3792      8.512   223.9627 4.0366e+01     2.0563      2.236      3.244    23.3135   997.4939 0.0000e+00
      2.285      0.029     0.3739      4.370     38.291  36.860555     5.4259      8.507   224.0580 4.0237e+01     2.0448      2.242      3.252    23.2756   997.5029 0.0000e+00
      2.287      0.029     0.3493      4.084     38.253  36.836475     5.5150      8.503   224.2606 4.0188e+01     2.0203      2.243      3.253    23.2128   997.5180 0.0000e+00
      2.290      0.033     0.3325      3.889     38.227  36.829645     5.5645      8.498   224.4337 4.0015e+01     2.0230      2.244      3.255    23.1548   997.5320 0.0000e+00
      2.297      0.039     0.3215      3.760     38.239  36.841478     5.5726      8.494   224.4301 3.9488e+01     2.0112      2.250      3.264    23.1253   997.5389 0.0000e+00
      2.310      0.045     0.3157      3.690     38.344  36.916081     5.6917      8.489   224.3894 3.8691e+01     2.0416      2.263      3.283    23.1183   997.5407 0.0000e+00
      2.327      0.050     0.3149      3.677     38.572  37.096886     5.9291      8.484   224.4570 3.7886e+01     2.1606      2.282      3.310    23.1372   997.5362 0.0000e+00
      2.345      0.050     0.3167      3.695     38.836  37.313723     6.0766      8.480   224.6455 3.7175e+01     2.2711      2.301      3.337    23.1780   997.5266 0.0000e+00
      2.360      0.049     0.3198      3.729     39.071  37.506607     6.1219      8.475   224.8610 3.6665e+01     2.2962      2.315      3.359    23.1821   997.5257 0.0000e+00
      2.370      0.046     0.3241      3.774     39.260  37.651680     6.3551      8.470   225.0843 3.6382e+01     2.2676      2.325      3.372    23.1365   997.5366 0.0000e+00
      2.377      0.044     0.3261      3.794     39.392  37.734754     6.7810      8.465   225.2807 3.6120e+01     2.2529      2.331      3.379    23.0802   997.5501 0.0000e+00
      2.385      0.042     0.3235      3.761     39.448  37.749272     7.0151      8.461   225.3426 3.5704e+01     2.2489      2.337      3.390    23.0307   997.5620 0.0000e+00
      2.396      0.042     0.3164      3.675     39.423  37.700207     7.0790      8.458   225.3170 3.5156e+01     2.2529      2.349      3.408    22.9951   997.5706 0.0000e+00
      2.411      0.043     0.3047      3.538     39.380  37.649286     7.4835      8.454   225.3145 3.4636e+01     2.3011      2.365      3.431    22.9511   997.5811 0.0000e+00
      2.423      0.044     0.2885      3.350     39.373  37.641384     8.2035      8.449   225.3995 3.4285e+01     2.4056      2.378      3.450    22.8884   997.5960 0.0000e+00
      2.432      0.047     0.2682      3.115     39.466  37.731614     8.5977      8.444   225.6564 3.4037e+01     2.4669      2.386      3.461    22.8352   997.6086 0.0000e+00
      2.441      0.049     0.2461      2.858     39.800  38.042013     8.6432      8.439   226.0108 3.3695e+01     2.4524      2.392      3.469    22.8025   997.6163 0.0000e+00
      2.453      0.052     0.2252      2.613     40.351  38.537916     8.7277      8.434   226.2423 3.3182e+01     2.4600      2.403      3.486    22.7919   997.6187 0.0000e+00
      2.468      0.057     0.2089      2.421     40.787  38.903159     8.8731      8.428   226.3911 3.2557e+01     2.4601      2.419      3.509    22.7955   997.6180 0.0000e+00
      2.485      0.060     0.1979      2.291     40.779  38.839762     8.9452      8.423   226.6061 3.1920e+01     2.4541      2.437      3.535    22.8005   997.6169 0.0000e+00
      2.502      0.061     0.1901      2.198     40.509  38.533053     8.9661      8.418   226.7764 3.1355e+01     2.4856      2.455      3.561    22.7973   997.6179 0.0000e+00
      2.519      0.061     0.1837      2.122     40.444  38.432140     9.2038      8.412   226.8154 3.0849e+01     2.4801      2.470      3.584    22.7593   997.6270 0.0000e+00
      2.535      0.060     0.1776      2.049     40.702  38.635253    10.0857      8.406   226.9060 3.0401e+01     2.4539      2.487      3.608    22.6862   997.6444 0.0000e+00
      2.548      0.060     0.1728      1.991     41.104  38.957494    11.2535      8.401   227.0973 3.0006e+01     2.4642      2.500      3.626    22.6137   997.6615 0.0000e+00
      2.561      0.060     0.1690      1.945     41.593  39.344714    11.7924      8.397   227.2350 2.9545e+01     2.4733      2.509      3.640    22.5498   997.6762 0.0000e+00
      2.576      0.062     0.1632      1.874     42.463  40.079462    11.8416      8.393   227.2809 2.8982e+01     2.4656      2.525      3.663    22.5080   997.6860 0.0000e+00
      2.594      0.066     0.1558      1.786     43.594  41.048394    11.9526      8.388   227.3082 2.8428e+01     2.4695      2.544      3.690    22.4690   997.6951 0.0000e+00
      2.611      0.071     0.1498      1.713     44.285  41.600574    12.1376      8.383   227.3931 2.7950e+01     2.4867      2.560      3.714    22.3897   997.7137 0.0000e+00
      2.628      0.073     0.1462      1.668     44.532  41.740285    12.2405      8.378   227.5328 2.7413e+01     2.4772      2.576      3.737    22.2963   997.7354 0.0000e+00
      2.648      0.073     0.1445      1.645     44.807  41.912145    12.2175      8.373   227.7064 2.6688e+01     2.4529      2.596      3.764    22.1965   997.7586 0.0000e+00
      2.670      0.069     0.1429      1.624     45.078  42.091160    11.7117      8.368   227.7709 2.5917e+01     2.3900      2.619      3.799    22.0763   997.7866 0.0000e+00
      2.691      0.063     0.1407      1.597     45.110  42.063445    10.7812      8.362   227.5384 2.5298e+01     2.2737      2.641      3.831    21.9605   997.8132 0.0000e+00
      2.707      0.054     0.1399      1.587     44.974  41.894414    10.2779      8.356   227.1324 2.4817e+01     2.2261      2.656      3.852    21.8574   997.8366 0.0000e+00
      2.718      0.044     0.1414      1.603     44.862  41.761593    10.2652      8.348   226.7344 2.4427e+01     2.2415      2.667      3.868    21.7596   997.8588 0.0000e+00
      2.726      0.035     0.1424      1.613     44.843  41.727259    10.6357      8.342   226.0819 2.4151e+01     2.2300      2.675      3.880    21.6756   997.8777 0.0000e+00
      2.732      0.031     0.1411      1.598     44.858  41.733226    11.3238      8.337   225.0065 2.3952e+01     2.2184      2.678      3.884    21.6114   997.8921 0.0000e+00
      2.737      0.033     0.1401      1.588     44.829  41.706747    11.7013      8.332   223.9712 2.3798e+01     2.2314      2.684      3.893    21.5667   997.9020 0.0000e+00
      2.741      0.040     0.1401      1.588     44.767  41.661061    11.7588      8.325   223.0290 2.3618e+01     2.2559      2.688      3.899    21.5352   997.9090 0.0000e+00
      2.748      0.049     0.1394      1.580     44.786  41.688764    12.0274      8.317   221.7885 2.3197e+01     2.2863      2.691      3.903    21.5183   997.9127 0.0000e+00
      2.764      0.055     0.1371      1.554     44.910  41.787755    12.5039      8.310   220.1565 2.2476e+01     2.2708      2.707      3.926    21.5094   997.9148 0.0000e+00
      2.787      0.058     0.1335      1.511     45.018  41.842108    12.7517      8.303   218.1820 2.1751e+01     2.1997      2.735      3.966    21.5067   997.9155 0.0000e+00
      2.809      0.058     0.1296      1.466     45.067  41.837964    12.7604      8.296   216.2405 2.1269e+01     2.1798      2.758      4.000    21.5234   997.9119 0.0000e+00
      2.823      0.056     0.1266      1.431     45.127  41.864564    12.6356      8.291   214.8367 2.0984e+01     2.2280      2.770      4.018    21.5478   997.9065 0.0000e+00
      2.831      0.053     0.1248      1.410     45.325  42.036699    12.3869      8.285   213.9419 2.0775e+01     2.2576      2.776      4.027    21.5351   997.9095 0.0000e+00
      2.839      0.049     0.1229      1.388     45.660  42.331974    12.2420      8.278   213.1664 2.0507e+01     2.2430      2.782      4.035    21.4686   997.9243 0.0000e+00
      2.851      0.048     0.1217      1.374     45.963  42.577613    12.2274      8.271   212.3433 2.0090e+01     2.2149      2.794      4.052    21.4005   997.9393 0.0000e+00
      2.866      0.048     0.1216      1.371     46.176  42.720973    12.2453      8.266   211.5610 1.9611e+01     2.2126      2.811      4.077    21.3715   997.9458 0.0000e+00
      2.882      0.048     0.1206      1.359     46.320  42.795413    12.4318      8.261   211.1069 1.9216e+01     2.2809      2.828      4.101    21.3701   997.9463 0.0000e+00
      2.895      0.048     0.1199      1.350     46.356  42.779175    12.7744      8.257   210.9817 1.8918e+01     2.3854      2.841      4.120    21.3588   997.9490 0.0000e+00
      2.905      0.047     0.1201      1.350     46.322  42.715048    12.9549      8.253   210.7361 1.8658e+01     2.4269      2.849      4.133    21.3208   997.9574 0.0000e+00
      2.915      0.046     0.1198      1.345     46.292  42.654932    12.9144      8.248   210.2033 1.8398e+01     2.4229      2.857      4.144    21.2543   997.9722 0.0000e+00
      2.925      0.046     0.1190      1.334     46.338  42.623709    12.4237      8.241   209.6153 1.8088e+01     2.3697      2.867      4.158    21.1864   997.9871 0.0000e+00
      2.938      0.045     0.1190      1.331     46.516  42.654885    11.5395      8.235   209.3057 1.7726e+01     2.2751      2.881      4.178    21.1301   997.9994 0.0000e+00
      2.952      0.043     0.1184      1.320     46.749  42.714242    11.0494      8.231   209.2125 1.7367e+01     2.2301      2.894      4.199    21.0953   998.0072 0.0000e+00
      2.965      0.041     0.1172      1.302     46.951  42.769749    10.9110      8.227   208.9191 1.7090e+01     2.2177      2.908      4.219    21.0870   998.0090 0.0000e+00
      2.975      0.040     0.1168      1.296     47.096  42.817895     9.9347      8.222   208.3388 1.6938e+01     2.2569      2.920      4.235    21.0156   998.0246 0.0000e+00
      2.981      0.042     0.1172      1.300     47.174  42.851820     8.1586      8.218   207.7890 1.6839e+01     2.3430      2.924      4.241    20.8529   998.0598 0.0000e+00
      2.986      0.046     0.1185      1.315     47.186  42.862416     7.1917      8.213   207.4338 1.6646e+01     2.4075      2.927      4.246    20.6669   998.0997 0.0000e+00
      2.996      0.052     0.1199      1.330     47.193  42.882525     7.1390      8.208   207.1415 1.6281e+01     2.4470      2.936      4.258    20.5231   998.1304 0.0000e+00
      3.012      0.058     0.1204      1.335     47.233  42.904497     7.4427      8.203   206.8361 1.5801e+01     2.4595      2.953      4.282    20.4363   998.1488 0.0000e+00
      3.033      0.063     0.1205      1.335     47.267  42.874087     8.0029      8.198   206.4091 1.5314e+01     2.4596      2.975      4.314    20.3988   998.1568 0.0000e+00
      3.054      0.065     0.1195      1.323     47.300  42.832222     8.3120      8.193   205.9356 1.4900e+01     2.4482      2.997      4.345    20.4057   998.1555 0.0000e+00
      3.073      0.064     0.1189      1.315     47.371  42.842651     8.3627      8.189   205.6713 1.4610e+01     2.4530      3.015      4.373    20.4393   998.1485 0.0000e+00
      3.087      0.061     0.1178      1.300     47.536  42.936620     8.5282      8.185   205.5367 1.4404e+01     2.4850      3.028      4.392    20.4394   998.1486 0.0000e+00
      3.099      0.057     0.1154      1.271     47.780  43.079420     8.8142      8.181   205.3407 1.4198e+01     2.4750      3.039      4.407    20.3503   998.1673 0.0000e+00
      3.112      0.053     0.1150      1.264     47.992  43.172282     8.9774      8.177   205.1087 1.3973e+01     2.4306      3.052      4.426    20.2568   998.1870 0.0000e+00
      3.125      0.051     0.1160      1.273     48.123  43.170357     8.9923      8.172   204.9678 1.3753e+01     2.4069      3.065      4.444    20.2194   998.1949 0.0000e+00
      3.140      0.051     0.1163      1.273     48.202  43.119480     8.9331      8.168   204.8422 1.3558e+01     2.4179      3.079      4.465    20.1677   998.2058 0.0000e+00
      3.154      0.052     0.1157      1.263     48.327  43.128410     8.3481      8.165   204.6212 1.3392e+01     2.5299      3.094      4.487    20.0810   998.2239 0.0000e+00
      3.166      0.053     0.1155      1.258     48.531  43.214699     7.2781      8.161   204.3612 1.3227e+01     2.7132      3.105      4.503    19.9875   998.2433 0.0000e+00
      3.177      0.053     0.1165      1.267     48.707  43.273750     6.6852      8.155   204.1074 1.3025e+01     2.7990      3.114      4.517    19.8506   998.2716 0.0000e+00
      3.191      0.051     0.1172      1.271     48.816  43.270821     6.6159      8.150   203.9622 1.2767e+01     2.8131      3.128      4.537    19.7108   998.3002 0.0000e+00
      3.208      0.048     0.1168      1.264     48.879  43.242640     6.5442      8.145   203.9829 1.2491e+01     2.8516      3.146      4.563    19.6156   998.3195 0.0000e+00
      3.223      0.043     0.1160      1.254     48.935  43.250370     6.4507      8.140   204.0129 1.2294e+01     2.8701      3.163      4.588    19.5200   998.3390 0.0000e+00
      3.233      0.038     0.1150      1.244     48.994  43.300742     6.4137      8.135   203.9799 1.2209e+01     2.8406      3.173      4.602    19.4201   998.3592 0.0000e+00
      3.239      0.033     0.1148      1.243     49.044  43.343737     6.4082      8.131   203.9293 1.2153e+01     2.8221      3.176      4.607    19.3125   998.3807 0.0000e+00
      3.244      0.030     0.1162      1.256     49.209  43.452749     6.4196      8.127   203.8316 1.2070e+01     2.8761      3.181      4.613    19.2115   998.4008 0.0000e+00
      3.250      0.029     0.1179      1.274     49.464  43.602823     6.4643      8.123   203.7450 1.1968e+01     2.9699      3.187      4.623    19.1692   998.4092 0.0000e+00
      3.257      0.031     0.1178      1.269     49.529  43.570793     6.4979      8.120   203.7424 1.1863e+01     3.0388      3.194      4.633    19.1851   998.4061 0.0000e+00
      3.265      0.035     0.1157      1.244     49.415  43.382831     6.4700      8.118   203.7139 1.1745e+01     3.0861      3.202      4.644    19.1994   998.4033 0.0000e+00
      3.275      0.040     0.1147      1.232     49.341  43.234928     6.1274      8.117   203.5727 1.1608e+01     3.2801      3.212      4.658    19.1620   998.4108 0.0000e+00
      3.286      0.044     0.1150      1.234     49.370  43.179285     5.5117      8.114   203.4109 1.1458e+01     3.6797      3.222      4.673    19.0748   998.4281 0.0000e+00
      3.298      0.048     0.1143      1.224     49.428  43.154416     5.1736      8.111   203.3073 1.1286e+01     3.9847      3.233      4.689    18.9783   998.4471 0.0000e+00
      3.311      0.050     0.1131      1.209     49.478  43.124622     5.1428      8.106   203.1798 1.1114e+01     4.0509      3.247      4.709    18.8907   998.4641 0.0000e+00
      3.324      0.050     0.1130      1.207     49.580  43.136425     5.1559      8.103   202.9023 1.0959e+01     3.9242      3.260      4.728    18.8061   998.4806 0.0000e+00
      3.339      0.049     0.1143      1.218     49.719  43.170038     5.1758      8.100   202.5330 1.0807e+01     3.7302      3.274      4.749    18.7244   998.4965 0.0000e+00
      3.352      0.048     0.1157      1.230     50.020  43.340438     5.1838      8.096   202.2420 1.0681e+01     3.6714      3.287      4.769    18.6467   998.5115 0.0000e+00
      3.362      0.047     0.1162      1.234     50.495  43.672713     5.1829      8.093   202.1373 1.0577e+01     3.7049      3.297      4.784    18.5770   998.5249 0.0000e+00
      3.372      0.047     0.1155      1.225     50.736  43.822190     5.1655      8.091   202.0419 1.0464e+01     3.7420      3.307      4.797    18.5017   998.5394 0.0000e+00
      3.383      0.046     0.1131      1.199     50.698  43.750788     4.9905      8.086   201.7759 1.0320e+01     3.8577      3.318      4.812    18.4110   998.5566 0.0000e+00
      3.396      0.045     0.1105      1.171     50.677  43.698295     4.6714      8.082   201.5031 1.0143e+01     4.0553      3.330      4.830    18.3148   998.5749 0.0000e+00
      3.410      0.044     0.1097      1.161     50.734  43.695432     4.4980      8.080   201.3244 9.9813e+00     4.1645      3.345      4.851    18.2335   998.5905 0.0000e+00
      3.422      0.043     0.1102      1.164     50.832  43.716107     4.4717      8.077   201.2495 9.8581e+00     4.1945      3.358      4.870    18.1734   998.6019 0.0000e+00
      3.432      0.042     0.1095      1.155     51.021  43.821196     4.2674      8.072   201.1995 9.7473e+00     4.3856      3.366      4.882    18.1405   998.6080 0.0000e+00
      3.441      0.042     0.1081      1.140     51.300  44.013541     3.8828      8.069   201.0645 9.6473e+00     4.7056      3.374      4.893    18.1211   998.6116 0.0000e+00
      3.450      0.041     0.1091      1.150     51.496  44.136765     3.6708      8.067   200.8223 9.5466e+00     4.8517      3.383      4.906    18.0646   998.6222 0.0000e+00
      3.461      0.041     0.1115      1.174     51.517  44.104585     3.6552      8.063   200.5073 9.4199e+00     4.8410      3.394      4.923    17.9905   998.6360 0.0000e+00
      3.473      0.041     0.1124      1.182     51.467  44.005380     3.7291      8.059   200.2682 9.2924e+00     4.8058      3.407      4.940    17.9369   998.6459 0.0000e+00
      3.484      0.041     0.1127      1.183     51.399  43.889673     3.8702      8.054   200.2540 9.1909e+00     4.6885      3.418      4.957    17.8946   998.6539 0.0000e+00
      3.494      0.040     0.1120      1.175     51.264  43.721457     3.9392      8.050   200.4215 9.1064e+00     4.5693      3.427      4.971    17.8534   998.6615 0.0000e+00
      3.503      0.040     0.1101      1.153     51.132  43.558831     3.9312      8.047   200.5732 9.0053e+00     4.5447      3.435      4.982    17.8040   998.6706 0.0000e+00
      3.513      0.040     0.1082      1.132     51.204  43.574204     3.8505      8.043   200.6247 8.8783e+00     4.6205      3.444      4.996    17.7466   998.6812 0.0000e+00
      3.523      0.041     0.1075      1.124     51.489  43.780274     3.6919      8.041   200.5290 8.7560e+00     4.7651      3.456      5.012    17.6892   998.6916 0.0000e+00
      3.533      0.043     0.1076      1.124     51.736  43.954995     3.6009      8.038   200.4477 8.6279e+00     4.8831      3.465      5.025    17.6383   998.7008 0.0000e+00
      3.544      0.044     0.1065      1.112     51.740  43.908795     3.5909      8.035   200.5022 8.4619e+00     4.9016      3.474      5.038    17.5903   998.7094 0.0000e+00
      3.557      0.046     0.1045      1.089     51.602  43.729589     3.5532      8.031   200.4132 8.3026e+00     4.8570      3.489      5.061    17.5411   998.7184 0.0000e+00
      3.570      0.048     0.1028      1.070     51.637  43.693040     3.4915      8.027   200.1467 8.1796e+00     4.8358      3.502      5.080    17.5096   998.7242 0.0000e+00
      3.581      0.051     0.1019      1.060     51.972  43.911276     3.4693      8.024   199.8615 8.0502e+00     4.8419      3.511      5.092    17.4828   998.7292 0.0000e+00
      3.592      0.052     0.1027      1.067     52.475  44.272793     3.4841      8.021   199.4597 7.8987e+00     4.8648      3.522      5.109    17.4318   998.7383 0.0000e+00
      3.606      0.052     0.1038      1.077     52.908  44.571674     3.4887      8.017   198.9024 7.7197e+00     4.8503      3.536      5.129    17.3694   998.7494 0.0000e+00
      3.622      0.052     0.1033      1.070     53.257  44.794516     3.4380      8.013   198.4569 7.5462e+00     4.7319      3.553      5.153    17.3038   998.7612 0.0000e+00
      3.638      0.051     0.1030      1.066     53.736  45.125592     3.3477      8.010   198.2898 7.4283e+00     4.5806      3.568      5.176    17.2397   998.7727 0.0000e+00
      3.651      0.049     0.1038      1.072     54.293  45.526585     3.2988      8.007   198.2587 7.3395e+00     4.4958      3.580      5.193    17.1823   998.7830 0.0000e+00
      3.661      0.047     0.1043      1.076     54.811  45.896231     3.2885      8.004   198.2529 7.2552e+00     4.4605      3.591      5.208    17.1208   998.7941 0.0000e+00
      3.671      0.045     0.1046      1.078     55.290  46.229244     3.2069      8.000   198.2189 7.1661e+00     4.1541      3.600      5.221    17.0505   998.8064 0.0000e+00
      3.681      0.045     0.1044      1.075     55.632  46.441268     3.0577      7.996   198.1065 7.0499e+00     3.5763      3.610      5.235    16.9820   998.8186 0.0000e+00
      3.693      0.046     0.1036      1.065     55.780  46.491064     2.9838      7.991   197.9261 6.9262e+00     3.2752      3.621      5.252    16.9218   998.8293 0.0000e+00
      3.706      0.047     0.1040      1.067     55.958  46.577223     2.9823      7.986   197.5861 6.8171e+00     3.2664      3.634      5.271    16.8651   998.8392 0.0000e+00
      3.718      0.048     0.1051      1.078     56.418  46.911374     2.9169      7.982   197.0936 6.7057e+00     3.1417      3.646      5.288    16.8045   998.8499 0.0000e+00
      3.730      0.048     0.1050      1.076     56.932  47.292372     2.7749      7.978   196.6181 6.5733e+00     2.8497      3.657      5.303    16.7363   998.8618 0.0000e+00
      3.743      0.047     0.1038      1.063     57.164  47.436894     2.6789      7.972   196.3098 6.4433e+00     2.6518      3.670      5.323    16.6660   998.8738 0.0000e+00
      3.756      0.046     0.1030      1.053     57.307  47.515584     2.6664      7.967   196.2052 6.3250e+00     2.5847      3.684      5.343    16.6088   998.8836 0.0000e+00
      3.768      0.045     0.1022      1.045     57.596  47.735694     2.7090      7.963   196.1272 6.2090e+00     2.4641      3.695      5.360    16.5708   998.8903 0.0000e+00
      3.779      0.044     0.1019      1.041     57.942  48.002405     2.7775      7.961   195.9702 6.1173e+00     2.3086      3.706      5.377    16.5335   998.8968 0.0000e+00
      3.789      0.044     0.1026      1.048     58.483  48.390506     2.8105      7.959   195.8557 6.0305e+00     2.2444      3.716      5.390    16.4851   998.9051 0.0000e+00
      3.799      0.045     0.1030      1.050     59.271  48.935009     2.8045      7.956   195.8605 5.9199e+00     2.2453      3.724      5.402    16.4437   998.9120 0.0000e+00
      3.810      0.048     0.1027      1.045     59.803  49.250813     2.7491      7.950   195.9425 5.8180e+00     2.1879      3.735      5.418    16.4339   998.9138 0.0000e+00
      3.822      0.053     0.1029      1.045     60.215  49.477685     2.6601      7.944   195.9869 5.7425e+00     2.0745      3.749      5.438    16.4340   998.9140 0.0000e+00
      3.836      0.057     0.1034      1.048     61.083  50.090071     2.6206      7.939   195.8805 5.6478e+00     2.0212      3.760      5.453    16.3865   998.9221 0.0000e+00
      3.852      0.058     0.1027      1.039     61.772  50.557451     2.6192      7.933   195.7750 5.5122e+00     2.0348      3.776      5.476    16.2817   998.9401 0.0000e+00
      3.870      0.058     0.1015      1.025     61.734  50.428394     2.5562      7.927   195.7433 5.3767e+00     1.9771      3.796      5.506    16.1677   998.9591 0.0000e+00
      3.887      0.056     0.1009      1.018     61.538  50.181018     2.4400      7.920   195.6696 5.2667e+00     1.8152      3.813      5.529    16.0758   998.9742 0.0000e+00
      3.902      0.053     0.1011      1.019     61.367  49.980019     2.3843      7.915   195.3141 5.1834e+00     1.7161      3.828      5.552    15.9987   998.9872 0.0000e+00
      3.914      0.049     0.1022      1.029     61.079  49.712995     2.3853      7.910   194.5430 5.1278e+00     1.7296      3.839      5.569    15.9206   999.0003 0.0000e+00
      3.923      0.047     0.1024      1.031     60.826  49.493040     2.3831      7.903   194.0894 5.0763e+00     1.7487      3.846      5.578    15.8362   999.0137 0.0000e+00
      3.932      0.046     0.1020      1.026     60.847  49.480066     2.4016      7.897   194.4757 5.0022e+00     1.7505      3.856      5.592    15.7599   999.0259 0.0000e+00
      3.944      0.047     0.1032      1.036     61.273  49.746646     2.4528      7.892   194.9115 4.9202e+00     1.7513      3.867      5.609    15.7107   999.0338 0.0000e+00
      3.957      0.048     0.1044      1.046     61.947  50.175524     2.4908      7.888   194.7990 4.8403e+00     1.7908      3.880      5.628    15.6843   999.0379 0.0000e+00
      3.971      0.050     0.1039      1.040     62.780  50.727440     2.4969      7.883   194.4055 4.7549e+00     1.8350      3.895      5.649    15.6837   999.0380 0.0000e+00
      3.984      0.052     0.1037      1.035     63.915  51.528795     2.4833      7.877   193.8539 4.6761e+00     1.7952      3.908      5.668    15.6759   999.0393 0.0000e+00
      3.996      0.053     0.1040      1.035     65.168  52.432607     2.4559      7.872   193.1198 4.6083e+00     1.7350      3.917      5.683    15.6020   999.0511 0.0000e+00
      4.010      0.053     0.1045      1.039     66.172  53.143234     2.4348      7.869   192.3264 4.5402e+00     1.7300      3.931      5.702    15.4943   999.0684 0.0000e+00
      4.026      0.052     0.1051      1.044     66.978  53.704829     2.4278      7.866   191.5744 4.4690e+00     1.7342      3.947      5.725    15.3952   999.0842 0.0000e+00
      4.041      0.050     0.1043      1.036     67.695  54.204058     2.4138      7.862   190.9113 4.4100e+00     1.7527      3.964      5.749    15.3051   999.0986 0.0000e+00
      4.053      0.050     0.1011      1.004     67.965  54.351088     2.3961      7.857   190.3318 4.3646e+00     1.7904      3.976      5.767    15.2232   999.1118 0.0000e+00
      4.063      0.050     0.0982      0.974     67.293  53.767177     2.3867      7.852   189.9015 4.3193e+00     1.7968      3.985      5.779    15.1490   999.1235 0.0000e+00
      4.073      0.050     0.0984      0.975     66.140  52.861476     2.3789      7.845   189.6660 4.2698e+00     1.7971      3.993      5.791    15.0848   999.1335 0.0000e+00
      4.084      0.050     0.0991      0.983     66.204  52.992911     2.4310      7.839   189.4636 4.2168e+00     1.7944      4.004      5.806    15.0309   999.1420 0.0000e+00
      4.100      0.050     0.0990      0.983     67.744  54.276355     2.5487      7.835   189.1752 4.1607e+00     1.7969      4.020      5.831    14.9781   999.1502 0.0000e+00
      4.116      0.050     0.0988      0.979     68.865  55.102185     2.6233      7.831   188.6741 4.1137e+00     1.8274      4.038      5.857    14.9289   999.1575 0.0000e+00
      4.130      0.050     0.0988      0.976     68.829  54.909753     2.6393      7.827   187.9643 4.0781e+00     1.8354      4.051      5.875    14.9316   999.1564 0.0000e+00
      4.140      0.050     0.0999      0.985     68.529  54.490730     2.6896      7.820   187.5627 4.0431e+00     1.8275      4.061      5.890    15.0249   999.1422 0.0000e+00
      4.150      0.049     0.1010      0.994     68.651  54.419275     2.7895      7.813   187.6901 4.0072e+00     1.8633      4.069      5.901    15.1004   999.1319 0.0000e+00
      4.161      0.047     0.1009      0.991     69.093  54.617390     2.8501      7.807   187.7846 3.9598e+00     1.9398      4.078      5.915    15.0293   999.1431 0.0000e+00
      4.176      0.044     0.1017      0.996     69.554  54.852958     2.8584      7.800   187.5000 3.9068e+00     1.9997      4.094      5.939    14.8819   999.1651 0.0000e+00
      4.192      0.043     0.1030      1.007     70.004  55.107299     2.8039      7.793   187.0025 3.8675e+00     1.9646      4.112      5.965    14.7500   999.1846 0.0000e+00
      4.202      0.043     0.1030      1.007     70.570  55.468860     2.6844      7.788   186.5017 3.8420e+00     1.8433      4.123      5.980    14.6290   999.2026 0.0000e+00
      4.208      0.044     0.1038      1.013     71.572  56.174858     2.6106      7.782   186.0898 3.8295e+00     1.7449      4.128      5.986    14.5147   999.2195 0.0000e+00
      4.215      0.047     0.1057      1.030     72.944  57.162723     2.6060      7.777   185.6369 3.8140e+00     1.7257      4.131      5.993    14.4210   999.2331 0.0000e+00
      4.225      0.051     0.1065      1.036     74.156  58.009395     2.6109      7.772   185.2415 3.7691e+00     1.7426      4.140      6.005    14.3524   999.2432 0.0000e+00
      4.241      0.056     0.1056      1.026     74.972  58.532849     2.6001      7.767   185.0091 3.7061e+00     1.7522      4.158      6.030    14.2968   999.2513 0.0000e+00
      4.261      0.061     0.1034      1.003     75.432  58.789499     2.5710      7.761   184.8053 3.6571e+00     1.7763      4.181      6.064    14.2422   999.2595 0.0000e+00
      4.280      0.063     0.1013      0.982     75.636  58.888378     2.5459      7.755   184.6705 3.6201e+00     1.8047      4.198      6.088    14.1833   999.2685 0.0000e+00
      4.295      0.063     0.1018      0.986     75.516  58.775148     2.5470      7.749   184.3255 3.5783e+00     1.8002      4.212      6.109    14.1140   999.2788 0.0000e+00
      4.310      0.060     0.1046      1.014     74.992  58.373581     2.5759      7.742   183.5599 3.5403e+00     1.7874      4.225      6.129    14.0322   999.2906 0.0000e+00
      4.325      0.056     0.1061      1.028     74.352  57.909216     2.6092      7.735   182.8120 3.5062e+00     1.7812      4.240      6.150    13.9520   999.3019 0.0000e+00
      4.340      0.052     0.1056      1.024     73.929  57.608559     2.6207      7.728   182.2522 3.4651e+00     1.7582      4.257      6.173    13.9148   999.3072 0.0000e+00
      4.353      0.049     0.1062      1.029     73.782  57.470677     2.6278      7.721   181.5239 3.4265e+00     1.7395      4.269      6.192    13.9108   999.3078 0.0000e+00
      4.365      0.047     0.1065      1.031     73.666  57.322261     2.6608      7.716   180.8038 3.3963e+00     1.7515      4.280      6.208    13.9058   999.3083 0.0000e+00
      4.375      0.044     0.1045      1.011     73.324  57.021250     2.7067      7.711   180.5148 3.3813e+00     1.7716      4.291      6.223    13.9371   999.3038 0.0000e+00
      4.385      0.042     0.1015      0.982     72.903  56.690379     2.7325      7.706   180.4384 3.3698e+00     1.7860      4.301      6.238    13.9780   999.2980 0.0000e+00
      4.395      0.040     0.0988      0.956     72.741  56.562182     2.7380      7.701   180.2240 3.3451e+00     1.7949      4.310      6.251    13.9541   999.3013 0.0000e+00
      4.406      0.040     0.0958      0.926     72.257  56.170150     2.7400      7.696   179.7290 3.3177e+00     1.7804      4.321      6.266    13.8930   999.3097 0.0000e+00
      4.417      0.041     0.0931      0.900     69.746  54.174036     2.7387      7.692   179.1003 3.2852e+00     1.7415      4.333      6.284    13.8693   999.3129 0.0000e+00
      4.426      0.043     0.0912      0.880     65.526  50.787045     2.7400      7.688   178.5591 3.2529e+00     1.7179      4.340      6.295    13.8806   999.3113 0.0000e+00
      4.435      0.045     0.0902      0.867     61.991  47.869603     2.7470      7.685   178.0041 3.2204e+00     1.7253      4.348      6.306    13.8789   999.3115 0.0000e+00
      4.448      0.046     0.0905      0.867     59.692  45.894036     2.7713      7.683   177.3794 3.1919e+00     1.6989      4.362      6.326    13.8683   999.3132 0.0000e+00
      4.462      0.048     0.0916      0.875     57.938  44.364917     2.8171      7.683   176.9420 3.1618e+00     1.5963      4.376      6.347    13.8521   999.3146 0.0000e+00
      4.474      0.051     0.0934      0.889     56.306  42.970356     2.8487      7.684   176.7603 3.1174e+00     1.5001      4.389      6.364    13.7701   999.3238 0.0000e+00
      4.487      0.053     0.0952      0.904     54.504  41.477686     2.8592      7.685   176.6450 3.0876e+00     1.4863      4.400      6.382    13.6086   999.3446 0.0000e+00
      4.500      0.055     0.0973      0.922     52.660  39.967841     2.8577      7.688   176.4082 3.0635e+00     1.5278      4.413      6.399    13.4292   999.3678 0.0000e+00
      4.514      0.055     0.0996      0.942     51.180  38.745595     2.8212      7.692   176.0484 3.0193e+00     1.6083      4.427      6.421    13.2691   999.3882 0.0000e+00
      4.529      0.055     0.1018      0.961     50.396  38.063112     2.7654      7.696   175.7359 2.9649e+00     1.7059      4.442      6.442    13.1440   999.4040 0.0000e+00
      4.544      0.055     0.1044      0.983     50.078  37.746621     2.7384      7.701   175.3830 2.9203e+00     1.7583      4.458      6.465    13.0442   999.4162 0.0000e+00
      4.559      0.055     0.1066      1.003     49.780  37.458004     2.7373      7.706   174.8795 2.8901e+00     1.7821      4.472      6.487    12.9425   999.4284 0.0000e+00
      4.572      0.054     0.1076      1.012     49.475  37.175969     2.7168      7.711   174.2938 2.8511e+00     1.7975      4.484      6.503    12.8437   999.4402 0.0000e+00
      4.584      0.052     0.1074      1.009     49.307  37.002540     2.6633      7.717   173.7219 2.8091e+00     1.7805      4.495      6.520    12.7573   999.4508 0.0000e+00
      4.597      0.050     0.1086      1.019     49.296  36.947955     2.6208      7.723   173.2129 2.7806e+00     1.7413      4.508      6.539    12.6800   999.4604 0.0000e+00
      4.611      0.049     0.1136      1.065     49.448  37.023742     2.6105      7.728   172.8712 2.7491e+00     1.7159      4.523      6.560    12.6163   999.4681 0.0000e+00
      4.624      0.048     0.1241      1.163     49.646  37.157109     2.6163      7.733   172.6884 2.7147e+00     1.7354      4.536      6.579    12.5653   999.4743 0.0000e+00
      4.636      0.047     0.1471      1.379     49.808  37.290949     2.6290      7.738   172.4659 2.6842e+00     1.7805      4.547      6.595    12.5196   999.4798 0.0000e+00
      4.648      0.046     0.1913      1.795     49.971  37.435940     2.6347      7.742   172.3318 2.6559e+00     1.8026      4.558      6.611    12.4722   999.4855 0.0000e+00
      4.659      0.045     0.2664      2.500     50.052  37.513715     2.6243      7.747   172.4428 2.6305e+00     1.8051      4.569      6.626    12.4243   999.4914 0.0000e+00
      4.669      0.044     0.3785      3.551     50.074  37.533088     2.5817      7.751   172.5180 2.6056e+00     1.8767      4.579      6.641    12.4076   999.4935 0.0000e+00
      4.680      0.042     0.5232      4.907     50.098  37.543228     2.5185      7.752   172.4669 2.5846e+00     1.9811      4.590      6.657    12.4287   999.4911 0.0000e+00
      4.693      0.039     0.6894      6.463     50.074  37.509355     2.4925      7.752   172.2549 2.5626e+00     1.9852      4.603      6.676    12.4581   999.4877 0.0000e+00
      4.704      0.037     0.8620      8.078     49.925  37.377420     2.4929      7.754   171.7615 2.5322e+00     1.9597      4.614      6.692    12.4780   999.4853 0.0000e+00
      4.712      0.037     1.0241      9.593     49.648  37.154055     2.4632      7.756   171.4910 2.5051e+00     2.0661      4.623      6.704    12.4774   999.4854 0.0000e+00
      4.718      0.037     1.1591     10.853     49.426  36.966862     2.4103      7.757   171.5665 2.4863e+00     2.2880      4.627      6.711    12.4689   999.4865 0.0000e+00
      4.726      0.038     1.2549     11.738     49.380  36.891402     2.3833      7.759   171.7275 2.4678e+00     2.4466      4.632      6.719    12.4552   999.4883 0.0000e+00
      4.737      0.040     1.3109     12.248     49.429  36.876390     2.3789      7.761   172.0611 2.4508e+00     2.4761      4.645      6.737    12.4260   999.4918 0.0000e+00
      4.749      0.043     1.3382     12.491     49.451  36.848766     2.3658      7.762   172.5026 2.4313e+00     2.4809      4.658      6.755    12.4144   999.4930 0.0000e+00
      4.760      0.046     1.3546     12.633     49.446  36.811259     2.2768      7.763   173.1081 2.4046e+00     2.7996      4.667      6.770    12.4058   999.4940 0.0000e+00
      4.773      0.048     1.3787     12.851     49.470  36.803699     2.1177      7.764   173.7894 2.3801e+00     3.4126      4.681      6.789    12.3541   999.5002 0.0000e+00
      4.785      0.048     1.4261     13.287     49.518  36.820814     2.0287      7.764   174.2863 2.3551e+00     3.7312      4.693      6.807    12.2953   999.5072 0.0000e+00
      4.798      0.048     1.5040     14.008     49.547  36.827746     2.0161      7.765   174.4706 2.3274e+00     3.7680      4.705      6.823    12.2522   999.5124 0.0000e+00
      4.811      0.048     1.6107     14.998     49.559  36.824020     1.9992      7.765   174.1250 2.3019e+00     4.2178      4.718      6.842    12.2167   999.5166 0.0000e+00
      4.823      0.047     1.7347     16.148     49.594  36.839225     1.9729      7.765   173.7220 2.2656e+00     5.0732      4.730      6.860    12.1922   999.5195 0.0000e+00
      4.835      0.047     1.8588     17.301     49.668  36.884629     1.9578      7.764   173.9855 2.2295e+00     5.5573      4.742      6.877    12.1745   999.5217 0.0000e+00
      4.847      0.047     1.9704     18.336     49.738  36.928653     1.9556      7.764   174.7285 2.2103e+00     5.6797      4.753      6.894    12.1608   999.5233 0.0000e+00
      4.858      0.047     2.0589     19.156     49.744  36.927185     1.9542      7.763   175.5651 2.1919e+00     6.2916      4.764      6.909    12.1486   999.5248 0.0000e+00
      4.870      0.047     2.1186     19.711     49.751  36.930344     1.9501      7.761   176.2707 2.1648e+00     7.3840      4.776      6.926    12.1373   999.5262 0.0000e+00
      4.881      0.047     2.1545     20.045     49.803  36.966839     1.9490      7.760   176.7212 2.1433e+00     8.0080      4.787      6.943    12.1278   999.5273 0.0000e+00
      4.894      0.047     2.1769     20.250     49.839  36.987591     1.9410      7.760   177.1398 2.1306e+00     8.1337      4.799      6.961    12.1213   999.5282 0.0000e+00
      4.907      0.047     2.1962     20.426     49.852  36.990820     1.8015      7.760   177.6324 2.1126e+00     8.7399      4.813      6.980    12.1125   999.5293 0.0000e+00
      4.920      0.046     2.2187     20.635     49.877  37.005880     1.5450      7.760   178.1178 2.0981e+00     9.8638      4.824      6.997    12.1110   999.5295 0.0000e+00
      4.931      0.046     2.2452     20.880     49.931  37.042722     1.4061      7.759   178.6208 2.0851e+00    10.4828      4.836      7.013    12.1146   999.5291 0.0000e+00
      4.942      0.046     2.2753     21.161     49.946  37.055410     1.3971      7.755   179.0680 2.0592e+00    10.5547      4.847      7.030    12.1031   999.5305 0.0000e+00
      4.953      0.046     2.3103     21.486     49.914  37.032336     1.4270      7.752   179.4805 2.0322e+00    10.5686      4.857      7.045    12.0964   999.5313 0.0000e+00
      4.965      0.047     2.3477     21.829     49.904  37.017641     1.4816      7.751   179.9955 2.0112e+00    10.5523      4.868      7.060    12.0953   999.5315 0.0000e+00
      4.978      0.047     2.3791     22.114     49.907  37.004682     1.5110      7.749   180.5621 1.9931e+00    10.5542      4.882      7.079    12.0889   999.5324 0.0000e+00
      4.990      0.046     2.3981     22.283     49.924  37.002580     1.5139      7.747   181.0836 1.9690e+00    10.5587      4.894      7.098    12.0923   999.5321 0.0000e+00
      5.003      0.044     2.4065     22.357     49.922  36.992209     1.5601      7.745   181.4818 1.9330e+00    10.4098      4.905      7.115    12.0977   999.5315 0.0000e+00
      5.016      0.043     2.4096     22.383     49.861  36.942750     1.6444      7.743   181.8495 1.9000e+00    10.0978      4.919      7.135    12.0897   999.5324 0.0000e+00
      5.026      0.044     2.4092     22.377     49.824  36.912386     1.6835      7.740   182.2600 1.8872e+00     9.9003      4.930      7.150    12.0708   999.5347 0.0000e+00
      5.032      0.045     2.4058     22.344     49.871  36.942455     1.6863      7.738   182.6586 1.8760e+00     9.8902      4.933      7.155    12.0531   999.5367 0.0000e+00
      5.041      0.046     2.4020     22.306     49.941  36.988930     1.6782      7.737   183.1425 1.8514e+00     9.9752      4.940      7.164    12.0449   999.5377 0.0000e+00
      5.055      0.048     2.4004     22.290     49.916  36.966496     1.4985      7.737   183.7225 1.8239e+00    10.6985      4.956      7.189    12.0429   999.5380 0.0000e+00
      5.071      0.051     2.4020     22.303     49.864  36.925102     1.1606      7.737   184.2496 1.7936e+00    12.0155      4.975      7.215    12.0403   999.5384 0.0000e+00
      5.086      0.054     2.4056     22.335     49.878  36.932772     0.9743      7.735   184.7846 1.7689e+00    12.7241      4.988      7.234    12.0350   999.5390 0.0000e+00
      5.098      0.055     2.4098     22.375     49.878  36.932281     0.9542      7.732   185.3727 1.7527e+00    12.7766      4.999      7.251    12.0294   999.5398 0.0000e+00
      5.111      0.054     2.4141     22.415     49.858  36.919158     0.9442      7.731   185.8540 1.7319e+00    12.8479      5.013      7.270    12.0254   999.5403 0.0000e+00
      5.125      0.052     2.4173     22.445     49.832  36.901054     0.9308      7.730   186.2159 1.7109e+00    12.9964      5.026      7.290    12.0228   999.5406 0.0000e+00
      5.139      0.052     2.4177     22.449     49.837  36.903824     0.9225      7.727   186.6510 1.6984e+00    13.0651      5.040      7.310    12.0201   999.5410 0.0000e+00
      5.153      0.051     2.4152     22.424     49.904  36.952640     0.9128      7.722   187.2426 1.6850e+00    13.0231      5.054      7.330    12.0190   999.5412 0.0000e+00
      5.166      0.050     2.4100     22.377     49.944  36.983480     0.8743      7.717   187.7764 1.6550e+00    13.1757      5.066      7.348    12.0216   999.5409 0.0000e+00
      5.178      0.049     2.4028     22.313     49.903  36.959327     0.8128      7.716   188.2877 1.6113e+00    13.5338      5.079      7.365    12.0240   999.5407 0.0000e+00
      5.190      0.048     2.3953     22.247     49.832  36.914512     0.7842      7.715   188.8639 1.5776e+00    13.7163      5.090      7.383    12.0222   999.5410 0.0000e+00
      5.202      0.046     2.3863     22.166     49.787  36.885969     0.7879      7.715   189.3230 1.5464e+00    13.7431      5.100      7.398    12.0194   999.5413 0.0000e+00
      5.214      0.044     2.3760     22.070     49.765  36.868121     0.7632      7.713   189.6228 1.4926e+00    13.8247      5.112      7.414    12.0202   999.5414 0.0000e+00
      5.226      0.042     2.3666     21.980     49.801  36.889140     0.7188      7.710   189.9072 1.4368e+00    13.9172      5.126      7.434    12.0274   999.5406 0.0000e+00
      5.237      0.040     2.3587     21.906     49.885  36.949677     0.7019      7.707   190.3525 1.3961e+00    13.9435      5.137      7.450    12.0371   999.5395 0.0000e+00
      5.246      0.039     2.3531     21.857     49.898  36.965302     0.6989      7.706   190.7914 1.3617e+00    13.9789      5.144      7.460    12.0428   999.5388 0.0000e+00
      5.254      0.038     2.3496     21.828     49.872  36.951127     0.6995      7.704   191.0833 1.3379e+00    14.0165      5.152      7.472    12.0429   999.5389 0.0000e+00
      5.263      0.038     2.3478     21.810     49.898  36.968714     0.7092      7.703   191.3869 1.3091e+00    13.9727      5.162      7.486    12.0318   999.5402 0.0000e+00
      5.272      0.039     2.3477     21.806     49.930  36.987520     0.7211      7.703   191.6228 1.2651e+00    13.9409      5.169      7.497    12.0271   999.5408 0.0000e+00
      5.283      0.039     2.3504     21.831     49.932  36.988079     0.7306      7.704   191.7849 1.2292e+00    13.9589      5.181      7.514    12.0389   999.5395 0.0000e+00
      5.295      0.039     2.3563     21.887     49.909  36.975473     0.7286      7.708   192.0561 1.2060e+00    13.9616      5.194      7.533    12.0475   999.5385 0.0000e+00
      5.305      0.038     2.3640     21.960     49.888  36.962057     0.7225      7.711   192.3202 1.1871e+00    13.9404      5.203      7.546    12.0432   999.5391 0.0000e+00
      5.314      0.038     2.3729     22.041     49.880  36.952817     0.7178      7.712   192.4832 1.1606e+00    13.9328      5.211      7.558    12.0341   999.5402 0.0000e+00
      5.322      0.038     2.3811     22.115     49.852  36.927222     0.7233      7.711   192.7371 1.1316e+00    13.9674      5.219      7.570    12.0327   999.5404 0.0000e+00
      5.331      0.039     2.3889     22.185     49.830  36.906491     0.7454      7.710   193.0670 1.1081e+00    13.9657      5.228      7.583    12.0412   999.5395 0.0000e+00
      5.341      0.040     2.3967     22.254     49.820  36.892585     0.8467      7.708   193.2885 1.0736e+00    13.8140      5.238      7.597    12.0451   999.5391 0.0000e+00
      5.352      0.042     2.4016     22.295     49.822  36.886024     1.0293      7.706   193.4364 1.0375e+00    13.5758      5.250      7.613    12.0380   999.5399 0.0000e+00
      5.364      0.045     2.4032     22.306     49.839  36.890628     1.1328      7.703   193.5648 1.0095e+00    13.4447      5.261      7.630    12.0336   999.5404 0.0000e+00
      5.375      0.047     2.4038     22.309     49.839  36.884766     1.1437      7.699   193.7222 9.7918e-01    13.4742      5.271      7.645    12.0310   999.5408 0.0000e+00
      5.387      0.048     2.4036     22.305     49.837  36.878619     1.1527      7.692   193.9623 9.4953e-01    13.6369      5.283      7.662    12.0236   999.5417 0.0000e+00
      5.400      0.048     2.4015     22.284     49.842  36.879773     1.1544      7.680   194.2311 9.2745e-01    13.8393      5.295      7.680    12.0142   999.5428 0.0000e+00
      5.414      0.048     2.3979     22.251     49.866  36.898711     1.1383      7.658   194.5635 9.1420e-01    13.9223      5.309      7.700    12.0064   999.5438 0.0000e+00
      5.427      0.048     2.3956     22.233     49.884  36.917171     1.1238      7.633   194.9700 9.0179e-01    13.9195      5.322      7.720    12.0004   999.5445 0.0000e+00
      5.439      0.047     2.3968     22.249     49.865  36.912553     1.0474      7.631   195.3603 8.7862e-01    13.9363      5.335      7.736    11.9961   999.5451 0.0000e+00
      5.449      0.046     2.3991     22.276     49.840  36.906366     0.8910      7.646   195.6679 8.4596e-01    13.9953      5.345      7.752    11.9923   999.5456 0.0000e+00
      5.460      0.044     2.3994     22.283     49.827  36.905855     0.7942      7.660   195.8503 8.2164e-01    14.0094      5.353      7.764    11.9929   999.5455 0.0000e+00
      5.472      0.044     2.4006     22.296     49.824  36.906375     0.7783      7.668   196.0172 8.0880e-01    13.9429      5.365      7.781    11.9999   999.5448 0.0000e+00
      5.484      0.044     2.4048     22.334     49.834  36.912655     0.7763      7.672   196.2226 7.9127e-01    13.9130      5.378      7.801    12.0084   999.5440 0.0000e+00
      5.495      0.043     2.4094     22.375     49.844  36.918311     0.7788      7.672   196.3549 7.6424e-01    13.9422      5.389      7.815    12.0227   999.5423 0.0000e+00
      5.505      0.042     2.4134     22.414     49.834  36.911285     0.7833      7.672   196.4128 7.3653e-01    13.9680      5.398      7.828    12.0345   999.5411 0.0000e+00
      5.516      0.041     2.4166     22.444     49.805  36.891183     0.7865      7.672   196.5792 7.1669e-01    13.9632      5.409      7.845    12.0355   999.5410 0.0000e+00
      5.526      0.040     2.4179     22.455     49.773  36.865688     0.7831      7.672   196.8173 7.0656e-01    13.9499      5.421      7.862    12.0318   999.5415 0.0000e+00
      5.536      0.040     2.4180     22.451     49.773  36.856928     0.7770      7.672   196.9685 6.9541e-01    14.0043      5.428      7.872    12.0302   999.5417 0.0000e+00
      5.546      0.039     2.4171     22.437     49.778  36.848732     0.7821      7.671   197.1170 6.7681e-01    14.1285      5.438      7.887    12.0314   999.5416 0.0000e+00
      5.556      0.036     2.4143     22.406     49.765  36.830048     0.7923      7.669   197.3229 6.5988e-01    14.2066      5.449      7.905    12.0340   999.5413 0.0000e+00
      5.566      0.034     2.4109     22.373     49.757  36.821439     0.7877      7.666   197.5646 6.4813e-01    14.1952      5.459      7.918    12.0342   999.5412 0.0000e+00
      5.574      0.032     2.4065     22.335     49.732  36.808118     0.7785      7.665   197.8026 6.4198e-01    14.1218      5.467      7.929    12.0223   999.5427 0.0000e+00
      5.581      0.030     2.3993     22.271     49.709  36.795943     0.7852      7.661   198.0497 6.3675e-01    14.0397      5.474      7.939    12.0085   999.5444 0.0000e+00
      5.587      0.027     2.3903     22.187     49.717  36.801181     0.7989      7.656   198.3152 6.2342e-01    14.0217      5.478      7.947    11.9988   999.5454 0.0000e+00
      5.594      0.023     2.3820     22.109     49.729  36.807971     0.7972      7.636   198.5177 6.1150e-01    14.0353      5.485      7.955    11.9943   999.5460 0.0000e+00
      5.602      0.020     2.3754     22.048     49.738  36.814567     0.7821      7.600   198.6046 6.0015e-01    14.0074      5.494      7.969    12.0036   999.5450 0.0000e+00
      5.608      0.020     2.3678     21.984     49.726  36.817459     0.7729      7.587   198.5917 5.9101e-01    13.9784      5.501      7.979    12.0119   999.5440 0.0000e+00
      5.610      0.022     2.3607     21.929     49.642  36.779476     0.7725      7.604   198.7061 5.9599e-01    13.9805      5.502      7.979    12.0076   999.5445 0.0000e+00
      5.611      0.026     2.3574     21.903     49.570  36.736195     0.7772      7.625   199.1266 5.9886e-01    13.9676      5.500      7.977    12.0054   999.5448 0.0000e+00
      5.616      0.032     2.3571     21.892     49.595  36.738500     0.7691      7.638   199.5466 5.8961e-01    13.9533      5.504      7.983    12.0020   999.5453 0.0000e+00
      5.626      0.039     2.3581     21.889     49.633  36.743845     0.7432      7.645   199.7407 5.7235e-01    13.9380      5.517      8.001    12.0086   999.5446 0.0000e+00
      5.639      0.046     2.3591     21.892     49.641  36.737318     0.7245      7.649   199.9252 5.5295e-01    13.9150      5.530      8.020    12.0486   999.5399 0.0000e+00
      5.653      0.051     2.3581     21.881     49.630  36.723042     0.7251      7.650   200.2281 5.3763e-01    13.9044      5.543      8.040    12.0661   999.5380 0.0000e+00
      5.668      0.053     2.3552     21.851     49.605  36.698182     0.8458      7.648   200.5640 5.2538e-01    13.9072      5.560      8.064    12.0359   999.5415 0.0000e+00
      5.683      0.052     2.3509     21.807     49.604  36.690627     1.0741      7.645   200.8880 5.1293e-01    13.9490      5.574      8.085    12.0071   999.5448 0.0000e+00
      5.696      0.051     2.3434     21.735     49.616  36.695158     1.1971      7.644   201.1353 5.0453e-01    13.9839      5.586      8.101    11.9975   999.5460 0.0000e+00
      5.708      0.048     2.3331     21.640     49.610  36.689492     1.2047      7.642   201.3164 4.9882e-01    13.9686      5.598      8.119    11.9946   999.5464 0.0000e+00
      5.720      0.046     2.3235     21.551     49.605  36.685595     1.1923      7.639   201.5298 4.8132e-01    13.9609      5.609      8.136    11.9875   999.5472 0.0000e+00
      5.731      0.044     2.3160     21.481     49.639  36.711513     1.0743      7.636   201.7366 4.6606e-01    13.9237      5.620      8.152    11.9793   999.5483 0.0000e+00
      5.742      0.041     2.3096     21.423     49.685  36.748964     0.8528      7.633   202.0101 4.6847e-01    13.8128      5.631      8.167    11.9753   999.5488 0.0000e+00
      5.753      0.037     2.3049     21.383     49.688  36.757562     0.7243      7.630   202.3402 4.5712e-01    13.7358      5.641      8.182    11.9746   999.5489 0.0000e+00
      5.763      0.034     2.3023     21.362     49.673  36.752010     0.7084      7.628   202.5447 4.3064e-01    13.7465      5.652      8.197    11.9749   999.5490 0.0000e+00
      5.771      0.031     2.3019     21.359     49.664  36.745317     0.7219      7.625   202.5893 4.2259e-01    13.8110      5.661      8.211    11.9748   999.5490 0.0000e+00
      5.777      0.028     2.3039     21.375     49.662  36.740116     0.7398      7.622   202.6223 4.1664e-01    13.8598      5.665      8.217    11.9766   999.5488 0.0000e+00
      5.783      0.025     2.3056     21.392     49.676  36.752583     0.7338      7.620   202.8571 4.0720e-01    13.8446      5.669      8.222    11.9861   999.5478 0.0000e+00
      5.790      0.024     2.3067     21.407     49.684  36.769106     0.7272      7.618   203.1059 4.0131e-01    13.8561      5.679      8.236    11.9945   999.5469 0.0000e+00
      5.797      0.026     2.3091     21.433     49.648  36.749481     0.7557      7.613   203.2214 3.9143e-01    13.9012      5.686      8.247    11.9933   999.5470 0.0000e+00
      5.801      0.031     2.3116     21.453     49.595  36.705741     0.8102      7.608   203.3933 3.8711e-01    13.9311      5.689      8.251    11.9852   999.5480 0.0000e+00
      5.805      0.036     2.3141     21.471     49.581  36.684563     0.8481      7.601   203.5497 3.7858e-01    13.9552      5.692      8.255    11.9845   999.5481 0.0000e+00
      5.813      0.040     2.3182     21.505     49.591  36.683835     0.8500      7.591   203.6489 3.5536e-01    13.9640      5.698      8.264    12.0019   999.5462 0.0000e+00
      5.827      0.041     2.3213     21.533     49.610  36.696925     0.8236      7.585   203.8184 3.3609e-01    13.9719      5.713      8.286    12.0131   999.5449 0.0000e+00
      5.845      0.040     2.3223     21.543     49.635  36.715890     0.7895      7.578   204.0510 3.3220e-01    13.9843      5.734      8.317    12.0046   999.5459 0.0000e+00
      5.859      0.038     2.3234     21.553     49.646  36.722709     0.7758      7.553   204.2241 3.3120e-01    13.9825      5.749      8.338    11.9899   999.5477 0.0000e+00
      5.866      0.034     2.3242     21.558     49.641  36.715896     0.7801      7.533   204.3630 3.3146e-01    13.9511      5.754      8.345    11.9797   999.5489 0.0000e+00
      5.869      0.031     2.3247     21.562     49.618  36.696976     0.7717      7.543   204.5256 3.3637e-01    13.9327      5.756      8.348    11.9811   999.5487 0.0000e+00
      5.873      0.031     2.3254     21.567     49.604  36.684377     0.7526      7.565   204.6413 3.3124e-01    13.9562      5.758      8.352    11.9846   999.5483 0.0000e+00
      5.879      0.032     2.3249     21.561     49.617  36.690516     0.7394      7.580   204.8158 3.1770e-01    14.0055      5.764      8.361    11.9817   999.5487 0.0000e+00
      5.889      0.034     2.3230     21.542     49.644  36.707728     0.7337      7.587   205.0860 3.0484e-01    14.0377      5.774      8.375    11.9781   999.5492 0.0000e+00
      5.903      0.034     2.3213     21.527     49.638  36.702052     0.7438      7.592   205.3271 2.8539e-01    14.0170      5.788      8.395    11.9769   999.5494 0.0000e+00
      5.916      0.032     2.3193     21.508     49.615  36.685364     0.8016      7.594   205.4940 2.7649e-01    13.9845      5.805      8.419    11.9753   999.5496 0.0000e+00
      5.925      0.029     2.3164     21.480     49.630  36.696377     0.9033      7.594   205.7270 2.8481e-01    13.9738      5.812      8.430    11.9712   999.5501 0.0000e+00
      5.928      0.026     2.3121     21.439     49.648  36.708257     0.9673      7.591   205.9937 2.8908e-01    13.9850      5.813      8.431    11.9671   999.5506 0.0000e+00
      5.931      0.027     2.3058     21.381     49.642  36.702053     0.9691      7.580   206.1381 2.8914e-01    13.9891      5.815      8.434    11.9664   999.5507 0.0000e+00
      5.935      0.032     2.3032     21.356     49.621  36.684837     0.8905      7.559   206.2680 2.8541e-01    13.9578      5.819      8.440    11.9681   999.5505 0.0000e+00
      5.941      0.043     2.3053     21.375     49.630  36.690517     0.7545      7.545   206.4457 2.7193e-01    13.9338      5.824      8.447    11.9676   999.5506 0.0000e+00
      5.952      0.055     2.3074     21.395     49.652  36.707252     0.6854      7.553   206.7377 2.5655e-01    13.9615      5.834      8.461    11.9652   999.5509 0.0000e+00
      5.970      0.065     2.3088     21.408     49.635  36.696760     0.6880      7.568   207.0454 2.5259e-01    13.9975      5.852      8.488    11.9631   999.5512 0.0000e+00
      5.993      0.070     2.3108     21.428     49.624  36.690611     0.7765      7.576   207.2410 2.4806e-01    14.0088      5.876      8.524    11.9618   999.5515 0.0000e+00
      6.017      0.070     2.3135     21.453     49.632  36.696386     0.9399      7.577   207.3817 2.2921e-01    14.0000      5.901      8.559    11.9609   999.5517 0.0000e+00
      6.037      0.067     2.3159     21.475     49.642  36.703103     1.0256      7.578   207.5413 2.1188e-01    13.9569      5.921      8.587    11.9606   999.5519 0.0000e+00
      6.052      0.062     2.3157     21.475     49.644  36.708343     1.0235      7.577   207.7083 2.0463e-01    13.9130      5.936      8.610    11.9638   999.5516 0.0000e+00
      6.062      0.057     2.3126     21.450     49.618  36.696280     0.9665      7.566   207.7670 2.0000e-01    13.8635      5.946      8.624    11.9673   999.5512 0.0000e+00
      6.072      0.053     2.3095     21.423     49.596  36.684209     0.8580      7.548   207.8210 1.8403e-01    13.7844      5.954      8.635    11.9662   999.5514 0.0000e+00
      6.085      0.050     2.3080     21.407     49.607  36.689354     0.7861      7.541   207.9307 1.6510e-01    13.7425      5.966      8.653    11.9635   999.5517 0.0000e+00
      6.102      0.047     2.3068     21.394     49.622  36.695012     0.7738      7.545   208.0606 1.6762e-01    13.7172      5.984      8.679    11.9663   999.5515 0.0000e+00
      6.117      0.045     2.3033     21.360     49.616  36.689128     0.7696      7.550   208.2731 1.7230e-01    13.6427      6.000      8.703    11.9778   999.5503 0.0000e+00
      6.128      0.044     2.2995     21.328     49.601  36.681682     0.7525      7.553   208.5213 1.5800e-01    13.5629      6.011      8.717    11.9847   999.5495 0.0000e+00
      6.135      0.044     2.2994     21.330     49.572  36.668457     0.7320      7.554   208.6528 1.4421e-01    13.5057      6.017      8.726    11.9781   999.5503 0.0000e+00
      6.141      0.045     2.3023     21.361     49.546  36.656197     0.7215      7.555   208.6583 1.4316e-01    13.4754      6.022      8.734    11.9699   999.5513 0.0000e+00
      6.151      0.046     2.3070     21.405     49.552  36.660397     0.7198      7.556   208.6738 1.4491e-01    13.4917      6.032      8.747    11.9678   999.5516 0.0000e+00
      6.166      0.049     2.3102     21.430     49.559  36.655762     0.7121      7.556   208.7535 1.4185e-01    13.5067      6.046      8.769    11.9726   999.5511 0.0000e+00
      6.182      0.052     2.3098     21.421     49.584  36.663617     0.6975      7.555   208.8483 1.3483e-01    13.4925      6.062      8.793    11.9819   999.5501 0.0000e+00
      6.198      0.056     2.3096     21.416     49.629  36.691892     0.6821      7.553   208.9593 1.2750e-01    13.4842      6.080      8.818    11.9925   999.5489 0.0000e+00
      6.211      0.058     2.3100     21.418     49.618  36.680247     0.6734      7.552   209.1495 1.2393e-01    13.4717      6.092      8.836    11.9930   999.5490 0.0000e+00
      6.223      0.058     2.3060     21.380     49.581  36.649759     0.6791      7.552   209.3410 1.2361e-01    13.4726      6.102      8.850    11.9788   999.5506 0.0000e+00
      6.237      0.057     2.2975     21.300     49.571  36.640646     0.6982      7.550   209.3816 1.2372e-01    13.5273      6.115      8.869    11.9669   999.5520 0.0000e+00
      6.254      0.056     2.2882     21.212     49.564  36.633533     0.7222      7.548   209.4688 1.2528e-01    13.5758      6.133      8.895    11.9627   999.5527 0.0000e+00
      6.270      0.055     2.2788     21.125     49.558  36.627225     0.7272      7.547   209.7925 1.2668e-01    13.5673      6.151      8.921    11.9599   999.5530 0.0000e+00
      6.285      0.052     2.2708     21.049     49.562  36.627846     0.7067      7.547   210.1121 1.2527e-01    13.5559      6.165      8.941    11.9564   999.5535 0.0000e+00
      6.297      0.047     2.2651     20.995     49.582  36.641051     0.6831      7.546   210.3216 1.2375e-01    13.5691      6.176      8.959    11.9544   999.5537 0.0000e+00
      6.307      0.043     2.2596     20.944     49.610  36.659923     0.6753      7.543   210.5187 1.2358e-01    13.5627      6.185      8.971    11.9534   999.5539 0.0000e+00
      6.316      0.040     2.2548     20.899     49.619  36.665598     0.6813      7.543   210.6890 1.2358e-01    13.5444      6.194      8.984    11.9514   999.5542 0.0000e+00
      6.325      0.038     2.2538     20.889     49.594  36.646194     0.6952      7.541   210.7452 1.2366e-01    13.5446      6.203      8.996    11.9491   999.5545 0.0000e+00
      6.335      0.038     2.2542     20.892     49.554  36.615736     0.7138      7.536   210.7681 1.2366e-01    13.5647      6.211      9.009    11.9468   999.5548 0.0000e+00
      6.345      0.039     2.2527     20.878     49.554  36.614696     0.7333      7.535   210.8799 1.2359e-01    13.5581      6.223      9.025    11.9452   999.5550 0.0000e+00
      6.355      0.042     2.2502     20.854     49.580  36.633624     0.7473      7.534   210.9784 1.2358e-01    13.5306      6.233      9.040    11.9442   999.5552 0.0000e+00
      6.365      0.044     2.2485     20.838     49.609  36.654164     0.7447      7.532   211.0137 1.2358e-01    13.5936      6.241      9.053    11.9430   999.5554 0.0000e+00
      6.375      0.045     2.2481     20.834     49.634  36.672629     0.7285      7.533   211.0486 1.2357e-01    13.6968      6.252      9.067    11.9417   999.5555 0.0000e+00
      6.389      0.044     2.2471     20.826     49.624  36.666452     0.7164      7.536   211.1416 1.2356e-01    13.7621      6.266      9.087    11.9415   999.5556 0.0000e+00
      6.403      0.041     2.2449     20.807     49.589  36.642956     0.7191      7.534   211.3639 1.2359e-01    13.7927      6.281      9.108    11.9410   999.5558 0.0000e+00
      6.415      0.038     2.2447     20.805     49.588  36.642445     0.7270      7.528   211.5849 1.2362e-01    13.7712      6.292      9.126    11.9392   999.5560 0.0000e+00
      6.423      0.038     2.2468     20.825     49.612  36.660277     0.7251      7.529   211.6629 1.2362e-01    13.6996      6.300      9.137    11.9393   999.5561 0.0000e+00
      6.428      0.041     2.2473     20.830     49.620  36.668137     0.7219      7.534   211.7054 1.2363e-01    13.5829      6.304      9.142    11.9422   999.5557 0.0000e+00
      6.433      0.048     2.2454     20.814     49.625  36.674007     0.7234      7.537   211.7541 1.2360e-01    13.5072      6.307      9.148    11.9445   999.5555 0.0000e+00
      6.444      0.057     2.2418     20.779     49.620  36.667773     0.7252      7.538   211.7346 1.2357e-01    13.5054      6.315      9.160    11.9440   999.5556 0.0000e+00
      6.463      0.065     2.2364     20.726     49.613  36.656234     0.7439      7.537   211.6423 1.2359e-01    13.5283      6.335      9.189    11.9428   999.5558 0.0000e+00
      6.487      0.071     2.2334     20.696     49.628  36.661429     0.7768      7.535   211.5847 1.2360e-01    13.5208      6.362      9.228    11.9460   999.5556 0.0000e+00
      6.510      0.073     2.2343     20.703     49.641  36.667099     0.7925      7.532   211.5537 1.2360e-01    13.4809      6.385      9.261    11.9501   999.5552 0.0000e+00
      6.530      0.071     2.2336     20.695     49.637  36.661310     0.7959      7.525   211.4400 1.2358e-01    13.4722      6.405      9.289    11.9467   999.5557 0.0000e+00
      6.546      0.066     2.2329     20.686     49.632  36.654915     0.8437      7.515   211.3289 1.2356e-01    13.4486      6.420      9.311    11.9389   999.5567 0.0000e+00
      6.560      0.059     2.2360     20.713     49.635  36.653242     0.9272      7.512   211.3288 1.2357e-01    13.3593      6.433      9.329    11.9322   999.5575 0.0000e+00
      6.575      0.052     2.2404     20.752     49.623  36.641078     0.9652      7.514   211.3524 1.2356e-01    13.2775      6.448      9.352    11.9293   999.5579 0.0000e+00
      6.589      0.045     2.2445     20.789     49.618  36.634788     0.9557      7.515   211.4430 1.2354e-01    13.2783      6.463      9.373    11.9277   999.5581 0.0000e+00
      6.600      0.039     2.2454     20.797     49.627  36.640664     0.8912      7.509   211.6493 1.2359e-01    13.3687      6.473      9.388    11.9237   999.5586 0.0000e+00
      6.608      0.034     2.2414     20.759     49.639  36.648639     0.7831      7.497   211.7814 1.2364e-01    13.4859      6.481      9.400    11.9191   999.5592 0.0000e+00
      6.614      0.029     2.2364     20.713     49.665  36.667739     0.7246      7.494   211.8360 1.2364e-01    13.5155      6.486      9.409    11.9157   999.5596 0.0000e+00
      6.619      0.025     2.2331     20.682     49.684  36.681181     0.7125      7.501   211.8791 1.2363e-01    13.4644      6.491      9.415    11.9138   999.5599 0.0000e+00
      6.625      0.022     2.2309     20.662     49.689  36.684208     0.7150      7.508   211.9584 1.2363e-01    13.4586      6.497      9.423    11.9130   999.5600 0.0000e+00
      6.632      0.020     2.2280     20.634     49.718  36.704348     0.7282      7.510   212.1070 1.2361e-01    13.5101      6.505      9.434    11.9128   999.5600 0.0000e+00
      6.638      0.017     2.2251     20.606     49.760  36.734260     0.7335      7.510   212.1265 1.2362e-01    13.5302      6.510      9.443    11.9122   999.5602 0.0000e+00
      6.642      0.014     2.2212     20.570     49.754  36.728495     0.7358      7.508   212.1086 1.2366e-01    13.5047      6.515      9.449    11.9111   999.5603 0.0000e+00
      6.645      0.011     2.2156     20.519     49.709  36.698120     0.7299      7.503   212.2348 1.2365e-01    13.4979      6.517      9.451    11.9103   999.5604 0.0000e+00
      6.646      0.007     2.2081     20.453     49.681  36.684375     0.7149      7.498   212.3621 1.2360e-01    13.5455      6.517      9.452    11.9098   999.5604 0.0000e+00
      6.647      0.005     2.1976     20.359     49.679  36.689265     0.7096      7.496   212.4427 1.2359e-01    13.5885      6.518      9.454    11.9089   999.5606 0.0000e+00
      6.648      0.005     2.1853     20.247     49.679  36.693772     0.7182      7.496   212.5215 1.2357e-01    13.5599      6.520      9.456    11.9055   999.5610 0.0000e+00
      6.649      0.005     2.1729     20.133     49.652  36.675401     0.7323      7.495   212.6261 1.2356e-01    13.4934      6.521      9.457    11.9085   999.5607 0.0000e+00
      6.650      0.006     2.1634     20.045     49.627  36.657570     0.7247      7.495   212.6756 1.2361e-01    13.4074      6.522      9.459    11.9176   999.5596 0.0000e+00
      6.651      0.006     2.1567     19.985     49.638  36.668600     0.6956      7.494   212.6886 1.2362e-01    13.3072      6.524      9.461    11.9233   999.5589 0.0000e+00
      6.654      0.007     2.1536     19.960     49.642  36.681824     0.6836      7.491   212.8701 1.2356e-01    13.2981      6.526      9.464    11.9289   999.5583 0.0000e+00
      6.656      0.008     2.1537     19.967     49.635  36.690516     0.6913      7.489   213.1495 1.2355e-01    13.3616      6.527      9.466    11.9309   999.5580 0.0000e+00
      6.658      0.009     2.1548     19.979     49.660  36.710239     0.7023      7.488   213.3129 1.2359e-01    13.3872      6.529      9.469    11.9301   999.5582 0.0000e+00
      6.659      0.011     2.1580     20.004     49.699  36.729874     0.7124      7.485   213.2971 1.2361e-01    13.4120      6.530      9.471    11.9288   999.5583 0.0000e+00
      6.662      0.013     2.1624     20.043     49.714  36.737482     0.7274      7.483   213.2173 1.2364e-01    13.4635      6.532      9.474    11.9406   999.5570 0.0000e+00
      6.666      0.014     2.1667     20.088     49.699  36.738740     0.7444      7.481   213.2941 1.2369e-01    13.4861      6.536      9.480    11.9637   999.5544 0.0000e+00
      6.671      0.014     2.1684     20.115     49.675  36.745096     0.7276      7.478   213.4507 1.2372e-01    13.4884      6.542      9.488    11.9641   999.5543 0.0000e+00
      6.675      0.014     2.1662     20.104     49.656  36.750882     0.6706      7.475   213.5617 1.2367e-01    13.4914      6.547      9.495    11.9466   999.5565 0.0000e+00
      6.679      0.013     2.1607     20.058     49.634  36.745245     0.6282      7.471   213.6911 1.2362e-01    13.4904      6.550      9.500    11.9399   999.5572 0.0000e+00
      6.682      0.010     2.1513     19.974     49.619  36.740432     0.6224      7.467   213.8097 1.2357e-01    13.5089      6.553      9.504    11.9529   999.5557 0.0000e+00
      6.684      0.007     2.1415     19.882     49.644  36.756172     0.6622      7.445   213.8770 1.2356e-01    13.5182      6.555      9.507    11.9847   999.5521 0.0000e+00
      6.686      0.005     2.1334     19.798     49.740  36.808604     0.7362      7.406   213.9028 1.2358e-01    13.5038      6.556      9.509    12.0083   999.5494 0.0000e+00
      6.686      0.003     2.1269     19.726     50.025  36.993511     0.7795      7.395   213.9502 1.2361e-01    13.4993      6.557      9.510    12.0114   999.5490 0.0000e+00
      6.686      0.002     2.1232     19.682     50.611  37.404929     0.7870      7.417   214.0189 1.2362e-01    13.4966      6.557      9.510    12.0232   999.5477 0.0000e+00
      6.687      0.001     2.1217     19.660     51.236  37.847426     0.7749      7.439   214.1316 1.2361e-01    13.5039      6.558      9.511    12.0263   999.5473 0.0000e+00
      6.687      0.000     2.1215     19.651     51.586  38.090669     0.7463      7.450   214.2804 1.2359e-01    13.5217      6.558      9.511    11.9995   999.5504 0.0000e+00
      6.687 2.0506e-08     2.1219     19.651     51.729  38.187665     0.7268      7.455   214.4416 1.2362e-01    13.5155      6.558      9.511    11.9694   999.5539 0.0000e+00
      6.687 2.2557e-07     2.1200     19.633     51.825  38.258430     0.7214      7.456   214.6178 1.2367e-01    13.4950      6.557      9.510    11.9498   999.5564 0.0000e+00
      6.687 2.2557e-07     2.1092     19.536     51.889  38.311480     0.7155      7.456   214.6903 1.2364e-01    13.4704      6.558      9.511    11.9311   999.5588 0.0000e+00
      6.687 2.0534e-08     2.0861     19.326     51.889  38.321256     0.6905      7.452   214.7160 1.2359e-01    13.5128      6.558      9.511    11.9144   999.5608 0.0000e+00
      6.687 2.1720e-09     2.0532     19.026     51.863  38.313163     0.6525      7.436   214.7564 1.2356e-01    13.6469      6.558      9.511    11.9056   999.5618 0.0000e+00
      6.687 3.5563e-09     2.0125     18.653     51.799  38.277122     0.6298      7.414   214.7485 1.2356e-01    13.7154      6.558      9.511    11.9059   999.5618 0.0000e+00
      6.687 3.7271e-08     1.9677     18.241     51.686  38.202903     0.6242      7.411   214.7926 1.2358e-01    13.6858      6.558      9.512    11.9140   999.5609 0.0000e+00
      6.687 4.0981e-07     1.9228     17.828     51.558  38.114080     0.6453      7.421   214.9451 1.2361e-01    13.6163      6.558      9.511    11.9229   999.5599 0.0000e+00
      6.687      0.000     1.8809     17.441     51.439  38.028408     0.6943      7.428   215.2157 1.2362e-01    13.5304      6.558      9.511    11.9332   999.5587 0.0000e+00
      6.687      0.000     1.8487     17.142     51.391  37.992290     0.7308      7.431   215.5697 1.2361e-01    13.5002      6.558      9.512    11.9456   999.5573 0.0000e+00
      6.687      0.001     1.8286     16.955     51.394  37.994776     0.7394      7.433   215.7836 1.2361e-01    13.5126      6.558      9.511    11.9548   999.5562 0.0000e+00
      6.687      0.001     1.8211     16.886     51.394  37.994982     0.7387      7.433   215.8226 1.2365e-01    13.5163      6.558      9.512    11.9610   999.5555 0.0000e+00
      6.687 -9.990e-29 -9.990e-29 -9.990e-29 -9.990e-29 -9.990e-29 -9.990e-29 -9.990e-29 -9.990e-29 1.2363e-01 -9.990e-29      6.558      9.511    11.9644   999.5550 0.0000e+00
      6.688 -9.990e-29 -9.990e-29 -9.990e-29 -9.990e-29 -9.990e-29 -9.990e-29 -9.990e-29 -9.990e-29 1.2357e-01 -9.990e-29      6.559      9.512    11.9604   999.5555 0.0000e+00
      6.688 -9.990e-29 -9.990e-29 -9.990e-29 -9.990e-29 -9.990e-29 -9.990e-29 -9.990e-29 -9.990e-29 1.2354e-01 -9.990e-29      6.559      9.513    11.9600   999.5556 0.0000e+00
      6.688 -9.990e-29 -9.990e-29 -9.990e-29 -9.990e-29 -9.990e-29 -9.990e-29 -9.990e-29 -9.990e-29 1.2354e-01 -9.990e-29      6.559      9.513    11.9638   999.5551 0.0000e+00
