* Sea-Bird SBE19plus  Data File:
* FileName = C:\R\Reservoirs\Data\DataNotYetUploadedToEDI\Raw_CTD\RawDownloads\081924_fcr50_S7809_0005.hex
* Software version 2.8.0.119
* Temperature SN = 7809
* Conductivity SN = 7809
* System UpLoad Time = Aug 20 2024 14:06:03
* <ApplicationData>
* <Seaterm232>
* <SoftwareVersion>2.8.0.119</SoftwareVersion>
* <BuildDate>07-Nov-2018</BuildDate>
* </Seaterm232>
* </ApplicationData>
* <InstrumentState>
* <HardwareData DeviceType='SBE19plus' SerialNumber='01907809'>
*
*    <Manufacturer>Sea-Bird Electronics, Inc.</Manufacturer>
*
*    <FirmwareVersion>3.1.8</FirmwareVersion>
*
*    <FirmwareDate>Mar  9 2016 16:22:29</FirmwareDate>
*
*    <CommandSetVersion>1.4</CommandSetVersion>
*
*    <PCBAssembly PCBSerialNum='120721' AssemblyNum='41054J'/>
*
*    <PCBAssembly PCBSerialNum='120715' AssemblyNum='41967A'/>
*
*    <PCBAssembly PCBSerialNum='116699' AssemblyNum='41606'/>
*
*    <PCBAssembly PCBSerialNum='120719' AssemblyNum='41059D'/>
*
*    <MfgDate>28-Apr-2017</MfgDate>
*
*    <InternalSensors>
*
*       <Sensor id='Main Temperature'>
*
*          <type>temperature0</type>
*
*          <SerialNumber>01907809</SerialNumber>
*
*       </Sensor>
*
*       <Sensor id='Main Conductivity'>
*
*          <type>conductivity-0</type>
*
*          <SerialNumber>01907809</SerialNumber>
*
*       </Sensor>
*
*       <Sensor id='Main Pressure'>
*
*          <type>strain-0</type>
*
*          <SerialNumber>10586018</SerialNumber>
*
*       </Sensor>
*
*    </InternalSensors>
*
*    <ExternalSensors>
*
*       <Sensor id='volt 0'>
*
*          <type>pH</type>
*
*          <SerialNumber>27-0363</SerialNumber>
*
*       </Sensor>
*
*       <Sensor id='volt 1'>
*
*          <type>ORP</type>
*
*          <SerialNumber>27-0363</SerialNumber>
*
*       </Sensor>
*
*       <Sensor id='volt 2'>
*
*          <type>OXY</type>
*
*          <SerialNumber>43-0434</SerialNumber>
*
*       </Sensor>
*
*       <Sensor id='volt 3'>
*
*          <type>PAR</type>
*
*          <SerialNumber>1122</SerialNumber>
*
*       </Sensor>
*
*       <Sensor id='volt 4'>
*
*          <type>ECO AFL/FL</type>
*
*          <SerialNumber>FLNTURT-2496</SerialNumber>
*
*       </Sensor>
*
*       <Sensor id='volt 5'>
*
*          <type>ECO-NTU</type>
*
*          <SerialNumber>FLNTURT-2496</SerialNumber>
*
*       </Sensor>
*
*       <Sensor id='serial'>
*
*          <type>not assigned</type>
*
*          <SerialNumber>not assigned</SerialNumber>
*
*       </Sensor>
*
*    </ExternalSensors>
*
* </HardwareData>
* <StatusData DeviceType='SBE19plus' SerialNumber='01907809'>
*
*    <DateTime>2024-08-20T14:03:12</DateTime>
*
*    <LoggingState>not logging</LoggingState>
*
*    <EventSummary numEvents='0'/>
*
*    <Power>
*
*       <vMain>12.4</vMain>
*
*       <vLith>8.3</vLith>
*
*       <iMain>63.1</iMain>
*
*       <iPump>55.3</iPump>
*
*       <iExt01>20.9</iExt01>
*
*       <iExt2345>39.8</iExt2345>
*
*    </Power>
*
*    <MemorySummary>
*
*       <Bytes>194235</Bytes>
*
*       <Samples>8445</Samples>
*
*       <SamplesFree>2852343</SamplesFree>
*
*       <SampleLength>23</SampleLength>
*
*       <Profiles>7</Profiles>
*
*    </MemorySummary>
*
* </StatusData>
* <ConfigurationData DeviceType='SBE19plus' SerialNumber='01907809'>
*
*    <ProfileMode>
*
*       <ScansToAverage>1</ScansToAverage>
*
*       <MinimumCondFreq>0</MinimumCondFreq>
*
*       <PumpDelay>45</PumpDelay>
*
*       <AutoRun>no</AutoRun>
*
*       <IgnoreSwitch>no</IgnoreSwitch>
*
*    </ProfileMode>
*
*    <Battery>
*
*       <Type>alkaline</Type>
*
*       <CutOff>7.5</CutOff>
*
*    </Battery>
*
*    <DataChannels>
*
*       <ExtVolt0>yes</ExtVolt0>
*
*       <ExtVolt1>yes</ExtVolt1>
*
*       <ExtVolt2>yes</ExtVolt2>
*
*       <ExtVolt3>yes</ExtVolt3>
*
*       <ExtVolt4>yes</ExtVolt4>
*
*       <ExtVolt5>yes</ExtVolt5>
*
*       <SBE38>no</SBE38>
*
*       <WETLABS>no</WETLABS>
*
*       <OPTODE>no</OPTODE>
*
*       <SBE63>no</SBE63>
*
*       <SeaFET>no</SeaFET>
*
*       <GTD>no</GTD>
*
*    </DataChannels>
*
*    <EchoCharacters>yes</EchoCharacters>
*
*    <OutputExecutedTag>yes</OutputExecutedTag>
*
*    <OutputFormat>raw HEX</OutputFormat>
*
* </ConfigurationData>
* <CalibrationCoefficients DeviceType='SBE19plus' SerialNumber='01907809'>
*
*    <Calibration format='TEMP1' id='Main Temperature'>
*
*       <SerialNum>01907809</SerialNum>
*
*       <CalDate>31-Jan-23</CalDate>
*
*       <TA0>1.218232e-03</TA0>
*
*       <TA1>2.815090e-04</TA1>
*
*       <TA2>-1.578887e-06</TA2>
*
*       <TA3>1.972343e-07</TA3>
*
*       <TOFFSET>0.000000e+00</TOFFSET>
*
*    </Calibration>
*
*    <Calibration format='WBCOND0' id='Main Conductivity'>
*
*       <SerialNum>01907809</SerialNum>
*
*       <CalDate>31-Jan-23</CalDate>
*
*       <G>-1.005652e+00</G>
*
*       <H>1.267963e-01</H>
*
*       <I>-1.561708e-04</I>
*
*       <J>2.645944e-05</J>
*
*       <CPCOR>-9.570000e-08</CPCOR>
*
*       <CTCOR>3.250000e-06</CTCOR>
*
*       <CSLOPE>1.000000e+00</CSLOPE>
*
*    </Calibration>
*
*    <Calibration format='STRAIN0' id='Main Pressure'>
*
*       <SerialNum>10586018</SerialNum>
*
*       <CalDate>20-Jan-23</CalDate>
*
*       <PA0>4.416439e-02</PA0>
*
*       <PA1>4.850502e-04</PA1>
*
*       <PA2>-3.090426e-12</PA2>
*
*       <PTCA0>5.254757e+05</PTCA0>
*
*       <PTCA1>1.050255e+01</PTCA1>
*
*       <PTCA2>-2.922435e-01</PTCA2>
*
*       <PTCB0>2.516687e+01</PTCB0>
*
*       <PTCB1>3.750000e-04</PTCB1>
*
*       <PTCB2>0.000000e+00</PTCB2>
*
*       <PTEMPA0>-5.470820e+01</PTEMPA0>
*
*       <PTEMPA1>5.485421e+01</PTEMPA1>
*
*       <PTEMPA2>-3.446578e-01</PTEMPA2>
*
*       <POFFSET>8.500000e-01</POFFSET>
*
*       <PRANGE>1.600000e+02</PRANGE>
*
*    </Calibration>
*
*    <Calibration format='VOLT0' id='Volt 0'>
*
*       <OFFSET>-4.920000e-02</OFFSET>
*
*       <SLOPE>1.248122e+00</SLOPE>
*
*    </Calibration>
*
*    <Calibration format='VOLT0' id='Volt 1'>
*
*       <OFFSET>-4.784000e-02</OFFSET>
*
*       <SLOPE>1.248871e+00</SLOPE>
*
*    </Calibration>
*
*    <Calibration format='VOLT0' id='Volt 2'>
*
*       <OFFSET>-4.864632e-02</OFFSET>
*
*       <SLOPE>1.248714e+00</SLOPE>
*
*    </Calibration>
*
*    <Calibration format='VOLT0' id='Volt 3'>
*
*       <OFFSET>-4.743790e-02</OFFSET>
*
*       <SLOPE>1.248571e+00</SLOPE>
*
*    </Calibration>
*
*    <Calibration format='VOLT0' id='Volt 4'>
*
*       <OFFSET>-4.671263e-02</OFFSET>
*
*       <SLOPE>1.248951e+00</SLOPE>
*
*    </Calibration>
*
*    <Calibration format='VOLT0' id='Volt 5'>
*
*       <OFFSET>-4.871053e-02</OFFSET>
*
*       <SLOPE>1.249136e+00</SLOPE>
*
*    </Calibration>
*
*    <Calibration format='FREQ0' id='external frequency channel'>
*
*       <EXTFREQSF>1.000014e+00</EXTFREQSF>
*
*    </Calibration>
*
* </CalibrationCoefficients>
* <EventCounters DeviceType='SBE19plus' SerialNumber='01907809'>
*
*    <EventSummary numEvents='0'/>
*
* </EventCounters></InstrumentState>
* <Headers>
*
* cast   5 19 Aug 2024 12:16:59 samples 4151 to 5217, avg = 1, stop = mag switch
*
# nquan = 15
# nvalues = 775                         
# units = specified
# name 0 = depFM: Depth [fresh water, m]
# name 1 = dz/dtM: Descent Rate [m/s]
# name 2 = sbeox0Mg/L: Oxygen, SBE 43 [mg/l]
# name 3 = sbeox0PS: Oxygen, SBE 43 [% saturation]
# name 4 = specc: Specific Conductance [uS/cm]
# name 5 = c0uS/cm: Conductivity [uS/cm]
# name 6 = flECO-AFL: Fluorescence, WET Labs ECO-AFL/FL [mg/m^3]
# name 7 = ph: pH
# name 8 = orp: Oxidation Reduction Potential [mV]
# name 9 = par/sat/log: PAR/Logarithmic, Satlantic
# name 10 = turbWETntu0: Turbidity, WET Labs ECO [NTU]
# name 11 = prdM: Pressure, Strain Gauge [db]
# name 12 = prdE: Pressure, Strain Gauge [psi]
# name 13 = tv290C: Temperature [ITS-90, deg C]
# name 14 = flag:  0.000e+00
# span 0 =     -0.709,      3.221       
# span 1 =     -0.010,      0.123       
# span 2 =     0.1138,     7.8684       
# span 3 =      1.254,     95.733       
# span 4 =      1.620,    108.654       
# span 5 =   1.585550,  93.592346       
# span 6 =    -0.5802,    20.1577       
# span 7 =      7.185,      7.594       
# span 8 =   -34.8298,  1101.5514       
# span 9 = 6.4932e+00, 2.3613e+03       
# span 10 =    -6.3667,    84.9229      
# span 11 =     -0.696,      3.160      
# span 12 =     -1.010,      4.583      
# span 13 =    17.9509,    25.3528      
# span 14 = 0.0000e+00, 0.0000e+00      
# interval = seconds: 0.25
# start_time = Aug 19 2024 12:16:59 [Instrument's time stamp, header]
# bad_flag = -9.990e-29
# <Sensors count="9" >
#   <sensor Channel="1" >
#     <!-- Count, Temperature -->
#     <TemperatureSensor SensorID="58" >
#       <SerialNumber>7809</SerialNumber>
#       <CalibrationDate>31-Jan-23</CalibrationDate>
#       <A0>1.21823180e-003</A0>
#       <A1>2.81508993e-004</A1>
#       <A2>-1.57888696e-006</A2>
#       <A3>1.97234302e-007</A3>
#       <Slope>1.00000000</Slope>
#       <Offset>0.0000</Offset>
#     </TemperatureSensor>
#   </sensor>
#   <sensor Channel="2" >
#     <!-- Frequency 0, Conductivity -->
#     <ConductivitySensor SensorID="3" >
#       <SerialNumber>7809</SerialNumber>
#       <CalibrationDate>31-Jan-23</CalibrationDate>
#       <UseG_J>1</UseG_J>
#       <!-- Cell const and series R are applicable only for wide range sensors. -->
#       <SeriesR>0.0000</SeriesR>
#       <CellConst>2000.0000</CellConst>
#       <ConductivityType>0</ConductivityType>
#       <Coefficients equation="0" >
#         <A>0.00000000e+000</A>
#         <B>0.00000000e+000</B>
#         <C>0.00000000e+000</C>
#         <D>0.00000000e+000</D>
#         <M>0.0</M>
#         <CPcor>-9.57000000e-008</CPcor>
#       </Coefficients>
#       <Coefficients equation="1" >
#         <G>-1.00565232e+000</G>
#         <H>1.26796307e-001</H>
#         <I>-1.56170788e-004</I>
#         <J>2.64594368e-005</J>
#         <CPcor>-9.57000000e-008</CPcor>
#         <CTcor>3.2500e-006</CTcor>
#         <!-- WBOTC not applicable unless ConductivityType = 1. -->
#         <WBOTC>0.00000000e+000</WBOTC>
#       </Coefficients>
#       <Slope>1.00000000</Slope>
#       <Offset>0.00000</Offset>
#     </ConductivitySensor>
#   </sensor>
#   <sensor Channel="3" >
#     <!-- Count, Pressure, Strain Gauge -->
#     <PressureSensor SensorID="46" >
#       <SerialNumber>7809</SerialNumber>
#       <CalibrationDate>20-Jan-23</CalibrationDate>
#       <PA0>4.41643944e-002</PA0>
#       <PA1>4.85050239e-004</PA1>
#       <PA2>-3.09042623e-012</PA2>
#       <PTEMPA0>-5.47081996e+001</PTEMPA0>
#       <PTEMPA1>5.48542136e+001</PTEMPA1>
#       <PTEMPA2>-3.44657813e-001</PTEMPA2>
#       <PTCA0>5.25475731e+005</PTCA0>
#       <PTCA1>1.05025484e+001</PTCA1>
#       <PTCA2>-2.92243463e-001</PTCA2>
#       <PTCB0>2.51668750e+001</PTCB0>
#       <PTCB1>3.75000000e-004</PTCB1>
#       <PTCB2>0.00000000e+000</PTCB2>
#       <Offset>0.000000</Offset>
#     </PressureSensor>
#   </sensor>
#   <sensor Channel="4" >
#     <!-- A/D voltage 0, Oxygen, SBE 43 -->
#     <OxygenSensor SensorID="38" >
#       <SerialNumber>0434</SerialNumber>
#       <CalibrationDate>18-Feb-23</CalibrationDate>
#       <Use2007Equation>1</Use2007Equation>
#       <CalibrationCoefficients equation="0" >
#         <!-- Coefficients for Owens-Millard equation. -->
#         <Boc>0.0000</Boc>
#         <Soc>0.0000e+000</Soc>
#         <offset>0.0000</offset>
#         <Pcor>0.00e+000</Pcor>
#         <Tcor>0.0000</Tcor>
#         <Tau>0.0</Tau>
#       </CalibrationCoefficients>
#       <CalibrationCoefficients equation="1" >
#         <!-- Coefficients for Sea-Bird equation - SBE calibration in 2007 and later. -->
#         <Soc>5.1878e-001</Soc>
#         <offset>-0.5046</offset>
#         <A>-4.2788e-003</A>
#         <B> 1.5372e-004</B>
#         <C>-2.1853e-006</C>
#         <D0> 2.5826e+000</D0>
#         <D1> 1.92634e-004</D1>
#         <D2>-4.64803e-002</D2>
#         <E> 3.6000e-002</E>
#         <Tau20> 0.9900</Tau20>
#         <H1>-3.3000e-002</H1>
#         <H2> 5.0000e+003</H2>
#         <H3> 1.4500e+003</H3>
#       </CalibrationCoefficients>
#     </OxygenSensor>
#   </sensor>
#   <sensor Channel="5" >
#     <!-- A/D voltage 1, PAR/Logarithmic, Satlantic -->
#     <PARLog_SatlanticSensor SensorID="76" >
#       <SerialNumber>1122</SerialNumber>
#       <CalibrationDate>08-Sep-2021</CalibrationDate>
#       <a0>9.6751e-001</a0>
#       <a1>8.0992e-001</a1>
#       <Im>1.3589e+000</Im>
#       <Multiplier>1.0000e+000</Multiplier>
#     </PARLog_SatlanticSensor>
#   </sensor>
#   <sensor Channel="6" >
#     <!-- A/D voltage 2, pH -->
#     <pH_Sensor SensorID="43" >
#       <SerialNumber>0363</SerialNumber>
#       <CalibrationDate>28-Feb-23</CalibrationDate>
#       <Slope>4.7364</Slope>
#       <Offset>2.5433</Offset>
#     </pH_Sensor>
#   </sensor>
#   <sensor Channel="7" >
#     <!-- A/D voltage 3, Oxidation Reduction Potential -->
#     <OxidationReductionPotentialSensor SensorID="41" >
#       <SerialNumber>0363</SerialNumber>
#       <CalibrationDate>28-Feb-23</CalibrationDate>
#       <B>2.499480</B>
#       <M>-0.496195</M>
#       <Offset>0.0</Offset>
#     </OxidationReductionPotentialSensor>
#   </sensor>
#   <sensor Channel="8" >
#     <!-- A/D voltage 4, Fluorometer, WET Labs ECO-AFL/FL -->
#     <FluoroWetlabECO_AFL_FL_Sensor SensorID="20" >
#       <SerialNumber>FLNTURT-2496</SerialNumber>
#       <CalibrationDate>02-Sep-2021</CalibrationDate>
#       <ScaleFactor>4.80000000e+001</ScaleFactor>
#       <!-- Dark output -->
#       <Vblank>0.0550</Vblank>
#     </FluoroWetlabECO_AFL_FL_Sensor>
#   </sensor>
#   <sensor Channel="9" >
#     <!-- A/D voltage 5, Turbidity Meter, WET Labs, ECO-NTU -->
#     <TurbidityMeter SensorID="67" >
#       <SerialNumber>FLNTURT--2496</SerialNumber>
#       <CalibrationDate>02-Sep-2021</CalibrationDate>
#       <ScaleFactor>197.000000</ScaleFactor>
#       <!-- Dark output -->
#       <DarkVoltage>0.070000</DarkVoltage>
#     </TurbidityMeter>
#   </sensor>
# </Sensors>
# datcnv_date = Aug 20 2024 14:15:20, 7.26.7.129 [datcnv_vars = 14]
# datcnv_in = C:\R\Reservoirs\Data\DataNotYetUploadedToEDI\Raw_CTD\RawDownloads\081924_fcr20_S7809004.hex C:\R\Reservoirs\Data\DataNotYetUploadedToEDI\Raw_CTD\RawDownloads\SBE19plusV2_7809_start20230701.xmlcon
# datcnv_skipover = 0
# datcnv_ox_hysteresis_correction = yes
# datcnv_ox_tau_correction = yes
# filter_date = Aug 20 2024 14:16:22, 7.26.7.129
# filter_in = C:\R\Reservoirs\Data\DataNotYetUploadedToEDI\Raw_CTD\RawDownloads\081924_fcr20_S7809004.cnv
# filter_low_pass_tc_A = 0.030
# filter_low_pass_tc_B = 0.150
# filter_low_pass_A_vars = sbeox0Mg/L prdM prdE tv290C
# filter_low_pass_B_vars = depFM dz/dtM sbeox0PS specc c0uS/cm flECO-AFL ph orp par/sat/log turbWETntu0
# alignctd_date = Aug 20 2024 14:17:23, 7.26.7.129
# alignctd_in = C:\R\Reservoirs\Data\DataNotYetUploadedToEDI\Raw_CTD\RawDownloads\081924_fcr20_S7809004.cnv
# alignctd_adv = dz/dtM 1.000, sbeox0PS 1.000, specc 1.000, c0uS/cm 1.000, flECO-AFL 1.000, ph 1.000, orp 1.000, turbWETntu0 1.000                                                                                                   
# file_type = ascii
*END*
     -0.709 -5.159e-13     7.7575     92.192      2.365   2.315587    -0.1170      7.411   238.5378 5.3659e+02     3.0802     -0.696     -1.009    23.9554 0.0000e+00
     -0.709 -2.814e-13     7.7566     92.254      2.263   2.215795    -0.1139      7.411   217.1356 4.2967e+02     2.9816     -0.695     -1.009    23.9546 0.0000e+00
     -0.709 -2.558e-14     7.7585     92.285      2.034   1.991766    -0.1010      7.425   127.0592 3.5585e+02     2.2160     -0.696     -1.009    23.9534 0.0000e+00
     -0.709 -2.325e-15     7.7623     92.250      1.862   1.823869    -0.0693      7.460   -34.8298 3.2420e+02     0.7570     -0.695     -1.009    23.9524 0.0000e+00
     -0.709 -2.114e-16     7.7666     92.175      1.807   1.769334    -0.0470      7.439    26.5661 2.8924e+02    -0.1066     -0.696     -1.010    23.9511 0.0000e+00
     -0.709 -1.922e-17     7.7734     92.099      1.813   1.775788    -0.0563      7.310   473.1799 2.4498e+02    -0.2668     -0.696     -1.009    23.9501 0.0000e+00
     -0.709 -1.747e-18     7.7781     92.034      1.813   1.775217    -0.0566      7.195   929.8162 2.1228e+02    -0.3261     -0.695     -1.009    23.9489 0.0000e+00
     -0.709 -1.588e-19     7.7739     91.996      1.800   1.762427    -0.0596      7.185  1101.5514 2.2196e+02    -0.7887     -0.695     -1.009    23.9482 0.0000e+00
     -0.709 -1.443e-20     7.7657     91.972      1.785   1.747833    -0.0922      7.274   966.1497 2.6597e+02    -1.6932     -0.695     -1.009    23.9486 0.0000e+00
     -0.709 -1.192e-21     7.7598     91.947      1.762   1.725452    -0.1098      7.384   698.6537 3.0783e+02    -2.1420     -0.695     -1.008    23.9493 0.0000e+00
     -0.709 1.2086e-21     7.7530     91.953      1.782   1.745192    -0.1063      7.431   527.5275 3.3922e+02    -2.0140     -0.696     -1.009    23.9502 0.0000e+00
     -0.709 1.4597e-20     7.7499     91.971      1.899   1.859818    -0.1325      7.436   416.4443 3.6537e+02    -1.1011     -0.695     -1.008    23.9508 0.0000e+00
     -0.709 1.6068e-19     7.7502     91.977      2.079   2.034566    -0.1767      7.433   312.5715 3.8410e+02     0.4922     -0.696     -1.009    23.9506 0.0000e+00
     -0.709 1.7675e-18     7.7449     92.001      2.259   2.211152    -0.1836      7.417   266.7400 4.0061e+02     1.4003     -0.695     -1.009    23.9491 0.0000e+00
     -0.709 1.9443e-17     7.7475     92.030      2.399   2.347980    -0.1655      7.389   280.6225 4.1607e+02     1.3732     -0.695     -1.008    23.9464 0.0000e+00
     -0.709 2.1387e-16     7.7514     92.038      2.410   2.358735    -0.1580      7.362   313.4220 4.2935e+02    -0.6213     -0.696     -1.009    23.9435 0.0000e+00
     -0.709 2.3526e-15     7.7488     92.047      2.327   2.277837    -0.1674      7.348   330.4294 4.5759e+02    -4.3374     -0.696     -1.009    23.9414 0.0000e+00
     -0.709 2.5878e-14     7.7527     92.067      2.241   2.193325    -0.1793      7.344   332.3338 5.0694e+02    -6.3241     -0.696     -1.009    23.9399 0.0000e+00
     -0.709 2.8466e-13     7.7568     92.075      2.143   2.097020    -0.1849      7.342   333.2633 5.7376e+02    -6.3667     -0.696     -1.009    23.9384 0.0000e+00
     -0.709 3.1313e-12     7.7561     92.075      2.044   2.000228    -0.2854      7.341   333.4083 6.5723e+02    -5.6381     -0.695     -1.009    23.9373 0.0000e+00
     -0.709 3.4444e-11     7.7562     92.073      1.951   1.909822    -0.4784      7.340   330.7313 7.1950e+02    -4.3465     -0.696     -1.009    23.9363 0.0000e+00
     -0.709 3.7889e-10     7.7602     92.064      1.867   1.827383    -0.5802      7.338   326.9655 7.5010e+02    -3.5939     -0.696     -1.009    23.9352 0.0000e+00
     -0.709 4.1678e-09     7.7599     92.060      1.802   1.763570    -0.5750      7.336   323.0674 7.8801e+02    -3.5077     -0.696     -1.009    23.9345 0.0000e+00
     -0.709 4.5845e-08     7.7599     92.059      1.745   1.708353    -0.4985      7.336   318.8759 8.4214e+02    -3.4404     -0.696     -1.009    23.9335 0.0000e+00
     -0.709 5.0430e-07     7.7608     92.045      1.703   1.666483     0.3525      7.336   314.1425 9.0327e+02    -1.8921     -0.696     -1.010    23.9320 0.0000e+00
     -0.709      0.000     7.7589     92.033      1.673   1.637370     1.9241      7.335   308.5990 9.6495e+02     1.0373     -0.696     -1.009    23.9305 0.0000e+00
     -0.709      0.000     7.7593     92.047      1.645   1.609721     2.7729      7.333   303.1291 1.0314e+03     2.6009     -0.696     -1.009    23.9288 0.0000e+00
     -0.709      0.001     7.7599     92.066      1.620   1.585550     2.8411      7.331   298.2536 1.1009e+03     2.7006     -0.696     -1.009    23.9280 0.0000e+00
     -0.709      0.002     7.7590     92.083      1.633   1.598491     2.8990      7.329   284.5810 1.1499e+03     3.3356     -0.696     -1.009    23.9258 0.0000e+00
     -0.709      0.006     7.7557     92.122      1.737   1.702845     3.0146      7.326   261.1095 1.1913e+03     4.6426     -0.696     -1.010    23.9261 0.0000e+00
     -0.709      0.013     7.7597     92.205      2.440   2.403900     3.0903      7.322   249.4345 1.2350e+03     5.3861     -0.696     -1.009    23.9224 0.0000e+00
     -0.707      0.022     7.7610     92.324      4.032   3.993729     3.0989      7.312   291.7524 1.2506e+03     5.4249     -0.694     -1.006    23.9244 0.0000e+00
     -0.702      0.031     7.7626     92.399      8.426   8.382868     3.1932      7.283   315.3868 1.2583e+03     5.3507     -0.691     -1.002    23.9134 0.0000e+00
     -0.691      0.040     7.7638     92.400     16.232  16.184671     3.4064      7.262   235.7787 1.3035e+03     5.2744     -0.680     -0.986    23.9293 0.0000e+00
     -0.675      0.050     7.7391     92.363     25.861  25.823047     3.5382      7.288   168.6166 1.3659e+03     5.2195     -0.660     -0.958    24.1338 0.0000e+00
     -0.661      0.062     7.7098     92.317     35.402  35.389793     3.5460      7.337   163.0845 1.4011e+03     5.2001     -0.646     -0.938    24.4442 0.0000e+00
     -0.649      0.073     7.6831     92.273     40.172  40.196398     3.4930      7.368   163.6420 1.4256e+03     5.3126     -0.638     -0.926    24.6753 0.0000e+00
     -0.633      0.082     7.6605     92.221     40.734  40.802952     3.4128      7.377   163.7427 1.5045e+03     5.5553     -0.625     -0.906    24.8206 0.0000e+00
     -0.608      0.087     7.6445     92.181     40.835  40.946639     3.3843      7.373   163.6130 1.6394e+03     5.7095     -0.600     -0.870    24.9100 0.0000e+00
     -0.576      0.087     7.6309     92.178     40.704  40.854870     3.3986      7.362   163.9674 1.7583e+03     5.7084     -0.564     -0.818    24.9687 0.0000e+00
     -0.547      0.082     7.6216     92.223     40.334  40.518474     3.3939      7.349   163.6395 1.8258e+03     5.6440     -0.534     -0.774    25.0217 0.0000e+00
     -0.524      0.072     7.6077     92.307     40.029  40.242947     3.3594      7.335   162.5743 1.8363e+03     5.5800     -0.512     -0.743    25.0797 0.0000e+00
     -0.509      0.061     7.5963     92.416     39.951  40.189013     3.3235      7.318   161.8429 1.7929e+03     5.5828     -0.496     -0.719    25.1321 0.0000e+00
     -0.501      0.053     7.5895     92.546     40.004  40.247186     3.3099      7.300   161.6792 1.7427e+03     5.6441     -0.490     -0.711    25.1790 0.0000e+00
     -0.496      0.050     7.5866     92.695     40.209  40.438619     3.3189      7.284   161.7132 1.7300e+03     5.6727     -0.487     -0.707    25.2245 0.0000e+00
     -0.487      0.054     7.5897     92.890     40.507  40.726617     3.3665      7.271   161.7372 1.7680e+03     5.5869     -0.480     -0.696    25.2605 0.0000e+00
     -0.473      0.063     7.5920     93.094     40.776  41.000373     3.4436      7.259   161.5392 1.8561e+03     5.4599     -0.465     -0.675    25.3003 0.0000e+00
     -0.453      0.075     7.6029     93.234     40.972  41.209988     3.4852      7.247   161.2989 1.9627e+03     5.4010     -0.444     -0.644    25.3118 0.0000e+00
     -0.430      0.089     7.6180     93.371     40.981  41.230175     3.4948      7.234   161.5842 2.0528e+03     5.3876     -0.423     -0.612    25.2741 0.0000e+00
     -0.406      0.100     7.6367     93.560     40.861  41.117532     3.5433      7.221   162.3218 2.1255e+03     5.4348     -0.399     -0.579    25.2560 0.0000e+00
     -0.380      0.109     7.6584     93.800     40.853  41.117359     3.6147      7.210   162.9907 2.1755e+03     5.5281     -0.374     -0.543    25.2671 0.0000e+00
     -0.350      0.117     7.6617     94.083     40.953  41.228102     3.6503      7.203   163.4767 2.1970e+03     5.6273     -0.346     -0.500    25.2836 0.0000e+00
     -0.316      0.122     7.6700     94.370     41.028  41.314149     3.6658      7.200   163.8102 2.2335e+03     5.6776     -0.308     -0.448    25.3008 0.0000e+00
     -0.283      0.123     7.6855     94.650     41.043  41.332699     3.7350      7.200   164.0967 2.3083e+03     5.6572     -0.278     -0.405    25.3075 0.0000e+00
     -0.251      0.118     7.7028     94.928     41.039  41.325465     3.8463      7.202   164.5326 2.3613e+03     5.6198     -0.247     -0.358    25.3161 0.0000e+00
     -0.217      0.106     7.7266     95.177     41.073  41.353616     3.8883      7.204   165.0362 2.3447e+03     5.5335     -0.210     -0.305    25.3304 0.0000e+00
     -0.187      0.089     7.7481     95.380     41.142  41.419194     3.8772      7.205   165.2821 2.1952e+03     5.5362     -0.180     -0.262    25.3447 0.0000e+00
     -0.165      0.070     7.7690     95.553     41.210  41.483692     3.9116      7.208   165.2681 1.8726e+03     5.6182     -0.159     -0.231    25.3528 0.0000e+00
     -0.151      0.050     7.7943     95.679     41.233  41.498781     3.9877      7.212   165.2980 1.6246e+03     5.5686     -0.146     -0.212    25.3439 0.0000e+00
     -0.144      0.034     7.8179     95.733     41.220  41.474685     4.0318      7.216   165.5575 1.6608e+03     5.4826     -0.139     -0.202    25.3322 0.0000e+00
     -0.142      0.023     7.8323     95.704     41.204  41.446203     4.0281      7.217   165.9964 1.8028e+03     5.4321     -0.139     -0.200    25.3306 0.0000e+00
     -0.142      0.016     7.8491     95.640     41.178  41.408253     4.0762      7.217   166.3880 1.8468e+03     5.4374     -0.141     -0.204    25.3276 0.0000e+00
     -0.140      0.011     7.8606     95.586     41.175  41.396613     4.1894      7.217   166.5927 1.8293e+03     5.5120     -0.139     -0.203    25.3178 0.0000e+00
     -0.133      0.006     7.8684     95.506     41.216  41.432387     4.2558      7.218   166.6648 1.7911e+03     5.5135     -0.132     -0.191    25.3034 0.0000e+00
     -0.126      0.002     7.8668     95.397     41.247  41.459987     4.2718      7.220   166.7436 1.6949e+03     5.4561     -0.121     -0.175    25.2873 0.0000e+00
     -0.126     -0.001     7.8604     95.289     41.264  41.476454     4.2665      7.225   166.8571 1.6590e+03     5.4326     -0.120     -0.174    25.2717 0.0000e+00
     -0.133     -0.004     7.8614     95.174     41.290  41.504556     4.2585      7.230   166.9188 1.6853e+03     5.4688     -0.132     -0.190    25.2616 0.0000e+00
     -0.139     -0.008     7.8546     95.032     41.326  41.545899     4.2745      7.234   166.8863 1.6748e+03     5.6213     -0.140     -0.202    25.2562 0.0000e+00
     -0.140     -0.010     7.8446     94.837     41.370  41.595530     4.2939      7.239   166.8952 1.7142e+03     5.7723     -0.138     -0.200    25.2510 0.0000e+00
     -0.139     -0.007     7.8375     94.539     41.366  41.596912     4.3093      7.244   167.0272 1.7485e+03     5.7579     -0.135     -0.196    25.2489 0.0000e+00
     -0.141     -0.002     7.8271     93.913     41.327  41.562616     4.2525      7.248   167.1055 1.7109e+03     5.6188     -0.138     -0.200    25.2529 0.0000e+00
     -0.144      0.001     7.8164     92.649     41.320  41.561675     4.1325      7.252   167.0665 1.7051e+03     5.4901     -0.143     -0.207    25.2600 0.0000e+00
     -0.144      0.001     7.7981     90.724     41.339  41.585549     4.0811      7.254   166.9864 1.7251e+03     5.4316     -0.144     -0.207    25.2673 0.0000e+00
     -0.141      0.001     7.7792     88.412     41.348  41.597411     4.0896      7.257   166.9107 1.7523e+03     5.4235     -0.138     -0.200    25.2737 0.0000e+00
     -0.137      0.001     7.7410     86.016     41.327  41.578163     4.1008      7.260   166.9261 1.7757e+03     5.4265     -0.133     -0.192    25.2792 0.0000e+00
     -0.136      0.004     7.6354     83.755     41.229  41.479766     4.1084      7.259   167.0864 1.7832e+03     5.4002     -0.133     -0.193    25.2862 0.0000e+00
     -0.140      0.009     7.4668     81.907     41.049  41.296227     4.1157      7.256   167.2995 1.8372e+03     5.4127     -0.138     -0.199    25.2924 0.0000e+00
     -0.144      0.013     7.2652     80.701     40.956  41.199527     4.1227      7.255   167.4382 1.8425e+03     5.4412     -0.144     -0.208    25.2967 0.0000e+00
     -0.141      0.016     7.0657     80.098     41.020  41.262564     4.0342      7.258   167.4733 1.7133e+03     5.4372     -0.143     -0.208    25.2990 0.0000e+00
     -0.129      0.018     6.8702     79.897     41.118  41.360276     3.8538      7.261   167.4660 1.5705e+03     5.4323     -0.127     -0.183    25.2990 0.0000e+00
     -0.117      0.019     6.7091     79.854     41.186  41.428964     3.7472      7.264   167.4356 1.4560e+03     5.3821     -0.109     -0.159    25.2945 0.0000e+00
     -0.112      0.019     6.6147     79.781     41.215  41.458403     3.7278      7.267   167.4500 1.4162e+03     5.3763     -0.107     -0.156    25.2894 0.0000e+00
     -0.112      0.016     6.5703     79.511     41.219  41.462347     3.7859      7.271   167.5537 1.4349e+03     5.4645     -0.110     -0.159    25.2895 0.0000e+00
     -0.113      0.011     6.5626     78.894     41.235  41.476656     3.9244      7.276   167.5712 1.4109e+03     5.5265     -0.112     -0.163    25.2895 0.0000e+00
     -0.110      0.009     6.5635     77.958     41.264  41.504479     4.0129      7.280   167.4892 1.6220e+03     5.5114     -0.110     -0.160    25.2889 0.0000e+00
     -0.105      0.011     6.5612     76.856     41.304  41.544880     4.0229      7.281   167.5084 1.8990e+03     5.4533     -0.101     -0.147    25.2900 0.0000e+00
     -0.101      0.016     6.5465     75.801     41.343  41.584338     4.0128      7.281   167.6315 1.8095e+03     5.4046     -0.097     -0.140    25.2896 0.0000e+00
     -0.100      0.023     6.4934     74.999     41.360  41.600764     4.0573      7.282   167.6872 1.6494e+03     5.4686     -0.099     -0.144    25.2868 0.0000e+00
     -0.098      0.030     6.4121     74.463     41.378  41.616550     4.1781      7.284   167.6665 1.5489e+03     5.6459     -0.100     -0.145    25.2849 0.0000e+00
     -0.089      0.040     6.3162     74.063     41.412  41.648260     4.2582      7.285   167.7253 1.7164e+03     5.7036     -0.090     -0.130    25.2856 0.0000e+00
     -0.075      0.055     6.2202     73.720     41.435  41.666829     4.2595      7.285   167.7951 1.9276e+03     5.6202     -0.073     -0.106    25.2864 0.0000e+00
     -0.060      0.070     6.1553     73.494     41.428  41.650657     4.2110      7.286   167.8221 1.6863e+03     5.5602     -0.059     -0.086    25.2855 0.0000e+00
     -0.043      0.080     6.1174     73.662     41.429  41.643116     4.1294      7.288   167.9653 1.5478e+03     5.5241     -0.046     -0.067    25.2826 0.0000e+00
     -0.018      0.085     6.0863     74.446     41.431  41.639103     4.0799      7.291   168.2363 1.4995e+03     5.4908     -0.022     -0.032    25.2798 0.0000e+00
      0.014      0.083     6.0591     75.641     41.403  41.602126     4.0781      7.293   169.2056 1.1840e+03     5.4652      0.016      0.024    25.2755 0.0000e+00
      0.040      0.076     6.0320     76.855     41.391  41.576823     4.0492      7.293   177.6202 9.6402e+02     5.4199      0.044      0.063    25.2626 0.0000e+00
      0.058      0.065     6.0355     77.918     41.415  41.587008     3.9889      7.294   185.5729 9.1448e+02     5.4215      0.058      0.084    25.2506 0.0000e+00
      0.070      0.049     6.1099     78.815     41.436  41.598320     3.9654      7.297   178.7193 8.0964e+02     5.4848      0.071      0.103    25.2473 0.0000e+00
      0.080      0.031     6.2245     79.450     41.431  41.586647     3.9647      7.299   170.8117 7.3301e+02     5.5028      0.079      0.115    25.2373 0.0000e+00
      0.085      0.016     6.3300     79.682     41.425  41.572800     3.9978      7.301   170.0661 8.4185e+02     5.4677      0.085      0.123    25.2183 0.0000e+00
      0.087      0.006     6.4173     79.462     41.420  41.557810     4.0745      7.302   170.0484 9.3257e+02     5.4018      0.088      0.127    25.2000 0.0000e+00
      0.086     -0.001     6.4963     78.885     41.405  41.532320     4.1178      7.305   170.0814 8.7050e+02     5.3898      0.086      0.124    25.1868 0.0000e+00
      0.081     -0.003     6.5550     78.153     41.399  41.518465     4.1216      7.308   170.0351 9.6949e+02     5.4584      0.080      0.116    25.1809 0.0000e+00
      0.076     -0.002     6.5758     77.457     41.403  41.517205     4.0617      7.311   170.0054 1.1611e+03     5.4798      0.074      0.107    25.1740 0.0000e+00
      0.075      0.002     6.5572     76.900     41.407  41.517082     3.9344      7.315   170.0656 1.1221e+03     5.4431      0.072      0.104    25.1602 0.0000e+00
      0.078      0.007     6.5042     76.521     41.412  41.516967     3.8561      7.319   170.1607 9.9925e+02     5.4256      0.076      0.110    25.1461 0.0000e+00
      0.083      0.010     6.4388     76.271     41.417  41.515812     3.8394      7.322   170.3813 9.5821e+02     5.4380      0.082      0.118    25.1366 0.0000e+00
      0.088      0.011     6.3801     76.031     41.412  41.503111     3.8244      7.325   170.5809 9.1141e+02     5.4222      0.087      0.126    25.1323 0.0000e+00
      0.092      0.009     6.3325     75.747     41.406  41.490313     3.8234      7.328   170.5090 8.0329e+02     5.4066      0.092      0.132    25.1289 0.0000e+00
      0.094      0.005     6.3035     75.466     41.408  41.488008     3.8449      7.331   170.3731 7.1049e+02     5.4193      0.094      0.136    25.1220 0.0000e+00
      0.094      0.001     6.2888     75.245     41.400  41.475229     3.8507      7.334   170.3149 6.9081e+02     5.4054      0.093      0.135    25.1123 0.0000e+00
      0.091     -0.001     6.2722     75.133     41.391  41.462735     3.8433      7.337   170.2344 7.4092e+02     5.4094      0.090      0.130    25.1032 0.0000e+00
      0.089     -0.001     6.2466     75.157     41.395  41.463869     3.8813      7.340   170.2599 8.1520e+02     5.4336      0.086      0.126    25.0963 0.0000e+00
      0.089      0.000     6.2229     75.297     41.421  41.488941     3.9516      7.343   170.4517 8.1701e+02     5.4586      0.087      0.127    25.0905 0.0000e+00
      0.090      0.002     6.2039     75.503     41.445  41.512001     3.9774      7.347   170.6616 7.1791e+02     5.4722      0.089      0.129    25.0851 0.0000e+00
      0.092      0.002     6.1940     75.649     41.422  41.488816     3.9605      7.350   170.8182 6.6466e+02     5.4271      0.090      0.130    25.0801 0.0000e+00
      0.095      0.002     6.1975     75.555     41.397  41.462484     3.9302      7.352   170.8825 7.1806e+02     5.3919      0.093      0.134    25.0769 0.0000e+00
      0.096      0.001     6.2099     75.140     41.383  41.447494     3.8945      7.354   170.9228 7.4656e+02     5.4228      0.095      0.137    25.0756 0.0000e+00
      0.095     -0.001     6.2302     74.480     41.371  41.434497     3.8780      7.356   171.0471 7.2261e+02     5.4588      0.094      0.137    25.0750 0.0000e+00
      0.094     -0.001     6.2494     73.738     41.368  41.432273     3.8720      7.360   171.1808 7.2348e+02     5.4504      0.092      0.135    25.0740 0.0000e+00
      0.091     -0.001     6.2443     73.066     41.356  41.420608     3.8136      7.363   171.1631 7.1483e+02     5.4239      0.089      0.129    25.0728 0.0000e+00
      0.090      0.001     6.2073     72.530     41.355  41.420389     3.7126      7.367   171.0911 6.9998e+02     5.4121      0.088      0.127    25.0715 0.0000e+00
      0.090      0.004     6.1480     72.170     41.365  41.429619     3.6746      7.370   171.2563 7.5897e+02     5.4447      0.089      0.129    25.0710 0.0000e+00
      0.091      0.008     6.0809     71.978     41.342  41.405282     3.6880      7.372   171.5258 8.8423e+02     5.5105      0.090      0.130    25.0715 0.0000e+00
      0.094      0.011     6.0253     71.876     41.317  41.379990     3.6827      7.375   171.6825 1.0224e+03     5.5235      0.092      0.134    25.0723 0.0000e+00
      0.099      0.011     5.9791     71.765     41.316  41.377682     3.6678      7.376   171.8605 1.0810e+03     5.4657      0.096      0.140    25.0724 0.0000e+00
      0.105      0.009     5.9491     71.540     41.317  41.377377     3.6581      7.375   172.0435 1.0352e+03     5.4270      0.103      0.149    25.0715 0.0000e+00
      0.110      0.005     5.9368     71.160     41.317  41.376295     3.6652      7.375   172.1735 1.0124e+03     5.4653      0.110      0.159    25.0710 0.0000e+00
      0.111      0.000     5.9305     70.673     41.307  41.364606     3.6455      7.376   172.2285 1.2320e+03     5.5187      0.109      0.159    25.0703 0.0000e+00
      0.108     -0.005     5.9255     70.129     41.307  41.362971     3.5699      7.377   172.1926 1.4525e+03     5.4918      0.106      0.153    25.0684 0.0000e+00
      0.104     -0.008     5.9092     69.574     41.302  41.356522     3.5086      7.378   172.2552 1.3320e+03     5.4143      0.103      0.148    25.0662 0.0000e+00
      0.099     -0.008     5.8744     69.034     41.233  41.286642     3.4879      7.380   172.3829 1.1720e+03     5.4349      0.097      0.141    25.0647 0.0000e+00
      0.095     -0.007     5.8343     68.491     41.164  41.216186     3.4943      7.383   172.3601 1.0915e+03     5.5356      0.092      0.132    25.0634 0.0000e+00
      0.094     -0.006     5.7875     67.916     41.152  41.202768     3.5100      7.386   172.3234 1.0308e+03     5.5735      0.091      0.132    25.0618 0.0000e+00
      0.097     -0.006     5.7409     67.279     41.138  41.187863     3.5114      7.389   172.4551 1.0374e+03     5.5522      0.096      0.139    25.0605 0.0000e+00
      0.099     -0.007     5.6979     66.627     41.114  41.162899     3.5024      7.390   172.5761 1.1086e+03     5.4829      0.099      0.143    25.0596 0.0000e+00
      0.096     -0.008     5.6530     66.023     41.109  41.154799     3.4937      7.390   172.5816 1.1868e+03     5.4184      0.095      0.138    25.0576 0.0000e+00
      0.091     -0.009     5.6084     65.460     41.113  41.153383     3.4979      7.392   172.5225 1.1933e+03     5.4209      0.088      0.128    25.0558 0.0000e+00
      0.086     -0.009     5.5536     64.900     41.112  41.145775     3.5114      7.396   172.4637 1.1168e+03     5.4453      0.082      0.120    25.0548 0.0000e+00
      0.083     -0.006     5.4969     64.334     41.098  41.126267     3.5158      7.399   172.4727 1.0071e+03     5.4746      0.080      0.117    25.0532 0.0000e+00
      0.081      0.001     5.4485     63.786     41.085  41.107900     3.5096      7.402   172.4598 1.1614e+03     5.4679      0.078      0.114    25.0501 0.0000e+00
      0.081      0.007     5.4040     63.273     41.096  41.114080     3.5607      7.405   172.3936 1.4260e+03     5.4328      0.077      0.112    25.0442 0.0000e+00
      0.085      0.012     5.3591     62.788     41.125  41.137521     3.6766      7.408   172.3603 1.4676e+03     5.4248      0.082      0.118    25.0358 0.0000e+00
      0.093      0.013     5.3118     62.313     41.134  41.137460     3.7367      7.412   172.4017 1.4004e+03     5.4058      0.091      0.132    25.0278 0.0000e+00
      0.100      0.012     5.2666     61.845     41.119  41.113328     3.7377      7.415   172.3773 1.2669e+03     5.3741      0.100      0.144    25.0211 0.0000e+00
      0.102      0.011     5.2252     61.434     41.114  41.099597     3.7225      7.416   172.3243 1.3074e+03     5.3485      0.102      0.149    25.0167 0.0000e+00
      0.102      0.009     5.1861     61.094     41.120  41.098355     3.6863      7.417   172.5347 1.4411e+03     5.3697      0.101      0.146    25.0112 0.0000e+00
      0.102      0.008     5.1492     60.789     41.127  41.098293     3.6745      7.417   172.7700 1.3076e+03     5.4596      0.099      0.144    24.9985 0.0000e+00
      0.102      0.008     5.1087     60.486     41.136  41.098846     3.6877      7.419   172.7604 1.1976e+03     5.4783      0.100      0.145    24.9854 0.0000e+00
      0.104      0.009     5.0755     60.173     41.152  41.105026     3.7789      7.422   172.7639 1.2340e+03     5.4250      0.101      0.146    24.9761 0.0000e+00
      0.109      0.011     5.0498     59.879     41.169  41.109529     3.9540      7.426   172.8979 1.1590e+03     5.3963      0.106      0.154    24.9673 0.0000e+00
      0.114      0.012     5.0263     59.659     41.162  41.089810     4.0564      7.429   173.0889 1.0410e+03     5.4046      0.113      0.164    24.9587 0.0000e+00
      0.118      0.016     5.0025     59.523     41.139  41.056986     4.0762      7.430   173.3539 1.0444e+03     5.4571      0.116      0.168    24.9507 0.0000e+00
      0.120      0.021     4.9768     59.412     41.116  41.029969     4.0857      7.430   173.6063 1.2113e+03     5.4499      0.118      0.171    24.9389 0.0000e+00
      0.122      0.027     4.9523     59.330     41.104  41.017006     4.1882      7.430   173.8166 1.3451e+03     5.3522      0.118      0.172    24.9223 0.0000e+00
      0.127      0.033     4.9337     59.310     41.116  41.027180     4.3917      7.431   174.0040 1.2520e+03     5.3010      0.120      0.175    24.9055 0.0000e+00
      0.139      0.036     4.9283     59.314     41.118  41.026043     4.5070      7.433   174.0651 1.1674e+03     5.3772      0.134      0.194    24.8915 0.0000e+00
      0.155      0.036     4.9182     59.288     41.101  41.003253     4.5247      7.435   174.1256 1.2169e+03     5.4879      0.153      0.222    24.8873 0.0000e+00
      0.170      0.032     4.9091     59.267     41.111  41.005486     4.4888      7.437   174.3047 1.2459e+03     5.4092      0.169      0.244    24.8889 0.0000e+00
      0.179      0.026     4.9094     59.394     41.166  41.053027     4.4066      7.439   174.5107 1.1000e+03     5.2114      0.179      0.259    24.8877 0.0000e+00
      0.180      0.021     4.9130     59.966     41.246  41.133794     4.3622      7.440   174.7237 9.6304e+02     5.1460      0.179      0.260    24.8844 0.0000e+00
      0.178      0.016     4.9097     61.250     41.321  41.220449     4.3517      7.441   174.9008 9.7107e+02     5.1660      0.173      0.251    24.8767 0.0000e+00
      0.178      0.014     4.9060     63.107     41.356  41.275724     4.3716      7.443   174.9307 9.3632e+02     5.2479      0.174      0.251    24.8645 0.0000e+00
      0.183      0.014     4.9086     65.081     41.353  41.294428     4.4117      7.446   174.9137 1.0021e+03     5.3497      0.179      0.259    24.8536 0.0000e+00
      0.191      0.014     4.9430     66.844     41.361  41.319698     4.4211      7.449   175.0394 1.1692e+03     5.3382      0.187      0.272    24.8527 0.0000e+00
      0.199      0.014     5.0538     68.415     41.356  41.327416     4.4176      7.451   175.2457 1.1002e+03     5.3141      0.197      0.286    24.8690 0.0000e+00
      0.202      0.014     5.2214     69.919     41.281  41.260839     4.4694      7.453   175.4292 8.8086e+02     5.3661      0.200      0.290    24.8971 0.0000e+00
      0.201      0.016     5.3946     71.409     41.228  41.212857     4.5817      7.454   175.8818 7.8010e+02     5.4546      0.197      0.284    24.9246 0.0000e+00
      0.201      0.022     5.5332     72.804     41.203  41.191533     4.6437      7.452   176.6743 7.3664e+02     5.4955      0.195      0.283    24.9466 0.0000e+00
      0.204      0.033     5.6578     73.987     41.137  41.129946     4.6443      7.450   177.2673 6.6956e+02     5.4501      0.200      0.292    24.9633 0.0000e+00
      0.211      0.045     5.7792     74.917     41.107  41.102881     4.6975      7.449   177.5451 6.4779e+02     5.4190      0.205      0.298    24.9721 0.0000e+00
      0.225      0.056     5.9041     75.478     41.119  41.118164     4.8041      7.449   177.7969 6.7062e+02     5.4615      0.215      0.311    24.9753 0.0000e+00
      0.250      0.063     6.0257     75.577     41.124  41.124341     4.8671      7.449   178.0748 6.2238e+02     5.4849      0.246      0.357    24.9803 0.0000e+00
      0.274      0.065     6.1199     75.313     41.114  41.114096     4.8775      7.449   178.4093 4.6256e+02     5.4292      0.275      0.399    24.9847 0.0000e+00
      0.289      0.062     6.2016     74.862     41.122  41.121223     4.8800      7.450   178.8306 3.3098e+02     5.3687      0.283      0.410    24.9892 0.0000e+00
      0.302      0.056     6.2522     74.341     41.147  41.147054     4.9300      7.452   179.2103 2.8057e+02     5.2989      0.295      0.428    24.9940 0.0000e+00
      0.315      0.051     6.2552     73.830     41.236  41.236022     5.0327      7.452   179.4721 2.4865e+02     5.2354      0.311      0.452    24.9954 0.0000e+00
      0.325      0.048     6.2279     73.542     41.436  41.435328     5.0896      7.452   179.7598 2.2699e+02     5.2498      0.320      0.463    24.9947 0.0000e+00
      0.335      0.045     6.1868     74.028     41.595  41.589383     5.0941      7.453   180.0214 2.1884e+02     5.2337      0.327      0.474    24.9936 0.0000e+00
      0.348      0.041     6.1440     76.098     41.652  41.638953     5.1114      7.454   180.0545 2.1318e+02     5.2112      0.340      0.493    24.9936 0.0000e+00
      0.363      0.038     6.0956     79.770     41.673  41.653856     5.1328      7.455   180.1593 2.0412e+02     5.2849      0.356      0.516    24.9941 0.0000e+00
      0.373      0.036     6.0596     83.834     41.665  41.642623     5.1355      7.455   180.5147 1.9347e+02     5.3738      0.370      0.537    24.9939 0.0000e+00
      0.378      0.034     6.0670     87.204     41.654  41.630072     5.1446      7.456   180.7377 1.8272e+02     5.4319      0.371      0.539    24.9886 0.0000e+00
      0.381      0.030     6.2285     89.616     41.654  41.629036     5.2185      7.457   180.7906 1.7570e+02     5.4406      0.370      0.537    24.9768 0.0000e+00
      0.389      0.025     6.5884     91.163     41.657  41.630091     5.3379      7.458   180.8106 1.7170e+02     5.4113      0.380      0.551    24.9690 0.0000e+00
      0.401      0.021     6.9579     91.924     41.671  41.642826     5.3975      7.460   180.8062 1.6845e+02     5.3854      0.395      0.572    24.9674 0.0000e+00
      0.410      0.019     7.2378     91.916     41.685  41.656083     5.3989      7.463   180.9097 1.6475e+02     5.3999      0.405      0.587    24.9658 0.0000e+00
      0.412      0.018     7.4334     91.246     41.694  41.663436     5.4299      7.464   181.0298 1.6069e+02     5.4495      0.406      0.588    24.9639 0.0000e+00
      0.411      0.018     7.5588     90.247     41.700  41.668262     5.4800      7.465   181.1401 1.5907e+02     5.4392      0.403      0.583    24.9618 0.0000e+00
      0.411      0.021     7.6229     89.318     41.685  41.650969     5.4892      7.466   181.3830 1.5965e+02     5.3784      0.402      0.584    24.9596 0.0000e+00
      0.416      0.028     7.6210     88.611     41.682  41.644741     5.4905      7.468   181.6440 1.6035e+02     5.3639      0.407      0.590    24.9586 0.0000e+00
      0.424      0.038     7.5554     88.071     41.698  41.656429     5.6125      7.468   181.8005 1.6053e+02     5.4674      0.415      0.602    24.9579 0.0000e+00
      0.436      0.048     7.4569     87.640     41.713  41.665342     5.8324      7.469   181.8983 1.5998e+02     5.6398      0.426      0.619    24.9563 0.0000e+00
      0.451      0.055     7.3781     87.273     41.742  41.689037     5.9441      7.471   182.0513 1.5868e+02     5.7059      0.441      0.639    24.9533 0.0000e+00
      0.470      0.058     7.3232     86.895     41.747  41.689038     5.9392      7.472   182.2739 1.5718e+02     5.6855      0.462      0.669    24.9498 0.0000e+00
      0.488      0.058     7.2812     86.461     41.727  41.665346     5.9317      7.474   182.4391 1.5538e+02     5.6673      0.480      0.696    24.9449 0.0000e+00
      0.504      0.055     7.2467     85.966     41.722  41.656448     5.9783      7.475   182.4997 1.5266e+02     5.6560      0.494      0.716    24.9366 0.0000e+00
      0.517      0.050     7.2207     85.429     41.712  41.644918     6.0702      7.475   182.5764 1.5011e+02     5.6513      0.508      0.737    24.9298 0.0000e+00
      0.527      0.045     7.1911     84.906     41.722  41.652863     6.1179      7.476   182.7645 1.4820e+02     5.6112      0.518      0.751    24.9247 0.0000e+00
      0.536      0.041     7.1558     84.458     41.760  41.689040     6.1144      7.477   182.9669 1.4675e+02     5.5807      0.525      0.762    24.9193 0.0000e+00
      0.545      0.039     7.1149     84.089     41.775  41.701524     6.1444      7.480   183.1314 1.4542e+02     5.5898      0.534      0.775    24.9158 0.0000e+00
      0.555      0.037     7.0695     83.797     41.751  41.676863     6.2304      7.482   183.2904 1.4372e+02     5.6186      0.544      0.789    24.9129 0.0000e+00
      0.565      0.036     7.0233     83.586     41.721  41.644733     6.2888      7.484   183.3410 1.4225e+02     5.6905      0.555      0.805    24.9105 0.0000e+00
      0.575      0.035     6.9874     83.428     41.710  41.630376     6.3003      7.486   183.3132 1.4084e+02     5.7071      0.565      0.820    24.9086 0.0000e+00
      0.583      0.033     6.9578     83.337     41.713  41.630206     6.3116      7.489   183.3846 1.3959e+02     5.6138      0.572      0.830    24.9062 0.0000e+00
      0.591      0.032     6.9318     83.287     41.729  41.642676     6.3261      7.493   183.5148 1.3902e+02     5.5535      0.580      0.841    24.9047 0.0000e+00
      0.599      0.032     6.9181     83.192     41.744  41.654207     6.3338      7.495   183.6830 1.3904e+02     5.5931      0.588      0.853    24.9028 0.0000e+00
      0.606      0.032     6.9032     83.021     41.736  41.642686     6.3382      7.495   183.8704 1.3930e+02     5.6822      0.594      0.862    24.8988 0.0000e+00
      0.614      0.032     6.8966     82.799     41.727  41.630307     6.3461      7.495   183.8878 1.3934e+02     5.6745      0.600      0.871    24.8942 0.0000e+00
      0.624      0.031     6.8975     82.559     41.731  41.631466     6.3377      7.498   183.8070 1.3881e+02     5.5004      0.611      0.886    24.8902 0.0000e+00
      0.634      0.029     6.8902     82.313     41.758  41.656696     6.3193      7.500   183.7538 1.3776e+02     5.3532      0.622      0.903    24.8859 0.0000e+00
      0.642      0.028     6.8757     82.082     41.784  41.681483     6.3242      7.501   183.7603 1.3607e+02     5.3635      0.629      0.913    24.8817 0.0000e+00
      0.647      0.026     6.8566     81.902     41.780  41.677296     6.3469      7.504   183.8861 1.3327e+02     5.4541      0.634      0.920    24.8781 0.0000e+00
      0.651      0.025     6.8369     81.772     41.772  41.669532     6.3519      7.507   183.8986 1.2967e+02     5.4580      0.639      0.927    24.8751 0.0000e+00
      0.656      0.026     6.8167     81.675     41.753  41.651078     6.3358      7.509   183.8253 1.2580e+02     5.3760      0.642      0.932    24.8735 0.0000e+00
      0.662      0.030     6.7956     81.609     41.748  41.644576     6.3350      7.511   183.9461 1.2192e+02     5.3511      0.649      0.942    24.8721 0.0000e+00
      0.669      0.033     6.7812     81.584     41.759  41.654381     6.3752      7.512   184.0691 1.1805e+02     5.3964      0.657      0.952    24.8711 0.0000e+00
      0.679      0.033     6.7713     81.622     41.749  41.642694     6.4306      7.513   184.1071 1.1416e+02     5.4799      0.664      0.963    24.8713 0.0000e+00
      0.692      0.031     6.7630     81.709     41.737  41.630195     6.4552      7.512   184.3203 1.1070e+02     5.5073      0.678      0.983    24.8714 0.0000e+00
      0.704      0.026     6.7579     81.816     41.737  41.630195     6.4563      7.512   184.6676 1.0840e+02     5.4202      0.692      1.004    24.8713 0.0000e+00
      0.710      0.020     6.7544     81.920     41.750  41.642694     6.4528      7.513   184.8654 1.0724e+02     5.3481      0.698      1.013    24.8698 0.0000e+00
      0.711      0.013     6.7586     81.995     41.763  41.654382     6.4883      7.513   184.9899 1.0652e+02     5.4553      0.698      1.012    24.8674 0.0000e+00
      0.710      0.007     6.7671     82.003     41.753  41.644577     6.5607      7.513   185.1404 1.0595e+02     5.6579      0.696      1.010    24.8660 0.0000e+00
      0.710      0.004     6.7763     81.930     41.759  41.651080     6.5950      7.513   185.2233 1.0541e+02     5.7136      0.696      1.010    24.8653 0.0000e+00
      0.710      0.006     6.7860     81.823     41.777  41.669548     6.5868      7.514   185.3032 1.0489e+02     5.6506      0.696      1.010    24.8648 0.0000e+00
      0.710      0.009     6.7933     81.727     41.785  41.677470     6.5449      7.515   185.3320 1.0440e+02     5.6137      0.696      1.009    24.8646 0.0000e+00
      0.713      0.013     6.7952     81.662     41.790  41.683388     6.4881      7.516   185.3137 1.0345e+02     5.6440      0.697      1.011    24.8646 0.0000e+00
      0.718      0.017     6.7866     81.647     41.784  41.677641     6.4663      7.518   185.4261 1.0211e+02     5.7086      0.703      1.020    24.8648 0.0000e+00
      0.725      0.020     6.7766     81.697     41.777  41.671452     6.4733      7.520   185.6591 1.0086e+02     5.7123      0.712      1.031    24.8650 0.0000e+00
      0.730      0.021     6.7682     81.787     41.777  41.672023     6.4727      7.520   185.8072 9.9757e+01     5.5854      0.715      1.038    24.8655 0.0000e+00
      0.736      0.020     6.7620     81.847     41.791  41.684546     6.4585      7.519   185.8406 9.8745e+01     5.4036      0.721      1.045    24.8664 0.0000e+00
      0.743      0.017     6.7604     81.875     41.803  41.695924     6.4506      7.518   185.9770 9.7762e+01     5.3594      0.730      1.058    24.8671 0.0000e+00
      0.748      0.017     6.7640     81.893     41.790  41.682663     6.4609      7.517   186.2511 9.6936e+01     5.4276      0.735      1.066    24.8674 0.0000e+00
      0.749      0.020     6.7760     81.884     41.759  41.651138     6.4579      7.516   186.4879 9.6442e+01     5.4756      0.735      1.067    24.8673 0.0000e+00
      0.749      0.025     6.7798     81.865     41.741  41.632098     6.4237      7.515   186.6032 9.6370e+01     5.5299      0.734      1.065    24.8667 0.0000e+00
      0.753      0.030     6.7807     81.851     41.752  41.642851     6.3965      7.514   186.6131 9.6737e+01     5.6060      0.735      1.067    24.8660 0.0000e+00
      0.763      0.034     6.7846     81.834     41.764  41.654214     6.3868      7.514   186.6068 9.7300e+01     5.6787      0.745      1.081    24.8656 0.0000e+00
      0.780      0.035     6.7820     81.809     41.753  41.642557     6.3896      7.516   186.6994 9.7482e+01     5.7256      0.765      1.110    24.8650 0.0000e+00
      0.796      0.033     6.7806     81.813     41.740  41.628832     6.3975      7.518   186.7012 9.6930e+01     5.6950      0.784      1.136    24.8639 0.0000e+00
      0.805      0.028     6.7795     81.848     41.726  41.615203     6.3899      7.519   186.5420 9.5686e+01     5.6170      0.792      1.149    24.8624 0.0000e+00
      0.806      0.022     6.7794     81.843     41.716  41.604703     6.3891      7.521   186.5809 9.4229e+01     5.6012      0.792      1.148    24.8619 0.0000e+00
      0.806      0.016     6.7752     81.801     41.740  41.628822     6.3964      7.522   186.8275 9.3174e+01     5.6402      0.789      1.144    24.8617 0.0000e+00
      0.808      0.011     6.7743     81.765     41.764  41.652949     6.4122      7.524   187.0295 9.2753e+01     5.6789      0.792      1.149    24.8614 0.0000e+00
      0.812      0.010     6.7821     81.741     41.754  41.642554     6.4464      7.526   187.1299 9.2902e+01     5.6937      0.796      1.155    24.8611 0.0000e+00
      0.816      0.010     6.7805     81.713     41.742  41.630070     6.4607      7.527   187.1809 9.3332e+01     5.6487      0.800      1.161    24.8606 0.0000e+00
      0.819      0.010     6.7750     81.654     41.741  41.628935     6.4599      7.528   187.2157 9.3727e+01     5.6468      0.804      1.166    24.8604 0.0000e+00
      0.821      0.010     6.7728     81.571     41.742  41.628832     6.4792      7.529   187.2066 9.3902e+01     5.7054      0.805      1.168    24.8601 0.0000e+00
      0.822      0.012     6.7705     81.501     41.742  41.628823     6.5107      7.531   187.2425 9.3929e+01     5.7075      0.806      1.168    24.8601 0.0000e+00
      0.823      0.016     6.7697     81.451     41.743  41.628821     6.5245      7.533   187.3053 9.3726e+01     5.6724      0.807      1.171    24.8599 0.0000e+00
      0.826      0.021     6.7650     81.422     41.744  41.628811     6.5129      7.535   187.3639 9.3064e+01     5.6220      0.809      1.173    24.8592 0.0000e+00
      0.831      0.027     6.7560     81.422     41.747  41.628698     6.5042      7.536   187.5206 9.2075e+01     5.6107      0.812      1.178    24.8586 0.0000e+00
      0.841      0.032     6.7507     81.407     41.748  41.627450     6.5184      7.536   187.6517 9.1072e+01     5.6726      0.823      1.195    24.8581 0.0000e+00
      0.854      0.035     6.7470     81.322     41.737  41.613718     6.5352      7.537   187.6586 9.0428e+01     5.7211      0.839      1.216    24.8579 0.0000e+00
      0.864      0.036     6.7432     81.163     41.716  41.589599     6.5398      7.538   187.6897 9.0115e+01     5.6861      0.847      1.230    24.8565 0.0000e+00
      0.872      0.034     6.7458     80.938     41.718  41.589694     6.5496      7.538   187.7702 8.9826e+01     5.6240      0.854      1.239    24.8527 0.0000e+00
      0.881      0.030     6.7474     80.641     41.745  41.614863     6.5706      7.538   187.8569 8.9689e+01     5.6536      0.864      1.254    24.8496 0.0000e+00
      0.889      0.026     6.7396     80.277     41.772  41.640041     6.5846      7.538   187.9642 8.9749e+01     5.7362      0.873      1.266    24.8465 0.0000e+00
      0.894      0.022     6.7271     79.917     41.774  41.640241     6.5870      7.540   188.1211 8.9923e+01     5.7691      0.876      1.272    24.8425 0.0000e+00
      0.898      0.019     6.7085     79.637     41.752  41.617284     6.5827      7.543   188.2911 9.0202e+01     5.7100      0.881      1.278    24.8400 0.0000e+00
      0.902      0.017     6.6853     79.437     41.752  41.616339     6.5747      7.543   188.2995 9.0408e+01     5.6020      0.884      1.284    24.8380 0.0000e+00
      0.906      0.016     6.6524     79.273     41.766  41.628815     6.5807      7.543   188.2226 9.0541e+01     5.5906      0.888      1.288    24.8360 0.0000e+00
      0.910      0.016     6.6197     79.104     41.779  41.641186     6.5889      7.544   188.2217 9.0526e+01     5.6751      0.892      1.294    24.8341 0.0000e+00
      0.914      0.017     6.5977     78.947     41.778  41.638983     6.5823      7.545   188.2883 9.0351e+01     5.7002      0.897      1.301    24.8321 0.0000e+00
      0.918      0.018     6.5823     78.845     41.742  41.602178     6.5597      7.545   188.3393 9.0211e+01     5.6555      0.901      1.307    24.8313 0.0000e+00
      0.922      0.019     6.5710     78.790     41.717  41.576993     6.5241      7.545   188.4080 9.0127e+01     5.6127      0.905      1.313    24.8301 0.0000e+00
      0.927      0.020     6.5563     78.760     41.730  41.588333     6.5093      7.545   188.5165 9.0096e+01     5.6273      0.909      1.318    24.8285 0.0000e+00
      0.933      0.020     6.5410     78.721     41.756  41.612358     6.5139      7.547   188.5334 8.9960e+01     5.6952      0.914      1.325    24.8280 0.0000e+00
      0.939      0.019     6.5334     78.604     41.759  41.613598     6.4630      7.548   188.5261 8.9862e+01     5.6820      0.921      1.336    24.8273 0.0000e+00
      0.945      0.016     6.5303     78.423     41.748  41.603325     6.3513      7.547   188.5996 9.0063e+01     5.5706      0.928      1.346    24.8263 0.0000e+00
      0.949      0.012     6.5272     78.243     41.757  41.615082     6.2784      7.547   188.7339 9.0299e+01     5.4754      0.932      1.351    24.8243 0.0000e+00
      0.952      0.007     6.5293     78.106     41.767  41.628824     6.2731      7.548   188.8599 9.0418e+01     5.4527      0.934      1.354    24.8210 0.0000e+00
      0.953      0.002     6.5183     78.079     41.777  41.642548     6.2623      7.548   188.9183 9.0514e+01     5.4678      0.936      1.357    24.8179 0.0000e+00
      0.953      0.000     6.5003     78.207     41.787  41.654088     6.2220      7.549   188.9235 9.0579e+01     5.4535      0.936      1.357    24.8191 0.0000e+00
      0.950      0.000     6.4847     78.467     41.772  41.641423     6.1938      7.551   188.9220 9.0620e+01     5.4158      0.932      1.352    24.8245 0.0000e+00
      0.946      0.001     6.4704     78.850     41.745  41.616351     6.1803      7.553   188.9012 9.0647e+01     5.3874      0.928      1.345    24.8294 0.0000e+00
      0.945      0.003     6.4649     79.256     41.734  41.604811     6.2171      7.555   188.8444 9.0600e+01     5.4518      0.925      1.340    24.8332 0.0000e+00
      0.949      0.004     6.4785     79.548     41.759  41.628836     6.3053      7.556   188.9234 9.0535e+01     5.6133      0.930      1.349    24.8361 0.0000e+00
      0.955      0.006     6.4979     79.761     41.785  41.652956     6.3559      7.557   189.1677 9.0621e+01     5.7007      0.939      1.362    24.8385 0.0000e+00
      0.957      0.008     6.5310     79.876     41.776  41.642579     6.3631      7.558   189.3028 9.0884e+01     5.6542      0.941      1.365    24.8406 0.0000e+00
      0.956      0.009     6.5749     79.861     41.765  41.630303     6.3424      7.558   189.3530 9.1117e+01     5.5977      0.938      1.360    24.8401 0.0000e+00
      0.956      0.011     6.5917     79.771     41.765  41.631458     6.3053      7.557   189.5165 9.1237e+01     5.6333      0.937      1.359    24.8378 0.0000e+00
      0.958      0.014     6.6128     79.664     41.786  41.656545     6.2890      7.556   189.6451 9.1525e+01     5.7085      0.939      1.362    24.8357 0.0000e+00
      0.963      0.019     6.6250     79.592     41.806  41.679761     6.2871      7.555   189.7036 9.2029e+01     5.7213      0.943      1.368    24.8334 0.0000e+00
      0.969      0.022     6.6196     79.588     41.784  41.658293     6.2910      7.555   189.7935 9.2307e+01     5.6514      0.950      1.378    24.8317 0.0000e+00
      0.978      0.023     6.6121     79.676     41.777  41.650853     6.3027      7.556   189.8714 9.2394e+01     5.5807      0.959      1.391    24.8335 0.0000e+00
      0.988      0.023     6.5997     79.840     41.781  41.653276     6.3286      7.557   189.9578 9.2669e+01     5.6182      0.970      1.407    24.8390 0.0000e+00
      0.994      0.022     6.5933     80.015     41.753  41.624116     6.3537      7.557   190.0626 9.3033e+01     5.6949      0.976      1.416    24.8436 0.0000e+00
      0.996      0.022     6.5913     80.137     41.747  41.615611     6.3567      7.557   190.1924 9.3501e+01     5.6883      0.977      1.417    24.8445 0.0000e+00
      0.998      0.022     6.5992     80.152     41.748  41.613913     6.3821      7.558   190.3222 9.3899e+01     5.6404      0.978      1.418    24.8438 0.0000e+00
      1.002      0.023     6.6156     79.996     41.742  41.603585     6.4267      7.559   190.3417 9.3932e+01     5.5943      0.982      1.424    24.8422 0.0000e+00
      1.010      0.025     6.6318     79.621     41.760  41.617662     6.4476      7.561   190.3423 9.3809e+01     5.6091      0.989      1.435    24.8404 0.0000e+00
      1.020      0.027     6.6437     79.076     41.805  41.657167     6.4599      7.562   190.5014 9.3483e+01     5.6821      1.000      1.450    24.8373 0.0000e+00
      1.029      0.028     6.6474     78.494     41.852  41.700432     6.4834      7.563   190.6305 9.3110e+01     5.6918      1.010      1.464    24.8326 0.0000e+00
      1.036      0.028     6.6373     77.944     41.851  41.696499     6.5069      7.563   190.6128 9.2939e+01     5.6585      1.016      1.474    24.8283 0.0000e+00
      1.041      0.027     6.6057     77.462     41.829  41.673071     6.5031      7.564   190.6327 9.2799e+01     5.6546      1.020      1.481    24.8231 0.0000e+00
      1.046      0.024     6.5553     77.077     41.828  41.671032     6.5031      7.566   190.6987 9.2738e+01     5.6786      1.025      1.486    24.8169 0.0000e+00
      1.054      0.020     6.5065     76.769     41.829  41.671841     6.5159      7.568   190.8073 9.2894e+01     5.7101      1.034      1.500    24.8123 0.0000e+00
      1.061      0.017     6.4610     76.554     41.839  41.682851     6.5000      7.569   191.0005 9.3223e+01     5.7273      1.042      1.512    24.8091 0.0000e+00
      1.064      0.014     6.4188     76.471     41.834  41.677222     6.4765      7.570   191.1412 9.3727e+01     5.7159      1.045      1.515    24.8066 0.0000e+00
      1.066      0.012     6.3895     76.511     41.827  41.667253     6.4645      7.572   191.2172 9.4423e+01     5.6759      1.046      1.517    24.8057 0.0000e+00
      1.067      0.010     6.3630     76.640     41.855  41.689246     6.4808      7.573   191.3181 9.5240e+01     5.7213      1.046      1.517    24.8062 0.0000e+00
      1.068      0.010     6.3427     76.795     41.860  41.689260     6.5230      7.573   191.4142 9.6021e+01     5.9234      1.047      1.518    24.8078 0.0000e+00
      1.071      0.010     6.3370     76.886     41.838  41.667410     6.5429      7.572   191.5187 9.6558e+01     6.0351      1.050      1.522    24.8084 0.0000e+00
      1.076      0.011     6.3417     76.889     41.844  41.678939     6.5298      7.572   191.6352 9.6906e+01     5.9448      1.056      1.531    24.8039 0.0000e+00
      1.080      0.011     6.3545     76.847     41.860  41.701726     6.4978      7.572   191.7912 9.7182e+01     5.8565      1.060      1.538    24.7953 0.0000e+00
      1.082      0.011     6.3723     76.827     41.844  41.689071     6.4303      7.572   191.9409 9.7366e+01     5.8559      1.060      1.538    24.7877 0.0000e+00
      1.083      0.011     6.3805     76.906     41.807  41.652865     6.3378      7.571   191.9828 9.7206e+01     5.9033      1.062      1.540    24.7872 0.0000e+00
      1.086      0.011     6.3774     77.106     41.799  41.644763     6.2957      7.572   191.9543 9.6729e+01     5.9509      1.064      1.543    24.7962 0.0000e+00
      1.089      0.011     6.3720     77.376     41.810  41.654577     6.3119      7.573   191.9403 9.6237e+01     5.9538      1.068      1.548    24.8061 0.0000e+00
      1.093      0.012     6.3658     77.621     41.800  41.644594     6.3849      7.574   192.0718 9.5817e+01     5.9041      1.072      1.554    24.8110 0.0000e+00
      1.096      0.014     6.3726     77.801     41.805  41.650994     6.5115      7.576   192.2532 9.5539e+01     5.8971      1.075      1.560    24.8111 0.0000e+00
      1.098      0.017     6.3903     77.940     41.824  41.668494     6.5943      7.577   192.3265 9.5333e+01     5.9716      1.077      1.562    24.8093 0.0000e+00
      1.102      0.020     6.4169     78.016     41.825  41.665776     6.6041      7.577   192.4415 9.5064e+01     6.0186      1.079      1.565    24.8082 0.0000e+00
      1.107      0.023     6.4383     77.992     41.848  41.681589     6.6293      7.577   192.5265 9.4823e+01     5.9873      1.084      1.573    24.8091 0.0000e+00
      1.115      0.028     6.4507     77.873     41.909  41.732751     6.6910      7.578   192.4931 9.4754e+01     5.9003      1.093      1.586    24.8100 0.0000e+00
      1.124      0.032     6.4639     77.679     41.969  41.776615     6.7347      7.578   192.5547 9.4756e+01     5.8547      1.103      1.599    24.8084 0.0000e+00
      1.131      0.036     6.4722     77.392     41.980  41.767641     6.7664      7.579   192.6683 9.4700e+01     5.9138      1.110      1.609    24.8050 0.0000e+00
      1.140      0.038     6.4709     76.963     41.981  41.751146     6.7995      7.579   192.7479 9.4686e+01     6.0347      1.117      1.621    24.7968 0.0000e+00
      1.151      0.039     6.4606     76.324     42.011  41.767557     6.8181      7.579   192.8293 9.4684e+01     6.1205      1.129      1.638    24.7876 0.0000e+00
      1.163      0.041     6.4480     75.466     42.030  41.775652     6.8168      7.579   192.8785 9.4619e+01     6.0971      1.141      1.655    24.7693 0.0000e+00
      1.173      0.041     6.4285     74.467     42.050  41.785541     6.8089      7.580   192.9124 9.4509e+01     6.0939      1.151      1.670    24.7389 0.0000e+00
      1.183      0.040     6.3985     73.410     42.100  41.823634     6.8391      7.582   192.9808 9.4322e+01     6.2181      1.160      1.682    24.7172 0.0000e+00
      1.194      0.038     6.3476     72.363     42.144  41.855399     6.9069      7.582   193.1033 9.4181e+01     6.3693      1.171      1.698    24.7047 0.0000e+00
      1.205      0.034     6.2745     71.395     42.154  41.852249     6.9381      7.583   193.2743 9.4011e+01     6.3848      1.183      1.717    24.6915 0.0000e+00
      1.215      0.032     6.1905     70.506     42.164  41.849005     6.9253      7.583   193.5002 9.3760e+01     6.3028      1.193      1.730    24.6786 0.0000e+00
      1.221      0.030     6.1028     69.654     42.209  41.879617     6.9094      7.583   193.6834 9.3596e+01     6.3340      1.197      1.737    24.6659 0.0000e+00
      1.226      0.029     6.0141     68.876     42.247  41.905018     6.8960      7.583   193.7682 9.3460e+01     6.4554      1.202      1.743    24.6506 0.0000e+00
      1.233      0.029     5.9354     68.202     42.249  41.902231     6.8879      7.583   193.8377 9.3034e+01     6.5068      1.208      1.753    24.6363 0.0000e+00
      1.241      0.029     5.8661     67.552     42.252  41.909378     6.8860      7.583   193.9207 9.2519e+01     6.4437      1.217      1.765    24.6222 0.0000e+00
      1.250      0.029     5.7950     66.918     42.265  41.927974     6.8816      7.583   194.0840 9.2232e+01     6.3411      1.226      1.776    24.6040 0.0000e+00
      1.258      0.029     5.7296     66.438     42.273  41.936684     6.8852      7.583   194.2638 9.1978e+01     6.3251      1.233      1.789    24.5847 0.0000e+00
      1.266      0.027     5.6789     66.115     42.290  41.951219     6.9130      7.583   194.3740 9.1760e+01     6.3861      1.242      1.801    24.5783 0.0000e+00
      1.273      0.024     5.6258     65.824     42.321  41.976783     6.9434      7.583   194.4694 9.1553e+01     6.4301      1.249      1.811    24.5893 0.0000e+00
      1.278      0.022     5.5630     65.496     42.345  41.991897     6.9605      7.584   194.5568 9.1323e+01     6.4127      1.255      1.819    24.5979 0.0000e+00
      1.282      0.023     5.5246     65.136     42.370  42.007005     7.0286      7.584   194.6568 9.1238e+01     6.3470      1.258      1.825    24.5974 0.0000e+00
      1.286      0.028     5.5036     64.766     42.410  42.032510     7.1676      7.584   194.8181 9.1244e+01     6.3181      1.261      1.829    24.5948 0.0000e+00
      1.289      0.036     5.4811     64.366     42.449  42.046371     7.2592      7.584   195.0447 9.1080e+01     6.3713      1.263      1.832    24.5895 0.0000e+00
      1.297      0.044     5.4549     63.829     42.481  42.047625     7.2875      7.585   195.2455 9.0699e+01     6.4444      1.268      1.840    24.5780 0.0000e+00
      1.312      0.049     5.4246     62.970     42.510  42.047630     7.4438      7.585   195.4390 9.0165e+01     6.5184      1.285      1.863    24.5673 0.0000e+00
      1.332      0.051     5.3954     61.606     42.530  42.046385     7.7171      7.586   195.5780 8.9525e+01     6.5822      1.307      1.895    24.5546 0.0000e+00
      1.351      0.051     5.3681     59.652     42.530  42.032542     7.8618      7.587   195.5494 8.8985e+01     6.6010      1.328      1.926    24.5231 0.0000e+00
      1.364      0.048     5.3338     57.256     42.513  42.007167     7.8871      7.587   195.6095 8.8653e+01     6.6096      1.341      1.945    24.4833 0.0000e+00
      1.371      0.042     5.2707     54.724     42.505  41.993434     7.9063      7.588   195.7880 8.8324e+01     6.5838      1.344      1.949    24.4474 0.0000e+00
      1.377      0.037     5.1639     52.315     42.510  41.993426     7.9108      7.590   195.8140 8.7925e+01     6.4603      1.349      1.957    24.4220 0.0000e+00
      1.387      0.032     4.9971     50.183     42.524  42.007065     7.8997      7.590   195.7529 8.7522e+01     6.3116      1.360      1.973    24.4083 0.0000e+00
      1.397      0.030     4.7861     48.390     42.543  42.031400     7.8970      7.591   195.7369 8.7033e+01     6.2885      1.371      1.989    24.3990 0.0000e+00
      1.405      0.029     4.5687     47.020     42.538  42.033800     7.9365      7.592   195.7939 8.6793e+01     6.3180      1.378      1.999    24.3916 0.0000e+00
      1.411      0.028     4.3627     46.232     42.535  42.036087     8.0025      7.594   195.9247 8.6683e+01     6.2571      1.383      2.006    24.3830 0.0000e+00
      1.417      0.025     4.1842     46.102     42.557  42.059062     8.0294      7.594   196.1133 8.6409e+01     6.1672      1.389      2.015    24.3831 0.0000e+00
      1.424      0.023     4.0325     46.513     42.555  42.057718     8.0124      7.594   196.2683 8.6294e+01     6.1196      1.397      2.026    24.3919 0.0000e+00
      1.430      0.022     3.9100     47.243     42.515  42.019838     8.0043      7.594   196.3362 8.6239e+01     6.1259      1.402      2.034    24.4024 0.0000e+00
      1.434      0.022     3.8412     48.128     42.476  41.981870     8.0393      7.593   196.5032 8.6260e+01     6.2088      1.407      2.041    24.4087 0.0000e+00
      1.439      0.022     3.8342     49.055     42.475  41.979468     8.0951      7.592   196.8253 8.6382e+01     6.3711      1.410      2.046    24.4094 0.0000e+00
      1.444      0.022     3.8766     49.836     42.491  41.990791     8.1209      7.590   197.0468 8.6354e+01     6.4824      1.414      2.052    24.4102 0.0000e+00
      1.451      0.021     3.9420     50.247     42.496  41.991828     8.1108      7.590   197.1164 8.6219e+01     6.4618      1.423      2.064    24.4136 0.0000e+00
      1.458      0.019     4.0177     50.209     42.496  41.992005     8.0391      7.589   197.2370 8.6152e+01     6.4639      1.430      2.075    24.4130 0.0000e+00
      1.464      0.016     4.1009     49.900     42.486  41.992937     7.9278      7.588   197.3005 8.6056e+01     6.5754      1.436      2.082    24.4107 0.0000e+00
      1.467      0.013     4.1748     49.663     42.481  42.003111     7.8719      7.587   197.2825 8.5989e+01     6.6822      1.440      2.087    24.4075 0.0000e+00
      1.469      0.012     4.2133     49.829     42.452  41.988098     7.8628      7.587   197.3632 8.5884e+01     6.6972      1.440      2.089    24.3975 0.0000e+00
      1.469      0.013     4.2038     50.540     42.401  41.938377     7.8508      7.588   197.4157 8.5504e+01     6.6203      1.440      2.089    24.3971 0.0000e+00
      1.469      0.014     4.1656     51.678     42.384  41.909687     7.8428      7.588   197.4014 8.4994e+01     6.5717      1.440      2.088    24.4113 0.0000e+00
      1.473      0.014     4.1335     52.912     42.381  41.895059     7.8501      7.588   197.4486 8.4374e+01     6.6224      1.443      2.091    24.4317 0.0000e+00
      1.481      0.012     4.1402     53.735     42.377  41.888432     7.8640      7.588   197.5558 8.3848e+01     6.6521      1.454      2.108    24.4537 0.0000e+00
      1.489      0.009     4.2049     53.815     42.377  41.893027     7.9200      7.588   197.6653 8.3548e+01     6.5554      1.463      2.123    24.4579 0.0000e+00
      1.491      0.004     4.3095     53.319     42.367  41.887154     8.0190      7.588   197.7398 8.3297e+01     6.3759      1.464      2.124    24.4330 0.0000e+00
      1.489      0.002     4.4314     52.590     42.362  41.880903     8.0786      7.587   197.8548 8.2955e+01     6.3249      1.461      2.117    24.4154 0.0000e+00
      1.484      0.004     4.5156     51.835     42.369  41.880904     8.1001      7.586   198.0226 8.2644e+01     6.4522      1.455      2.111    24.4157 0.0000e+00
      1.480      0.010     4.5105     51.079     42.384  41.887158     8.1696      7.585   198.1339 8.2564e+01     6.6167      1.451      2.104    24.4227 0.0000e+00
      1.479      0.018     4.4573     50.286     42.396  41.893039     8.2794      7.585   198.1682 8.2351e+01     6.7431      1.447      2.098    24.4324 0.0000e+00
      1.488      0.026     4.3904     49.506     42.395  41.888528     8.3286      7.585   198.2652 8.1687e+01     6.7847      1.454      2.110    24.4295 0.0000e+00
      1.505      0.031     4.3282     48.862     42.408  41.896082     8.3233      7.585   198.4460 8.0956e+01     6.8123      1.477      2.143    24.4196 0.0000e+00
      1.519      0.031     4.2687     48.434     42.443  41.920901     8.3231      7.586   198.6340 8.0543e+01     6.8379      1.492      2.165    24.4069 0.0000e+00
      1.526      0.029     4.2014     48.099     42.467  41.934719     8.3513      7.586   198.9037 8.0519e+01     6.7521      1.498      2.172    24.3977 0.0000e+00
      1.530      0.024     4.1317     47.555     42.480  41.936204     8.4059      7.586   199.1251 8.0626e+01     6.5949      1.501      2.177    24.3978 0.0000e+00
      1.531      0.020     4.0747     46.669     42.500  41.938839     8.4428      7.586   199.1591 8.0604e+01     6.5093      1.501      2.178    24.3941 0.0000e+00
      1.533      0.020     4.0431     45.629     42.550  41.966558     8.4482      7.586   199.1432 8.0689e+01     6.5362      1.502      2.179    24.3780 0.0000e+00
      1.538      0.024     4.0277     44.556     42.627  42.017452     8.4377      7.587   199.1055 8.0856e+01     6.5445      1.507      2.186    24.3672 0.0000e+00
      1.546      0.029     3.9905     43.395     42.690  42.046412     8.4163      7.589   199.1339 8.0874e+01     6.4382      1.516      2.198    24.3585 0.0000e+00
      1.555      0.033     3.9057     42.046     42.744  42.062773     8.3968      7.589   199.3139 8.0752e+01     6.3106      1.524      2.212    24.3345 0.0000e+00
      1.565      0.035     3.8182     40.474     42.796  42.088279     8.3939      7.588   199.4750 8.0537e+01     6.2652      1.534      2.225    24.3085 0.0000e+00
      1.576      0.035     3.7327     38.738     42.824  42.100892     8.4232      7.587   199.7054 8.0299e+01     6.3682      1.545      2.241    24.2852 0.0000e+00
      1.586      0.033     3.6415     36.938     42.828  42.088317     8.4766      7.588   200.0342 8.0132e+01     6.5652      1.556      2.258    24.2436 0.0000e+00
      1.594      0.029     3.5342     35.229     42.818  42.063152     8.5059      7.589   200.2675 8.0102e+01     6.6314      1.565      2.268    24.1901 0.0000e+00
      1.601      0.025     3.4004     33.744     42.816  42.050470     8.5193      7.589   200.4607 8.0012e+01     6.5879      1.571      2.277    24.1613 0.0000e+00
      1.606      0.021     3.2545     32.581     42.835  42.061906     8.6143      7.588   200.6497 7.9796e+01     6.6204      1.576      2.285    24.1517 0.0000e+00
      1.609      0.019     3.0977     31.806     42.850  42.074477     8.7802      7.588   200.8332 7.9651e+01     6.7501      1.578      2.288    24.1327 0.0000e+00
      1.613      0.019     2.9524     31.382     42.846  42.075525     8.8697      7.588   201.0436 7.9564e+01     6.8931      1.581      2.293    24.1089 0.0000e+00
      1.618      0.019     2.8257     31.227     42.842  42.074588     8.8719      7.587   201.2147 7.9532e+01     6.9141      1.587      2.301    24.0994 0.0000e+00
      1.623      0.019     2.7253     31.337     42.831  42.063153     8.8646      7.586   201.3528 7.9577e+01     6.7645      1.592      2.308    24.0897 0.0000e+00
      1.628      0.020     2.6618     31.689     42.831  42.064193     8.8567      7.586   201.5093 7.9477e+01     6.5873      1.596      2.315    24.0846 0.0000e+00
      1.634      0.021     2.6301     32.139     42.853  42.087166     8.8591      7.587   201.6446 7.9254e+01     6.5482      1.603      2.325    24.0972 0.0000e+00
      1.639      0.022     2.6156     32.593     42.858  42.087042     8.8767      7.589   201.7845 7.9197e+01     6.6327      1.608      2.333    24.1019 0.0000e+00
      1.644      0.022     2.6237     33.043     42.845  42.062686     8.8788      7.589   201.9100 7.9140e+01     6.6537      1.611      2.337    24.0968 0.0000e+00
      1.650      0.022     2.6605     33.423     42.844  42.046539     8.8927      7.590   201.9568 7.8989e+01     6.5622      1.617      2.345    24.0980 0.0000e+00
      1.657      0.023     2.7008     33.609     42.835  42.018723     8.9366      7.590   202.0925 7.9006e+01     6.5173      1.625      2.357    24.1035 0.0000e+00
      1.663      0.024     2.7372     33.522     42.822  41.980214     8.9684      7.589   202.3470 7.9191e+01     6.5556      1.632      2.367    24.0981 0.0000e+00
      1.668      0.026     2.7786     33.152     42.832  41.961700     9.0026      7.587   202.5384 7.9399e+01     6.6155      1.635      2.371    24.0804 0.0000e+00
      1.673      0.028     2.8158     32.482     42.820  41.921772     9.1413      7.585   202.6857 7.9448e+01     6.6261      1.639      2.377    24.0655 0.0000e+00
      1.681      0.030     2.8351     31.423     42.809  41.878222     9.3731      7.585   202.8375 7.9318e+01     6.5816      1.647      2.389    24.0444 0.0000e+00
      1.691      0.032     2.8293     29.918     42.847  41.879369     9.4993      7.584   202.9960 7.9158e+01     6.5551      1.658      2.405    24.0114 0.0000e+00
      1.700      0.032     2.7990     28.030     42.870  41.872120     9.5025      7.584   203.1400 7.8914e+01     6.5791      1.667      2.418    23.9773 0.0000e+00
      1.709      0.031     2.7484     25.928     42.871  41.853997     9.5195      7.583   203.2877 7.8590e+01     6.7008      1.675      2.429    23.9463 0.0000e+00
      1.717      0.030     2.6635     23.806     42.884  41.850630     9.5555      7.582   203.5781 7.8265e+01     6.7973      1.683      2.440    23.9099 0.0000e+00
      1.724      0.028     2.5365     21.818     42.877  41.831382     9.5626      7.580   203.8976 7.7963e+01     6.7553      1.691      2.453    23.8595 0.0000e+00
      1.731      0.028     2.3735     20.099     42.869  41.811659     9.5641      7.578   203.9674 7.7633e+01     6.7390      1.698      2.462    23.8249 0.0000e+00
      1.736      0.027     2.1902     18.768     42.878  41.802547     9.6236      7.578   203.9049 7.7225e+01     6.8053      1.702      2.469    23.8090 0.0000e+00
      1.742      0.026     2.0076     17.833     42.878  41.784652     9.7330      7.577   203.9171 7.6813e+01     6.8735      1.708      2.478    23.7858 0.0000e+00
      1.750      0.026     1.8367     17.165     42.889  41.785674     9.7956      7.576   203.9426 7.6478e+01     6.8809      1.716      2.490    23.7719 0.0000e+00
      1.758      0.027     1.6870     16.645     42.926  41.814890     9.8067      7.575   204.0415 7.6282e+01     6.8605      1.725      2.501    23.7654 0.0000e+00
      1.764      0.028     1.5744     16.245     42.941  41.820552     9.9083      7.574   204.2527 7.6105e+01     6.9002      1.730      2.509    23.7393 0.0000e+00
      1.770      0.030     1.5013     15.986     42.927  41.790652    10.1008      7.573   204.4316 7.5800e+01     6.9856      1.735      2.517    23.7159 0.0000e+00
      1.777      0.032     1.4493     15.833     42.931  41.770689    10.2110      7.572   204.4832 7.5432e+01     7.0723      1.742      2.527    23.7078 0.0000e+00
      1.786      0.033     1.4057     15.669     42.947  41.769547    10.2259      7.572   204.4465 7.5161e+01     7.0953      1.751      2.539    23.6990 0.0000e+00
      1.796      0.034     1.3705     15.378     42.959  41.776822    10.2635      7.571   204.4178 7.4865e+01     7.0580      1.761      2.555    23.6926 0.0000e+00
      1.806      0.034     1.3499     14.984     42.983  41.795167    10.3329      7.571   204.4803 7.4469e+01     7.0320      1.772      2.571    23.6760 0.0000e+00
      1.815      0.033     1.3416     14.607     43.002  41.800942    10.3663      7.570   204.6861 7.4168e+01     7.0535      1.781      2.583    23.6386 0.0000e+00
      1.823      0.031     1.3336     14.302     42.997  41.783163    10.3754      7.569   204.9276 7.4018e+01     7.1134      1.788      2.593    23.6147 0.0000e+00
      1.830      0.029     1.3077     14.059     42.993  41.770585    10.3929      7.569   204.9916 7.3940e+01     7.1076      1.795      2.603    23.6201 0.0000e+00
      1.836      0.028     1.2685     13.835     43.008  41.775789    10.4279      7.568   204.9426 7.3879e+01     7.0507      1.801      2.612    23.6175 0.0000e+00
      1.843      0.028     1.2367     13.624     43.023  41.782605    10.4741      7.568   205.0238 7.3759e+01     7.0405      1.808      2.622    23.5951 0.0000e+00
      1.850      0.028     1.2108     13.462     43.039  41.789525    10.4945      7.569   205.1992 7.3464e+01     7.0531      1.814      2.631    23.5806 0.0000e+00
      1.858      0.027     1.1927     13.372     43.054  41.795969    10.5248      7.569   205.3424 7.3139e+01     7.1010      1.822      2.642    23.5734 0.0000e+00
      1.865      0.026     1.1743     13.320     43.063  41.797039    10.7651      7.568   205.4647 7.2897e+01     7.2093      1.829      2.653    23.5614 0.0000e+00
      1.872      0.025     1.1545     13.245     43.074  41.802452    11.1868      7.567   205.5597 7.2663e+01     7.2702      1.836      2.663    23.5521 0.0000e+00
      1.878      0.025     1.1407     13.160     43.076  41.797937    11.4207      7.565   205.6303 7.2358e+01     7.2564      1.843      2.673    23.5441 0.0000e+00
      1.883      0.026     1.1333     13.085     43.093  41.805917    11.4536      7.563   205.7165 7.1888e+01     7.3157      1.847      2.679    23.5318 0.0000e+00
      1.887      0.027     1.1331     13.002     43.136  41.835451    11.6006      7.563   205.7406 7.1208e+01     7.4745      1.850      2.684    23.5227 0.0000e+00
      1.894      0.027     1.1252     12.916     43.148  41.837666    11.8748      7.563   205.7502 7.0509e+01     7.5706      1.857      2.693    23.5187 0.0000e+00
      1.904      0.026     1.1166     12.781     43.148  41.832683    12.0307      7.563   205.8323 7.0008e+01     7.5208      1.867      2.708    23.5121 0.0000e+00
      1.913      0.025     1.1131     12.571     43.156  41.838666    12.0617      7.562   205.8731 6.9766e+01     7.4533      1.878      2.724    23.5022 0.0000e+00
      1.920      0.025     1.1039     12.330     43.169  41.846541    12.2250      7.562   205.8991 6.9683e+01     7.4722      1.884      2.733    23.4873 0.0000e+00
      1.923      0.025     1.0993     12.094     43.194  41.864419    12.5403      7.562   205.9754 6.9558e+01     7.5445      1.886      2.735    23.4724 0.0000e+00
      1.927      0.025     1.0901     11.894     43.203  41.864420    12.7195      7.562   206.0211 6.9318e+01     7.5763      1.889      2.739    23.4688 0.0000e+00
      1.932      0.026     1.0687     11.731     43.194  41.846535    12.7688      7.562   206.1072 6.8866e+01     7.5493      1.894      2.746    23.4698 0.0000e+00
      1.940      0.027     1.0485     11.578     43.194  41.838570    13.1528      7.560   206.2415 6.8244e+01     7.5583      1.901      2.758    23.4640 0.0000e+00
      1.950      0.027     1.0271     11.431     43.191  41.831566    13.8420      7.558   206.2684 6.7706e+01     7.6515      1.913      2.774    23.4556 0.0000e+00
      1.959      0.026     1.0098     11.287     43.186  41.825316    14.2195      7.557   206.3469 6.7393e+01     7.7875      1.923      2.788    23.4465 0.0000e+00
      1.966      0.023     0.9984     11.141     43.188  41.826460    14.2705      7.557   206.5020 6.7226e+01     7.8375      1.928      2.796    23.4339 0.0000e+00
      1.970      0.020     0.9847     11.013     43.208  41.845404    14.2587      7.557   206.5090 6.7155e+01     7.7773      1.932      2.802    23.4224 0.0000e+00
      1.973      0.018     0.9724     10.915     43.227  41.863957    14.0266      7.557   206.5174 6.6963e+01     7.7429      1.934      2.806    23.4188 0.0000e+00
      1.976      0.018     0.9611     10.828     43.226  41.860387    13.6290      7.558   206.6040 6.6514e+01     7.7966      1.937      2.810    23.4204 0.0000e+00
      1.980      0.019     0.9475     10.749     43.236  41.865695    13.4303      7.559   206.6093 6.6067e+01     7.8462      1.942      2.816    23.4181 0.0000e+00
      1.985      0.020     0.9357     10.685     43.240  41.864655    13.4710      7.559   206.5809 6.5690e+01     7.7964      1.947      2.823    23.4156 0.0000e+00
      1.991      0.022     0.9289     10.640     43.226  41.847811    14.0637      7.558   206.6047 6.5464e+01     7.7751      1.953      2.832    23.4185 0.0000e+00
      1.998      0.024     0.9211     10.604     43.234  41.852432    15.1449      7.557   206.7251 6.5439e+01     7.8616      1.960      2.843    23.4168 0.0000e+00
      2.004      0.024     0.9143     10.563     43.242  41.857057    15.7230      7.555   206.9191 6.5382e+01     7.9544      1.965      2.851    23.4087 0.0000e+00
      2.010      0.024     0.9089     10.511     43.228  41.840260    15.7768      7.555   207.0575 6.5224e+01     8.0434      1.971      2.859    23.4040 0.0000e+00
      2.017      0.023     0.9050     10.451     43.233  41.839739    15.8371      7.555   207.1071 6.4979e+01     8.0830      1.978      2.868    23.4003 0.0000e+00
      2.024      0.022     0.9032     10.384     43.248  41.850759    15.9199      7.555   207.0895 6.4699e+01     8.0237      1.985      2.879    23.3960 0.0000e+00
      2.030      0.021     0.8994     10.306     43.247  41.846550    15.9617      7.555   207.1021 6.4510e+01     7.9752      1.992      2.889    23.3936 0.0000e+00
      2.034      0.020     0.8953     10.218     43.258  41.852310    16.0262      7.555   207.1731 6.4362e+01     7.9748      1.995      2.893    23.3893 0.0000e+00
      2.037      0.020     0.8902     10.154     43.273  41.856940    16.7495      7.554   207.1738 6.4119e+01     8.1209      1.997      2.897    23.3827 0.0000e+00
      2.041      0.021     0.8844     10.131     43.270  41.839046    18.0820      7.553   207.1977 6.3749e+01     8.4101      2.001      2.903    23.3788 0.0000e+00
      2.047      0.022     0.8783     10.098     43.272  41.826336    18.8037      7.553   207.2892 6.3388e+01     8.5334      2.007      2.911    23.3768 0.0000e+00
      2.054      0.023     0.8695     10.019     43.288  41.830176    18.8585      7.553   207.3341 6.3052e+01     8.5182      2.015      2.922    23.3717 0.0000e+00
      2.061      0.024     0.8629      9.923     43.291  41.821993    18.9359      7.553   207.3965 6.2732e+01     8.6372      2.022      2.933    23.3602 0.0000e+00
      2.067      0.024     0.8638      9.845     43.272  41.790843    19.0982      7.554   207.4411 6.2492e+01     8.8106      2.027      2.940    23.3405 0.0000e+00
      2.072      0.023     0.8630      9.791     43.265  41.770869    19.1979      7.554   207.4430 6.2259e+01     8.8042      2.032      2.947    23.3224 0.0000e+00
      2.078      0.021     0.8547      9.771     43.272  41.770869    19.2014      7.553   207.5054 6.1943e+01     8.6966      2.038      2.955    23.3107 0.0000e+00
      2.083      0.019     0.8451      9.786     43.296  41.790835    19.1823      7.552   207.5935 6.1512e+01     8.6365      2.043      2.963    23.2999 0.0000e+00
      2.088      0.017     0.8395      9.818     43.332  41.821873    19.1675      7.553   207.6473 6.1192e+01     8.6588      2.049      2.971    23.2836 0.0000e+00
      2.093      0.014     0.8344      9.876     43.344  41.828800    19.1549      7.553   207.7254 6.1008e+01     8.7614      2.054      2.979    23.2646 0.0000e+00
      2.097      0.011     0.8325      9.963     43.330  41.811114    19.1468      7.552   207.8500 6.0910e+01     8.8179      2.057      2.983    23.2568 0.0000e+00
      2.099      0.009     0.8352     10.060     43.320  41.798430    19.1018      7.552   207.8636 6.1000e+01     8.7611      2.058      2.985    23.2566 0.0000e+00
      2.099      0.008     0.8373     10.155     43.320  41.802374    18.6618      7.552   207.8039 6.1133e+01     8.6212      2.058      2.986    23.2526 0.0000e+00
      2.100      0.008     0.8415     10.228     43.306  41.795341    17.8717      7.552   207.8161 6.1295e+01     8.4932      2.059      2.986    23.2469 0.0000e+00
      2.101      0.010     0.8510     10.272     43.284  41.776872    17.4558      7.552   207.9249 6.1472e+01     8.5104      2.061      2.989    23.2422 0.0000e+00
      2.103      0.014     0.8586     10.316     43.281  41.769475    17.4452      7.552   208.0868 6.1457e+01     8.5902      2.062      2.991    23.2363 0.0000e+00
      2.107      0.018     0.8676     10.343     43.296  41.769373    17.5432      7.551   208.1389 6.1142e+01     8.6042      2.065      2.995    23.2399 0.0000e+00
      2.113      0.019     0.8749     10.353     43.321  41.775608    17.7171      7.551   208.1249 6.0709e+01     8.6121      2.071      3.003    23.2527 0.0000e+00
      2.120      0.019     0.8758     10.387     43.336  41.781364    17.8159      7.551   208.0898 6.0310e+01     8.6517      2.079      3.015    23.2574 0.0000e+00
      2.129      0.018     0.8813     10.435     43.322  41.775494    17.8394      7.550   208.0588 6.0023e+01     8.7064      2.088      3.029    23.2523 0.0000e+00
      2.134      0.016     0.8847     10.478     43.302  41.768104    17.9853      7.550   208.0945 6.0020e+01     8.7272      2.094      3.038    23.2362 0.0000e+00
      2.135      0.014     0.8826     10.518     43.286  41.755505    18.2480      7.550   208.0904 6.0284e+01     8.6985      2.095      3.038    23.2047 0.0000e+00
      2.135      0.011     0.8873     10.543     43.293  41.750105    18.3854      7.550   208.0959 6.0417e+01     8.6670      2.093      3.036    23.1913 0.0000e+00
      2.136      0.009     0.8924     10.550     43.328  41.766258    18.3639      7.549   208.1611 6.0193e+01     8.6532      2.094      3.038    23.2069 0.0000e+00
      2.140      0.009     0.8939     10.545     43.333  41.760370    17.9802      7.549   208.2757 5.9963e+01     8.6692      2.099      3.044    23.2272 0.0000e+00
      2.144      0.009     0.8995     10.546     43.318  41.742369    17.2667      7.548   208.4499 5.9830e+01     8.6213      2.104      3.051    23.2350 0.0000e+00
      2.147      0.009     0.9008     10.550     43.321  41.739007    16.8704      7.547   208.5469 5.9767e+01     8.4829      2.106      3.054    23.2138 0.0000e+00
      2.149      0.009     0.9023     10.524     43.309  41.719715    16.8250      7.547   208.5871 5.9791e+01     8.3965      2.108      3.057    23.1863 0.0000e+00
      2.149      0.009     0.9011     10.486     43.297  41.699508    16.7595      7.547   208.6782 5.9801e+01     8.2937      2.108      3.057    23.1779 0.0000e+00
      2.150      0.009     0.9003     10.466     43.299  41.685080    16.0799      7.546   208.7021 5.9770e+01     8.0598      2.107      3.056    23.1772 0.0000e+00
      2.152      0.008     0.9041     10.454     43.309  41.672178    14.8412      7.546   208.6171 5.9556e+01     7.8574      2.110      3.061    23.1702 0.0000e+00
      2.157      0.007     0.9001     10.406     43.323  41.670418    14.1672      7.545   208.5976 5.9296e+01     7.7603      2.115      3.068    23.1591 0.0000e+00
      2.162      0.006     0.8958     10.319     43.319  41.663772    14.1396      7.545   208.6385 5.9271e+01     7.7051      2.122      3.077    23.1525 0.0000e+00
      2.163      0.004     0.8947     10.232     43.309  41.655289    14.6490      7.546   208.5950 5.9523e+01     7.7710      2.124      3.080    23.1361 0.0000e+00
      2.161      0.004     0.8963     10.147     43.284  41.631322    15.6159      7.546   208.5883 5.9874e+01     7.9418      2.120      3.074    23.1000 0.0000e+00
      2.159      0.005     0.8932     10.053     43.288  41.627861    16.1506      7.546   208.6437 6.0014e+01     8.0283      2.116      3.069    23.0806 0.0000e+00
      2.158      0.007     0.8827      9.954     43.353  41.676897    16.1450      7.546   208.6617 5.9895e+01     7.9969      2.116      3.068    23.0836 0.0000e+00
      2.161      0.012     0.8762      9.843     43.417  41.716448    15.5636      7.546   208.7199 5.9525e+01     7.8359      2.119      3.073    23.0871 0.0000e+00
      2.166      0.017     0.8694      9.708     43.455  41.725231    14.5226      7.546   208.8318 5.8948e+01     7.5842      2.124      3.080    23.0877 0.0000e+00
      2.173      0.020     0.8609      9.549     43.478  41.719579    13.9707      7.546   208.8958 5.8368e+01     7.4821      2.131      3.090    23.0810 0.0000e+00
      2.180      0.021     0.8530      9.354     43.493  41.711543    13.9022      7.546   208.8916 5.7985e+01     7.5577      2.138      3.100    23.0646 0.0000e+00
      2.185      0.020     0.8445      9.114     43.483  41.691506    13.5267      7.546   208.8676 5.7715e+01     7.5412      2.143      3.108    23.0385 0.0000e+00
      2.191      0.019     0.8330      8.826     43.460  41.667694    12.8349      7.546   208.8630 5.7345e+01     7.3514      2.148      3.115    23.0042 0.0000e+00
      2.196      0.017     0.8205      8.506     43.474  41.677512    12.4554      7.546   208.9217 5.7027e+01     7.2436      2.154      3.123    22.9708 0.0000e+00
      2.199      0.015     0.8045      8.221     43.490  41.683277    12.4245      7.545   208.9755 5.6976e+01     7.2974      2.157      3.129    22.9426 0.0000e+00
      2.201      0.015     0.7840      8.017     43.499  41.673914    12.3860      7.545   208.9972 5.7095e+01     7.2835      2.159      3.130    22.9288 0.0000e+00
      2.203      0.015     0.7600      7.894     43.540  41.691212    12.2822      7.545   209.0117 5.7125e+01     7.1447      2.161      3.134    22.9333 0.0000e+00
      2.207      0.015     0.7288      7.825     43.567  41.701995    12.2099      7.545   208.9786 5.6941e+01     7.0541      2.164      3.139    22.9316 0.0000e+00
      2.213      0.014     0.7035      7.752     43.539  41.677334    12.2110      7.545   208.9416 5.6550e+01     7.0416      2.170      3.146    22.9214 0.0000e+00
      2.219      0.014     0.6865      7.642     43.500  41.646914    12.3203      7.544   208.9953 5.6251e+01     7.0620      2.177      3.157    22.9006 0.0000e+00
      2.222      0.013     0.6767      7.531     43.513  41.651533    12.5153      7.544   209.1115 5.6171e+01     7.0952      2.180      3.162    22.8676 0.0000e+00
      2.223      0.012     0.6732      7.452     43.552  41.669706    12.6135      7.545   209.1418 5.6023e+01     7.0671      2.180      3.162    22.8433 0.0000e+00
      2.224      0.012     0.6688      7.391     43.574  41.676206    12.6088      7.545   209.1037 5.5712e+01     6.9957      2.181      3.163    22.8520 0.0000e+00
      2.227      0.012     0.6569      7.341     43.574  41.666640    12.5837      7.544   209.0809 5.5302e+01     6.9827      2.184      3.167    22.8753 0.0000e+00
      2.230      0.013     0.6459      7.298     43.530  41.617499    12.4004      7.544   208.9523 5.4882e+01     7.1154      2.187      3.171    22.8607 0.0000e+00
      2.235      0.015     0.6412      7.260     43.507  41.589773    12.0742      7.544   208.8393 5.4468e+01     7.3027      2.191      3.177    22.8290 0.0000e+00
      2.240      0.017     0.6358      7.210     43.511  41.585278    11.8858      7.544   208.9189 5.4132e+01     7.3351      2.195      3.186    22.8167 0.0000e+00
      2.244      0.019     0.6319      7.120     43.499  41.563138    11.8627      7.543   209.0539 5.3820e+01     7.2668      2.201      3.193    22.8067 0.0000e+00
      2.248      0.020     0.6282      6.974     43.516  41.575923    11.9767      7.542   209.1818 5.3371e+01     7.2967      2.205      3.198    22.7955 0.0000e+00
      2.253      0.022     0.6253      6.781     43.542  41.612922    12.2081      7.540   209.3458 5.2897e+01     7.4577      2.209      3.204    22.7921 0.0000e+00
      2.259      0.023     0.6222      6.560     43.543  41.629701    12.3463      7.538   209.4886 5.2450e+01     7.5742      2.215      3.212    22.7847 0.0000e+00
      2.265      0.024     0.6153      6.332     43.561  41.651888    12.3826      7.537   209.5318 5.2010e+01     7.5775      2.222      3.222    22.7676 0.0000e+00
      2.273      0.024     0.6023      6.139     43.603  41.690778    12.7806      7.536   209.6108 5.1656e+01     7.9080      2.229      3.234    22.7569 0.0000e+00
      2.280      0.023     0.5849      6.033     43.632  41.719112    13.5466      7.534   209.7548 5.1440e+01     8.5645      2.237      3.245    22.7757 0.0000e+00
      2.285      0.022     0.5651      6.030     43.655  41.740610    13.9780      7.531   209.8965 5.1335e+01     8.9222      2.242      3.251    22.8054 0.0000e+00
      2.289      0.022     0.5442      6.117     43.692  41.760303    14.0344      7.530   210.0327 5.1216e+01     9.0216      2.245      3.256    22.8051 0.0000e+00
      2.294      0.022     0.5258      6.283     43.735  41.766794    14.0209      7.530   210.1117 5.1014e+01     9.2192      2.250      3.263    22.7979 0.0000e+00
      2.300      0.021     0.5156      6.451     43.762  41.755574    13.9721      7.529   210.1637 5.0727e+01     9.5012      2.255      3.270    22.8023 0.0000e+00
      2.307      0.020     0.5171      6.522     43.779  41.751515    13.9525      7.528   210.2303 5.0424e+01     9.6640      2.262      3.281    22.8102 0.0000e+00
      2.313      0.019     0.5233      6.485     43.805  41.781161    13.9513      7.526   210.1427 5.0167e+01     9.6852      2.269      3.291    22.7954 0.0000e+00
      2.318      0.016     0.5408      6.374     43.799  41.796682    13.7330      7.526   209.9651 4.9909e+01     9.6212      2.274      3.298    22.7441 0.0000e+00
      2.321      0.012     0.5609      6.243     43.734  41.748809    13.2854      7.527   209.9765 4.9695e+01     9.4709      2.277      3.302    22.6942 0.0000e+00
      2.323      0.008     0.5659      6.148     43.694  41.710097    13.0169      7.528   210.1083 4.9549e+01     9.3717      2.278      3.304    22.6685 0.0000e+00
      2.325      0.007     0.5622      6.108     43.763  41.772893    12.9842      7.527   210.3539 4.9459e+01     9.3774      2.280      3.307    22.6739 0.0000e+00
      2.325      0.009     0.5506      6.125     43.879  41.873382    12.9811      7.526   210.5368 4.9442e+01     9.4375      2.281      3.308    22.7138 0.0000e+00
      2.325      0.013     0.5362      6.191     43.948  41.909594    12.8799      7.526   210.5131 4.9352e+01     9.7567      2.279      3.306    22.7348 0.0000e+00
      2.326      0.018     0.5287      6.276     43.979  41.893347    12.6759      7.525   210.4972 4.8972e+01    10.2991      2.279      3.305    22.7211 0.0000e+00
      2.332      0.022     0.5247      6.324     43.997  41.867285    12.5526      7.523   210.6029 4.8248e+01    10.5642      2.285      3.314    22.7224 0.0000e+00
      2.342      0.024     0.5265      6.279     44.003  41.848291    12.5376      7.521   210.8445 4.7385e+01    10.5704      2.295      3.329    22.7189 0.0000e+00
      2.352      0.024     0.5334      6.111     44.017  41.854060    12.5116      7.520   211.0094 4.6739e+01    10.6475      2.309      3.349    22.6842 0.0000e+00
      2.360      0.024     0.5430      5.835     44.029  41.873562    12.4471      7.519   211.0483 4.6494e+01    10.8130      2.317      3.360    22.6209 0.0000e+00
      2.363      0.022     0.5501      5.522     44.037  41.893692    12.3987      7.518   211.1431 4.6474e+01    10.8982      2.318      3.362    22.5660 0.0000e+00
      2.365      0.019     0.5470      5.258     44.046  41.907062    12.3927      7.517   211.2088 4.6449e+01    10.8577      2.318      3.363    22.5402 0.0000e+00
      2.369      0.016     0.5327      5.067     44.055  41.908288    12.4991      7.516   211.2394 4.6356e+01    10.6987      2.322      3.368    22.5305 0.0000e+00
      2.375      0.014     0.5064      4.937     44.064  41.908504    12.7109      7.515   211.3409 4.6258e+01    10.4792      2.330      3.378    22.5435 0.0000e+00
      2.381      0.013     0.4750      4.859     44.065  41.909662    12.8398      7.514   211.4048 4.6249e+01    10.3896      2.337      3.388    22.5654 0.0000e+00
      2.385      0.011     0.4525      4.810     44.073  41.922293    12.8427      7.514   211.3231 4.6341e+01    10.3670      2.340      3.393    22.5736 0.0000e+00
      2.386      0.008     0.4368      4.803     44.083  41.934293    12.7612      7.514   211.1279 4.6530e+01    10.3430      2.340      3.394    22.5577 0.0000e+00
      2.386      0.006     0.4247      4.828     44.077  41.927812    12.6458      7.514   211.0237 4.6721e+01    10.3381      2.339      3.392    22.5447 0.0000e+00
      2.386      0.006     0.4204      4.847     44.057  41.907397    12.6042      7.514   211.0952 4.6724e+01    10.3418      2.339      3.392    22.5474 0.0000e+00
      2.387      0.007     0.4144      4.875     44.026  41.877866    12.6250      7.513   211.1321 4.6585e+01    10.3884      2.341      3.396    22.5548 0.0000e+00
      2.390      0.008     0.4137      4.926     44.034  41.888096    12.6392      7.512   211.1265 4.6417e+01    10.5250      2.344      3.399    22.5601 0.0000e+00
      2.393      0.010     0.4188      4.985     44.118  41.967623    12.6430      7.512   211.1993 4.6211e+01    10.7299      2.347      3.404    22.5559 0.0000e+00
      2.397      0.012     0.4189      5.068     44.246  42.077798    12.6544      7.512   211.2378 4.6033e+01    10.8161      2.350      3.409    22.5532 0.0000e+00
      2.399      0.015     0.4202      5.181     44.406  42.204691    12.6683      7.511   211.2477 4.5885e+01    10.8153      2.352      3.412    22.5541 0.0000e+00
      2.401      0.017     0.4266      5.273     44.538  42.295916    12.6617      7.510   211.3186 4.5596e+01    10.8568      2.354      3.414    22.5586 0.0000e+00
      2.406      0.019     0.4303      5.301     44.573  42.292173    12.5907      7.509   211.3208 4.5084e+01    10.7384      2.359      3.420    22.5626 0.0000e+00
      2.412      0.019     0.4366      5.246     44.531  42.222857    12.4846      7.508   211.2745 4.4507e+01    10.4422      2.366      3.430    22.5498 0.0000e+00
      2.419      0.019     0.4496      5.101     44.480  42.155942    12.4276      7.508   211.2749 4.4033e+01    10.2816      2.373      3.441    22.5204 0.0000e+00
      2.425      0.018     0.4587      4.894     44.450  42.117775    12.4006      7.508   211.2389 4.3721e+01    10.3346      2.380      3.451    22.4784 0.0000e+00
      2.430      0.015     0.4621      4.675     44.412  42.078725    12.2907      7.507   211.2694 4.3581e+01    10.5011      2.384      3.457    22.4317 0.0000e+00
      2.432      0.013     0.4582      4.496     44.396  42.064591    12.0972      7.506   211.3865 4.3506e+01    10.6214      2.385      3.459    22.3975 0.0000e+00
      2.433      0.013     0.4447      4.383     44.405  42.073829    11.9841      7.507   211.3635 4.3324e+01    10.5924      2.386      3.460    22.3791 0.0000e+00
      2.435      0.013     0.4254      4.360     44.395  42.063486    11.9807      7.507   211.2495 4.2963e+01    10.5614      2.388      3.464    22.3690 0.0000e+00
      2.438      0.015     0.4043      4.445     44.400  42.066467    12.0315      7.506   211.2127 4.2488e+01    10.6559      2.391      3.468    22.3660 0.0000e+00
      2.443      0.017     0.3882      4.588     44.449  42.109873    12.1072      7.504   211.1767 4.1982e+01    10.8125      2.395      3.474    22.3689 0.0000e+00
      2.448      0.019     0.3783      4.739     44.489  42.144022    12.1302      7.503   211.0722 4.1432e+01    10.8838      2.401      3.482    22.3716 0.0000e+00
      2.454      0.021     0.3737      4.861     44.514  42.162000    12.1097      7.503   210.9824 4.0809e+01    10.8698      2.407      3.491    22.3695 0.0000e+00
      2.461      0.021     0.3848      4.917     44.560  42.200293    12.1261      7.504   210.9512 4.0180e+01    10.9153      2.413      3.500    22.3658 0.0000e+00
      2.466      0.021     0.3981      4.905     44.592  42.226202    12.1862      7.504   210.9523 3.9597e+01    11.0243      2.418      3.508    22.3634 0.0000e+00
      2.471      0.021     0.4119      4.835     44.593  42.221379    12.2282      7.504   210.9101 3.9033e+01    11.0950      2.424      3.515    22.3606 0.0000e+00
      2.476      0.020     0.4250      4.742     44.583  42.205441    12.2260      7.503   210.8711 3.8436e+01    11.0866      2.428      3.521    22.3533 0.0000e+00
      2.481      0.019     0.4285      4.643     44.607  42.223893    12.1935      7.502   210.9112 3.7792e+01    11.0253      2.432      3.528    22.3464 0.0000e+00
      2.486      0.018     0.4283      4.538     44.712  42.317539    12.1520      7.503   210.8782 3.7246e+01    11.0035      2.439      3.537    22.3429 0.0000e+00
      2.491      0.017     0.4205      4.455     44.797  42.385643    12.1406      7.504   210.8164 3.6872e+01    11.0624      2.444      3.545    22.3339 0.0000e+00
      2.494      0.016     0.4115      4.411     44.773  42.349143    12.1549      7.504   210.8521 3.6543e+01    11.1563      2.446      3.548    22.3278 0.0000e+00
      2.497      0.015     0.4044      4.390     44.751  42.320493    12.1664      7.504   210.8802 3.6108e+01    11.1820      2.449      3.552    22.3242 0.0000e+00
      2.502      0.014     0.3933      4.371     44.790  42.356574    12.3222      7.505   210.8977 3.5629e+01    11.0998      2.454      3.559    22.3191 0.0000e+00
      2.506      0.014     0.3855      4.336     44.834  42.404574    12.6313      7.505   210.9779 3.5288e+01    11.0172      2.458      3.565    22.3070 0.0000e+00
      2.509      0.015     0.3832      4.282     44.878  42.456588    12.8081      7.505   211.0755 3.5001e+01    11.0367      2.460      3.568    22.2848 0.0000e+00
      2.512      0.015     0.3813      4.222     44.958  42.541188    12.8612      7.506   211.0448 3.4651e+01    11.0966      2.463      3.572    22.2751 0.0000e+00
      2.516      0.015     0.3808      4.152     45.092  42.665818    13.1325      7.506   210.9512 3.4305e+01    10.9216      2.468      3.579    22.2760 0.0000e+00
      2.520      0.015     0.3777      4.058     45.202  42.757538    13.6077      7.505   210.8910 3.4059e+01    10.5604      2.472      3.586    22.2829 0.0000e+00
      2.524      0.016     0.3723      3.948     45.290  42.825014    13.8797      7.505   210.8326 3.3871e+01    10.3844      2.476      3.590    22.2975 0.0000e+00
      2.528      0.017     0.3668      3.821     45.531  43.037342    13.9153      7.504   210.8467 3.3686e+01    10.3993      2.479      3.596    22.3108 0.0000e+00
      2.532      0.019     0.3621      3.667     45.827  43.293647    13.9892      7.503   210.9760 3.3545e+01    10.3993      2.483      3.601    22.3086 0.0000e+00
      2.537      0.019     0.3531      3.527     45.892  43.321572    14.1313      7.502   211.1064 3.3416e+01    10.2818      2.487      3.606    22.2915 0.0000e+00
      2.542      0.018     0.3432      3.401     45.843  43.247982    14.1935      7.502   211.1319 3.3157e+01    10.1402      2.491      3.613    22.2713 0.0000e+00
      2.550      0.017     0.3345      3.251     45.905  43.292462    14.1837      7.501   211.1123 3.2837e+01    10.0868      2.502      3.628    22.2589 0.0000e+00
      2.556      0.014     0.3179      3.094     45.976  43.351579    14.2293      7.500   211.0416 3.2780e+01    10.1143      2.509      3.638    22.2371 0.0000e+00
      2.558      0.010     0.3063      2.973     45.957  43.328021    14.3292      7.499   210.9646 3.2955e+01    10.1659      2.509      3.639    22.1901 0.0000e+00
      2.558      0.005     0.2981      2.897     45.882  43.261502    14.3842      7.499   210.9563 3.3145e+01    10.1638      2.509      3.638    22.1574 0.0000e+00
      2.557      0.001     0.2837      2.861     45.783  43.182042    14.3949      7.499   210.9403 3.3311e+01    10.1235      2.508      3.637    22.1483 0.0000e+00
      2.557 4.0981e-07     0.2684      2.871     45.708  43.128969    14.5585      7.499   210.8578 3.3466e+01    10.0204      2.508      3.637    22.1406 0.0000e+00
      2.557      0.000     0.2577      2.915     45.691  43.127614    14.8729      7.500   210.8197 3.3581e+01     9.9416      2.508      3.637    22.1309 0.0000e+00
      2.557      0.000     0.2519      2.968     45.726  43.165675    15.0503      7.503   210.9089 3.3658e+01     9.9909      2.507      3.636    22.1336 0.0000e+00
      2.557      0.001     0.2478      3.037     45.781  43.208336    15.0711      7.504   210.9042 3.3737e+01    10.0018      2.507      3.636    22.1539 0.0000e+00
      2.558      0.001     0.2488      3.117     45.858  43.262580    15.0742      7.503   210.7627 3.3809e+01     9.9023      2.508      3.638    22.1746 0.0000e+00
      2.558      0.001     0.2542      3.182     45.938  43.313715    15.1548      7.502   210.7471 3.3843e+01     9.7097      2.509      3.639    22.1915 0.0000e+00
      2.558      0.001     0.2577      3.216     45.972  43.318795    15.3209      7.503   210.8009 3.3858e+01     9.5184      2.509      3.639    22.2013 0.0000e+00
      2.558      0.001     0.2640      3.220     46.000  43.323960    15.4271      7.503   210.6390 3.3908e+01     9.4684      2.509      3.638    22.1881 0.0000e+00
      2.558      0.001     0.2724      3.196     46.071  43.376136    15.4569      7.503   210.4247 3.3963e+01     9.4806      2.509      3.639    22.1658 0.0000e+00
      2.558      0.001     0.2783      3.135     46.161  43.441846    15.5225      7.504   210.4473 3.3974e+01     9.4949      2.508      3.638    22.1397 0.0000e+00
      2.559      0.002     0.2819      3.047     46.226  43.483683    15.6465      7.505   210.5679 3.3955e+01     9.5388      2.509      3.639    22.1052 0.0000e+00
      2.559      0.002     0.2812      2.956     46.251  43.501120    15.7235      7.505   210.5921 3.3886e+01     9.6354      2.510      3.640    22.0822 0.0000e+00
      2.560      0.002     0.2807      2.858     46.268  43.525717    15.7385      7.504   210.5680 3.3782e+01     9.7404      2.511      3.641    22.0737 0.0000e+00
      2.561      0.001     0.2747      2.763     46.329  43.590679    15.7686      7.504   210.6208 3.3699e+01     9.7157      2.512      3.643    22.0518 0.0000e+00
      2.561      0.001     0.2658      2.681     46.394  43.651836    15.8134      7.503   210.7146 3.3661e+01     9.6093      2.512      3.643    22.0202 0.0000e+00
      2.561      0.002     0.2590      2.607     46.443  43.693896    15.8310      7.502   210.7556 3.3720e+01     9.5814      2.512      3.643    22.0156 0.0000e+00
      2.561      0.003     0.2496      2.544     46.474  43.718375    15.8311      7.502   210.6863 3.3862e+01     9.6174      2.512      3.644    22.0329 0.0000e+00
      2.561      0.006     0.2407      2.497     46.461  43.693903    15.9149      7.502   210.5650 3.3922e+01     9.7371      2.511      3.641    22.0439 0.0000e+00
      2.561      0.009     0.2342      2.458     46.444  43.651887    16.0702      7.502   210.5799 3.3739e+01     9.9016      2.509      3.639    22.0411 0.0000e+00
      2.565      0.012     0.2276      2.418     46.411  43.591172    16.1441      7.502   210.6939 3.3396e+01     9.9322      2.514      3.647    22.0334 0.0000e+00
      2.571      0.015     0.2213      2.362     46.363  43.531019    16.1596      7.503   210.7386 3.3113e+01     9.9032      2.522      3.657    22.0318 0.0000e+00
      2.576      0.018     0.2182      2.292     46.318  43.495835    16.3897      7.503   210.7768 3.2972e+01    10.1308      2.528      3.665    22.0257 0.0000e+00
      2.580      0.019     0.2149      2.243     46.218  43.419672    16.8207      7.502   210.8973 3.2863e+01    10.6012      2.530      3.669    21.9905 0.0000e+00
      2.584      0.019     0.2120      2.225     46.077  43.308373    17.0682      7.500   210.9906 3.2640e+01    10.8423      2.533      3.673    21.9491 0.0000e+00
      2.589      0.019     0.2077      2.215     45.968  43.229200    17.1509      7.499   210.9588 3.2345e+01    10.8260      2.539      3.682    21.9322 0.0000e+00
      2.595      0.018     0.1996      2.214     45.941  43.224117    17.8956      7.497   210.8569 3.2024e+01    11.0531      2.544      3.690    21.9431 0.0000e+00
      2.600      0.014     0.1948      2.249     45.956  43.246945    19.2983      7.496   210.7913 3.1680e+01    11.5383      2.550      3.699    21.9678 0.0000e+00
      2.605      0.009     0.1949      2.327     45.957  43.251329    20.0774      7.496   210.7672 3.1398e+01    11.8418      2.555      3.706    21.9891 0.0000e+00
      2.608      0.004     0.1935      2.419     45.977  43.277124    20.1577      7.496   210.7374 3.1308e+01    11.8863      2.558      3.711    22.0156 0.0000e+00
      2.608      0.000     0.1919      2.492     46.005  43.304953    20.1117      7.495   210.6896 3.1539e+01    11.8034      2.559      3.712    22.0432 0.0000e+00
      2.603      0.000     0.1949      2.552     46.046  43.333922    19.4796      7.494   210.7049 3.1921e+01    11.4884      2.553      3.702    22.0497 0.0000e+00
      2.598      0.001     0.2026      2.621     46.108  43.373480    18.3500      7.494   210.7504 3.2071e+01    11.0494      2.545      3.693    22.0464 0.0000e+00
      2.598      0.004     0.2122      2.675     46.166  43.402373    17.7561      7.494   210.6379 3.1876e+01    10.8682      2.545      3.692    22.0608 0.0000e+00
      2.603      0.007     0.2184      2.694     46.226  43.429341    17.7498      7.494   210.5499 3.1521e+01    10.9369      2.551      3.700    22.0667 0.0000e+00
      2.608      0.012     0.2217      2.684     46.274  43.445607    18.0992      7.493   210.6322 3.1270e+01    11.2318      2.559      3.711    22.0520 0.0000e+00
      2.612      0.016     0.2295      2.640     46.331  43.472052    18.7349      7.492   210.6868 3.1210e+01    11.7003      2.562      3.716    22.0330 0.0000e+00
      2.614      0.018     0.2356      2.593     46.387  43.495149    19.0769      7.491   210.6938 3.1177e+01    11.9567      2.563      3.717    22.0017 0.0000e+00
      2.618      0.018     0.2354      2.533     46.407  43.470941    19.0459      7.491   210.6305 3.1006e+01    12.0422      2.566      3.722    21.9691 0.0000e+00
      2.624      0.018     0.2372      2.427     46.410  43.433189    18.3772      7.490   210.5230 3.0732e+01    12.2224      2.572      3.731    21.9367 0.0000e+00
      2.630      0.018     0.2307      2.333     46.413  43.419481    17.1352      7.490   210.4272 3.0546e+01    12.4276      2.580      3.742    21.9089 0.0000e+00
      2.636      0.018     0.2265      2.275     46.426  43.432118    16.4297      7.489   210.3333 3.0495e+01    12.5071      2.586      3.750    21.8851 0.0000e+00
      2.640      0.017     0.2258      2.222     46.461  43.459039    16.2387      7.489   210.3342 3.0447e+01    12.5002      2.589      3.755    21.8319 0.0000e+00
      2.643      0.016     0.2115      2.177     46.511  43.491076    14.9933      7.488   210.4376 3.0346e+01    12.5159      2.592      3.760    21.7751 0.0000e+00
      2.647      0.016     0.2033      2.157     46.600  43.565561    12.7318      7.486   210.5513 3.0220e+01    12.5608      2.596      3.764    21.7614 0.0000e+00
      2.650      0.016     0.2003      2.169     46.698  43.661401    11.4921      7.486   210.5042 3.0095e+01    12.5648      2.599      3.770    21.7761 0.0000e+00
      2.655      0.016     0.1949      2.219     46.935  43.888182    11.3407      7.485   210.2972 2.9946e+01    12.5298      2.602      3.775    21.7712 0.0000e+00
      2.660      0.018     0.1901      2.279     47.837  44.720681    11.0257      7.484   210.2007 2.9771e+01    12.8895      2.608      3.782    21.7421 0.0000e+00
      2.665      0.023     0.1890      2.319     50.146  46.808015    10.4803      7.484   210.2836 2.9740e+01    13.7027      2.615      3.792    21.7334 0.0000e+00
      2.668      0.028     0.1889      2.356     52.759  49.064859    10.1897      7.484   210.3527 2.9815e+01    14.2319      2.617      3.795    21.7428 0.0000e+00
      2.672      0.031     0.1942      2.372     53.190  49.215919    10.1668      7.484   210.3478 2.9530e+01    14.3009      2.617      3.796    21.7537 0.0000e+00
      2.683      0.031     0.2021      2.332     52.003  47.936191    10.1130      7.484   210.3109 2.8693e+01    14.2296      2.628      3.811    21.7538 0.0000e+00
      2.699      0.029     0.2029      2.234     51.303  47.241966     9.5806      7.484   210.2501 2.7909e+01    14.1560      2.648      3.841    21.7155 0.0000e+00
      2.711      0.025     0.2085      2.086     51.562  47.488389     8.6316      7.485   210.1292 2.7733e+01    14.1621      2.662      3.861    21.5398 0.0000e+00
      2.714      0.021     0.2130      1.915     52.552  48.376192     8.1276      7.485   209.8818 2.7984e+01    14.2350      2.664      3.864    21.2224 0.0000e+00
      2.712      0.016     0.2092      1.769     53.612  49.278349     8.0892      7.485   209.5814 2.8316e+01    14.2854      2.660      3.858    21.0198 0.0000e+00
      2.711      0.013     0.2007      1.658     54.009  49.571058     8.0920      7.485   209.4225 2.8416e+01    14.4642      2.657      3.854    21.0221 0.0000e+00
      2.714      0.013     0.1871      1.583     53.819  49.375551     8.0945      7.486   209.3373 2.8149e+01    14.7921      2.660      3.858    21.0617 0.0000e+00
      2.720      0.015     0.1689      1.543     53.671  49.263699     8.0865      7.486   209.2398 2.7766e+01    14.9699      2.668      3.868    21.0457 0.0000e+00
      2.728      0.017     0.1571      1.533     53.901  49.488549     8.0791      7.485   209.1900 2.7491e+01    15.0431      2.675      3.880    20.9548 0.0000e+00
      2.734      0.018     0.1469      1.534     54.277  49.808482     8.0291      7.483   209.0796 2.7386e+01    15.1651      2.682      3.890    20.8636 0.0000e+00
      2.737      0.017     0.1405      1.531     54.494  49.957286     7.9238      7.481   208.8513 2.7393e+01    15.2835      2.685      3.894    20.8487 0.0000e+00
      2.739      0.016     0.1369      1.546     54.625  50.017780     7.8547      7.478   208.5806 2.7363e+01    15.3131      2.686      3.896    20.8935 0.0000e+00
      2.742      0.016     0.1359      1.556     54.968  50.285844     7.8340      7.475   208.3881 2.7238e+01    15.2835      2.689      3.900    20.9219 0.0000e+00
      2.747      0.016     0.1386      1.541     55.536  50.785530     7.7986      7.472   208.2438 2.7070e+01    15.2670      2.694      3.907    20.8832 0.0000e+00
      2.752      0.017     0.1348      1.523     55.983  51.170201     7.7518      7.468   208.1266 2.6925e+01    15.3181      2.699      3.914    20.8362 0.0000e+00
      2.756      0.018     0.1389      1.511     56.128  51.254000     7.7340      7.466   208.0895 2.6810e+01    15.4233      2.704      3.922    20.7753 0.0000e+00
      2.761      0.018     0.1409      1.502     56.225  51.290692     7.7084      7.463   208.0539 2.6683e+01    15.4116      2.707      3.926    20.7205 0.0000e+00
      2.766      0.018     0.1376      1.491     56.360  51.359765     7.4497      7.459   208.0403 2.6557e+01    15.3136      2.713      3.934    20.7195 0.0000e+00
      2.771      0.017     0.1363      1.473     56.405  51.327101     7.0042      7.456   208.0963 2.6480e+01    15.2626      2.718      3.943    20.7119 0.0000e+00
      2.775      0.015     0.1353      1.448     56.562  51.403643     6.7827      7.456   208.0433 2.6436e+01    15.2733      2.722      3.948    20.6495 0.0000e+00
      2.779      0.014     0.1350      1.417     56.935  51.713643     6.7687      7.454   207.7436 2.6424e+01    15.3758      2.725      3.952    20.6028 0.0000e+00
      2.782      0.014     0.1342      1.388     57.291  52.027273     6.7352      7.452   207.3976 2.6433e+01    15.4421      2.729      3.957    20.5743 0.0000e+00
      2.786      0.015     0.1327      1.372     57.517  52.211193     6.5438      7.451   207.0439 2.6428e+01    15.4947      2.732      3.962    20.4908 0.0000e+00
      2.788      0.016     0.1308      1.361     57.703  52.349842     6.2277      7.450   206.5645 2.6368e+01    15.6701      2.734      3.965    20.4168 0.0000e+00
      2.792      0.017     0.1278      1.354     57.751  52.370087     6.0759      7.450   205.9897 2.6212e+01    15.8201      2.737      3.969    20.4041 0.0000e+00
      2.797      0.017     0.1243      1.348     57.507  52.138424     6.0902      7.450   205.0844 2.5968e+01    15.8737      2.742      3.977    20.4089 0.0000e+00
      2.803      0.017     0.1240      1.350     57.167  51.834855     6.1266      7.450   203.5330 2.5693e+01    15.7719      2.749      3.986    20.3876 0.0000e+00
      2.809      0.017     0.1225      1.363     56.981  51.684225     6.1654      7.449   201.2560 2.5487e+01    15.5118      2.755      3.996    20.3521 0.0000e+00
      2.813      0.017     0.1225      1.368     57.205  51.904700     6.1764      7.446   198.4623 2.5356e+01    15.3251      2.759      4.002    20.3327 0.0000e+00
      2.815      0.016     0.1214      1.356     57.821  52.468572     6.1260      7.444   195.3943 2.5184e+01    15.2903      2.760      4.003    20.3225 0.0000e+00
      2.818      0.014     0.1213      1.330     58.391  52.977322     5.6820      7.442   192.2090 2.4949e+01    15.5010      2.763      4.007    20.3253 0.0000e+00
      2.822      0.014     0.1235      1.320     59.462  53.928306     4.8940      7.440   189.2035 2.4702e+01    15.9605      2.767      4.014    20.3483 0.0000e+00
      2.826      0.014     0.1238      1.347     61.559  55.774254     4.4807      7.438   186.7591 2.4444e+01    16.2684      2.772      4.021    20.3676 0.0000e+00
      2.830      0.015     0.1234      1.390     63.411  57.322918     4.4466      7.435   184.9376 2.4201e+01    16.2867      2.776      4.026    20.3716 0.0000e+00
      2.833      0.015     0.1194      1.410     64.125  57.790805     4.3899      7.431   183.3553 2.3967e+01    16.2840      2.780      4.030    20.3614 0.0000e+00
      2.836      0.015     0.1175      1.397     64.165  57.683713     4.2952      7.427   181.8243 2.3705e+01    16.3724      2.782      4.035    20.3491 0.0000e+00
      2.841      0.014     0.1210      1.374     64.096  57.552329     4.2502      7.424   180.3645 2.3462e+01    16.4673      2.786      4.041    20.3239 0.0000e+00
      2.846      0.013     0.1271      1.367     64.255  57.663103     4.2532      7.420   179.1277 2.3283e+01    16.5428      2.792      4.049    20.2165 0.0000e+00
      2.849      0.013     0.1294      1.387     64.600  57.943211     4.1409      7.417   178.1407 2.3180e+01    16.7391      2.794      4.053    20.0411 0.0000e+00
      2.852      0.013     0.1272      1.393     64.866  58.144202     3.8985      7.415   177.2074 2.3161e+01    17.0303      2.797      4.056    19.9183 0.0000e+00
      2.854      0.012     0.1250      1.366     64.887  58.124105     3.7443      7.412   176.1885 2.3225e+01    17.1595      2.799      4.059    19.8819 0.0000e+00
      2.857      0.012     0.1226      1.338     64.729  57.954251     3.7167      7.409   175.0282 2.3319e+01    17.1741      2.801      4.063    19.8682 0.0000e+00
      2.861      0.012     0.1274      1.320     64.575  57.805513     3.7147      7.406   173.8462 2.3400e+01    17.1722      2.805      4.069    19.8453 0.0000e+00
      2.864      0.013     0.1289      1.304     64.484  57.723138     3.7198      7.404   172.6517 2.3461e+01    17.1031      2.808      4.073    19.8158 0.0000e+00
      2.867      0.013     0.1242      1.280     64.412  57.656981     3.7284      7.402   171.5135 2.3429e+01    17.0226      2.812      4.078    19.7808 0.0000e+00
      2.871      0.013     0.1219      1.259     64.394  57.640797     3.7269      7.400   170.4954 2.3328e+01    16.9839      2.815      4.083    19.7556 0.0000e+00
      2.874      0.012     0.1205      1.256     64.404  57.654494     3.7199      7.399   169.3754 2.3225e+01    16.9770      2.817      4.086    19.7507 0.0000e+00
      2.877      0.012     0.1196      1.258     64.299  57.568520     3.7437      7.399   168.1251 2.3061e+01    16.9047      2.821      4.092    19.7548 0.0000e+00
      2.881      0.012     0.1171      1.264     64.047  57.363531     3.7972      7.397   166.9072 2.2856e+01    16.7931      2.825      4.097    19.7510 0.0000e+00
      2.884      0.012     0.1138      1.278     63.765  57.145072     3.8345      7.394   165.5769 2.2689e+01    16.7889      2.828      4.101    19.7492 0.0000e+00
      2.886      0.012     0.1149      1.281     63.665  57.086793     3.8531      7.392   164.0858 2.2501e+01    16.7853      2.830      4.104    19.7558 0.0000e+00
      2.889      0.012     0.1150      1.281     63.809  57.230585     3.9311      7.389   162.6448 2.2260e+01    16.6815      2.833      4.109    19.7582 0.0000e+00
      2.892      0.013     0.1142      1.289     64.310  57.676848     4.0776      7.385   161.3173 2.2005e+01    16.5923      2.836      4.113    19.7722 0.0000e+00
      2.895      0.013     0.1178      1.289     65.297  58.544336     4.1766      7.383   160.1674 2.1721e+01    16.5617      2.838      4.117    19.8049 0.0000e+00
      2.899      0.014     0.1167      1.289     66.215  59.334533     4.1957      7.382   159.2377 2.1395e+01    16.5846      2.842      4.123    19.8354 0.0000e+00
      2.903      0.014     0.1161      1.304     66.636  59.671880     4.1586      7.382   158.5085 2.1026e+01    16.6301      2.846      4.129    19.8456 0.0000e+00
      2.907      0.015     0.1183      1.309     67.127  60.082172     4.0945      7.380   157.8902 2.0638e+01    16.5991      2.851      4.135    19.8406 0.0000e+00
      2.910      0.016     0.1178      1.304     68.021  60.864852     4.0619      7.378   157.2676 2.0282e+01    16.5169      2.854      4.139    19.8297 0.0000e+00
      2.913      0.016     0.1165      1.309     68.916  61.638882     4.0558      7.378   156.5730 1.9909e+01    16.4907      2.856      4.142    19.8040 0.0000e+00
      2.917      0.016     0.1199      1.319     69.594  62.198483     4.0127      7.377   155.7730 1.9461e+01    16.3507      2.860      4.148    19.7648 0.0000e+00
      2.922      0.016     0.1204      1.323     70.045  62.548309     3.9396      7.376   154.9942 1.8997e+01    16.0544      2.866      4.156    19.7422 0.0000e+00
      2.927      0.016     0.1181      1.320     70.470  62.882467     3.9131      7.376   154.2982 1.8579e+01    15.8803      2.872      4.165    19.7399 0.0000e+00
      2.931      0.015     0.1195      1.312     70.921  63.252535     3.9162      7.375   153.6385 1.8208e+01    15.8503      2.876      4.170    19.7214 0.0000e+00
      2.934      0.014     0.1209      1.302     71.048  63.337651     3.8860      7.373   153.0412 1.7849e+01    15.8633      2.877      4.173    19.6835 0.0000e+00
      2.937      0.014     0.1212      1.295     71.368  63.593899     3.8390      7.372   152.4960 1.7465e+01    15.8660      2.881      4.178    19.6419 0.0000e+00
      2.940      0.014     0.1210      1.295     72.208  64.317480     3.8319      7.371   151.9504 1.7068e+01    15.8482      2.883      4.182    19.6077 0.0000e+00
      2.943      0.015     0.1203      1.294     73.035  65.033589     3.8584      7.370   151.4347 1.6688e+01    15.8188      2.887      4.187    19.5887 0.0000e+00
      2.948      0.016     0.1192      1.288     74.031  65.898261     3.9256      7.369   150.9932 1.6363e+01    15.6815      2.891      4.193    19.5701 0.0000e+00
      2.953      0.016     0.1184      1.297     75.265  66.956191     4.0281      7.369   150.4847 1.6095e+01    15.4530      2.896      4.200    19.5473 0.0000e+00
      2.958      0.015     0.1187      1.305     76.558  68.038772     4.0828      7.369   149.9327 1.5786e+01    15.3095      2.900      4.206    19.5310 0.0000e+00
      2.963      0.014     0.1198      1.290     77.950  69.200850     4.0878      7.368   149.4808 1.5416e+01    15.2792      2.905      4.214    19.5169 0.0000e+00
      2.966      0.014     0.1168      1.281     79.155  70.202589     4.0881      7.367   148.8918 1.5109e+01    15.2572      2.909      4.220    19.5072 0.0000e+00
      2.968      0.014     0.1190      1.296     80.193  71.062103     4.1365      7.367   148.1462 1.4894e+01    15.1807      2.911      4.222    19.4850 0.0000e+00
      2.970      0.015     0.1217      1.312     81.132  71.838763     4.2314      7.366   147.4349 1.4660e+01    15.0369      2.912      4.224    19.4317 0.0000e+00
      2.973      0.018     0.1180      1.307     81.694  72.283413     4.2787      7.364   146.6579 1.4313e+01    14.9190      2.914      4.226    19.3812 0.0000e+00
      2.978      0.022     0.1171      1.287     81.988  72.497332     4.2587      7.362   145.8938 1.3896e+01    14.8484      2.919      4.235    19.3405 0.0000e+00
      2.985      0.026     0.1191      1.267     82.048  72.518213     4.1649      7.359   145.3377 1.3502e+01    14.6272      2.928      4.246    19.3004 0.0000e+00
      2.992      0.028     0.1222      1.257     81.941  72.408695     4.0267      7.357   144.8383 1.3118e+01    14.2939      2.935      4.255    19.2693 0.0000e+00
      3.001      0.030     0.1212      1.272     82.271  72.698712     3.9606      7.355   144.1570 1.2761e+01    14.1661      2.942      4.268    19.2346 0.0000e+00
      3.010      0.033     0.1185      1.302     83.020  73.354987     3.9656      7.353   143.2947 1.2533e+01    14.1757      2.952      4.282    19.2035 0.0000e+00
      3.017      0.036     0.1172      1.312     84.634  74.749778     3.9365      7.351   142.3284 1.2387e+01    13.8290      2.958      4.291    19.1858 0.0000e+00
      3.025      0.039     0.1151      1.312     85.949  75.830776     3.8587      7.349   141.4216 1.2209e+01    13.1511      2.965      4.302    19.1729 0.0000e+00
      3.034      0.040     0.1166      1.314     85.167  75.044921     3.7995      7.346   140.6764 1.2001e+01    12.7427      2.975      4.316    19.1799 0.0000e+00
      3.047      0.039     0.1218      1.297     84.037  74.021750     3.7779      7.344   139.9433 1.1704e+01    12.6147      2.986      4.331    19.1773 0.0000e+00
      3.062      0.035     0.1218      1.280     82.979  73.123441     3.7898      7.341   139.1828 1.1444e+01    12.1156      3.005      4.357    19.1691 0.0000e+00
      3.074      0.029     0.1203      1.289     82.084  72.383791     3.8264      7.340   138.3643 1.1386e+01    11.2857      3.018      4.377    19.1217 0.0000e+00
      3.079      0.023     0.1235      1.290     82.744  73.024679     3.8538      7.339   137.2742 1.1396e+01    10.9142      3.020      4.380    19.0238 0.0000e+00
      3.080      0.016     0.1203      1.270     84.399  74.515741     3.8552      7.338   135.8977 1.1397e+01    10.9721      3.022      4.382    19.0241 0.0000e+00
      3.081      0.010     0.1165      1.264     86.230  76.108987     3.8757      7.336   134.4542 1.1347e+01    11.3372      3.021      4.382    19.0609 0.0000e+00
      3.083      0.005     0.1201      1.273     87.706  77.348428     3.9361      7.334   132.9848 1.1233e+01    12.0147      3.023      4.384    19.0776 0.0000e+00
      3.085      0.003     0.1207      1.276     88.316  77.803265     3.9609      7.330   131.6395 1.1140e+01    12.4002      3.026      4.389    19.1309 0.0000e+00
      3.086      0.003     0.1162      1.270     88.386  77.793485     3.9421      7.328   130.6649 1.1079e+01    12.4798      3.027      4.391    19.1536 0.0000e+00
      3.086      0.004     0.1165      1.269     88.802  78.120236     3.9174      7.325   129.8048 1.1043e+01    12.4305      3.027      4.390    19.1346 0.0000e+00
      3.086      0.006     0.1179      1.271     89.994  79.146954     3.8793      7.321   128.8966 1.1002e+01    12.2142      3.026      4.388    19.0962 0.0000e+00
      3.086      0.008     0.1189      1.267     91.474  80.415220     3.8478      7.319   128.0306 1.0902e+01    12.0849      3.026      4.388    19.0402 0.0000e+00
      3.088      0.010     0.1174      1.273     92.844  81.563722     3.8362      7.316   127.1630 1.0747e+01    12.0626      3.028      4.392    18.9949 0.0000e+00
      3.093      0.013     0.1171      1.270     94.263  82.731386     3.8301      7.313   126.1504 1.0584e+01    11.9786      3.033      4.399    18.9766 0.0000e+00
      3.098      0.018     0.1195      1.261     95.860  84.039882     3.7992      7.310   124.9936 1.0448e+01    11.4794      3.039      4.408    18.9720 0.0000e+00
      3.102      0.022     0.1158      1.270     97.260  85.173262     3.7538      7.306   124.0168 1.0344e+01    10.6385      3.043      4.413    18.9560 0.0000e+00
      3.106      0.025     0.1194      1.285     98.089  85.813157     3.7388      7.304   123.3742 1.0216e+01    10.1804      3.045      4.416    18.9248 0.0000e+00
      3.112      0.025     0.1184      1.295     98.665  86.243004     3.7596      7.301   122.6443 9.9784e+00    10.1421      3.049      4.423    18.8824 0.0000e+00
      3.123      0.026     0.1160      1.296     99.163  86.617522     3.9554      7.298   121.3005 9.7035e+00    10.2097      3.062      4.441    18.8311 0.0000e+00
      3.133      0.026     0.1186      1.297     99.693  87.033665     4.3001      7.295   119.5163 9.5792e+00    10.3152      3.076      4.461    18.7803 0.0000e+00
      3.138      0.026     0.1195      1.303    100.220  87.457813     4.4736      7.293   117.6771 9.5578e+00    10.3931      3.078      4.465    18.7362 0.0000e+00
      3.142      0.025     0.1217      1.306    100.573  87.738263     4.4962      7.292   115.9272 9.4434e+00    10.5023      3.078      4.465    18.6984 0.0000e+00
      3.148      0.023     0.1207      1.309    101.350  88.388916     4.7480      7.291   114.3611 9.2539e+00    11.7034      3.086      4.476    18.6667 0.0000e+00
      3.155      0.023     0.1208      1.303    102.504  89.344868     5.2127      7.290   112.8522 9.1252e+00    13.9841      3.095      4.489    18.6452 0.0000e+00
      3.160      0.024     0.1222      1.289    103.371  90.008481     5.4617      7.289   111.2777 9.0115e+00    15.3971      3.098      4.493    18.6268 0.0000e+00
      3.166      0.025     0.1216      1.286    104.207  90.623178     5.5200      7.289   109.7786 8.8549e+00    17.1381      3.104      4.502    18.6133 0.0000e+00
      3.172      0.027     0.1228      1.290    105.112  91.305451     5.9255      7.289   108.5786 8.7329e+00    34.7619      3.112      4.513    18.6053 0.0000e+00
      3.177      0.027     0.1226      1.295    105.842  91.831678     6.6448      7.289   107.6961 8.5975e+00    67.0130      3.116      4.519    18.5866 0.0000e+00
      3.185      0.027     0.1196      1.297    106.651  92.404586     7.0084      7.289   106.9373 8.3539e+00    84.4826      3.121      4.528    18.5374 0.0000e+00
      3.195      0.026     0.1207      1.300    107.507  93.014777     6.8932      7.288   106.0293 8.1095e+00    84.9229      3.133      4.544    18.4730 0.0000e+00
      3.203      0.023     0.1210      1.300    108.038  93.355401     5.4433      7.288   104.9778 7.9770e+00    72.9169      3.143      4.558    18.4282 0.0000e+00
      3.208      0.020     0.1217      1.295    108.291  93.468646     2.7943      7.288   103.8591 7.9007e+00    50.7136      3.147      4.564    18.3841 0.0000e+00
      3.212      0.015     0.1219      1.285    108.503  93.556669     1.3490      7.288   102.4844 7.8319e+00    38.5698      3.151      4.568    18.3164 0.0000e+00
      3.214      0.010     0.1223      1.282    108.637  93.592346     1.2025      7.287   100.9181 7.7852e+00    36.7296      3.153      4.571    18.2528 0.0000e+00
      3.215      0.007     0.1229      1.282    108.524  93.454476     0.8899      7.287    99.2033 7.7478e+00    27.7805      3.153      4.573    18.1994 0.0000e+00
      3.216      0.005     0.1223      1.272    108.311  93.289550     0.3157      7.288    97.3233 7.6964e+00    11.4946      3.154      4.575    18.1496 0.0000e+00
      3.217      0.003     0.1212      1.259    108.197  93.252682    -0.0061      7.288    95.4816 7.6403e+00     2.5886      3.155      4.575    18.1074 0.0000e+00
      3.218      0.003     0.1205      1.254    108.134  93.263307    -0.0537      7.287    93.8001 7.5845e+00     1.7052      3.156      4.576    18.0647 0.0000e+00
      3.219      0.002     0.1221      1.262    108.118  93.290847    -0.0768      7.287    92.2207 7.5395e+00     1.2918      3.157      4.578    18.0416 0.0000e+00
      3.219      0.002     0.1202      1.278    108.068  93.267568    -0.0861      7.287    90.5822 7.5030e+00     0.7675      3.157      4.578    18.0534 0.0000e+00
      3.220      0.001     0.1184      1.283    107.863  93.109129    -0.0736      7.287    89.0459 7.4430e+00     0.5587      3.157      4.579    18.0895 0.0000e+00
      3.220      0.001     0.1182      1.279    107.599  92.902327    -0.0513      7.287    87.6691 7.3691e+00     0.5769      3.158      4.580    18.1247 0.0000e+00
      3.220      0.001     0.1185      1.279    107.466  92.803341    -0.0503      7.288    86.2396 7.3147e+00     0.5095      3.158      4.581    18.1430 0.0000e+00
      3.220      0.001     0.1212      1.281    107.542  92.866769    -0.0612      7.290    84.9258 7.2789e+00     0.3586      3.158      4.580    18.1467 0.0000e+00
      3.220      0.000     0.1215      1.274    107.685  92.969295    -0.0585      7.290    83.6581 7.2388e+00     0.2213      3.158      4.580    18.1559 0.0000e+00
      3.220 2.1862e-08     0.1201      1.273    107.783  93.024869    -0.0586      7.291    82.2691 7.1865e+00     0.1479      3.159      4.582    18.1671 0.0000e+00
      3.220 2.4048e-07     0.1204      1.283    107.917  93.093265    -0.0710      7.292    80.9511 7.1191e+00     0.1196      3.158      4.581    18.1765 0.0000e+00
      3.220 5.9610e-07     0.1215      1.278    108.089  93.159906    -0.0746      7.294    79.6814 7.0435e+00     0.1523      3.158      4.580    18.1776 0.0000e+00
      3.220      0.000     0.1202      1.263    108.251  93.194203    -0.0694      7.295    78.3605 6.9841e+00     0.2353      3.158      4.581    18.1616 0.0000e+00
      3.220      0.000     0.1188      1.261    108.425  93.253282    -0.0581      7.297    77.1110 6.9243e+00     0.3033      3.158      4.580    18.1518 0.0000e+00
      3.221      0.001     0.1222      1.265    108.545  93.301427    -0.0378      7.298    76.0172 6.8439e+00     0.3260      3.159      4.582    18.1349 0.0000e+00
      3.221      0.001     0.1213      1.273    108.614  93.330837    -0.0401      7.299    75.0303 6.7659e+00     0.2368      3.159      4.582    18.0952 0.0000e+00
      3.221      0.001     0.1182      1.279    108.654  93.354322    -0.0534      7.300    74.5573 6.7031e+00     0.1475      3.159      4.582    18.0376 0.0000e+00
      3.221 -9.990e-29     0.1197 -9.990e-29 -9.990e-29 -9.990e-29 -9.990e-29 -9.990e-29 -9.990e-29 6.6488e+00 -9.990e-29      3.159      4.581    17.9911 0.0000e+00
      3.221 -9.990e-29     0.1196 -9.990e-29 -9.990e-29 -9.990e-29 -9.990e-29 -9.990e-29 -9.990e-29 6.5899e+00 -9.990e-29      3.159      4.582    17.9710 0.0000e+00
      3.221 -9.990e-29     0.1203 -9.990e-29 -9.990e-29 -9.990e-29 -9.990e-29 -9.990e-29 -9.990e-29 6.5252e+00 -9.990e-29      3.159      4.582    17.9578 0.0000e+00
      3.221 -9.990e-29     0.1221 -9.990e-29 -9.990e-29 -9.990e-29 -9.990e-29 -9.990e-29 -9.990e-29 6.4932e+00 -9.990e-29      3.160      4.583    17.9509 0.0000e+00
