* Sea-Bird SBE19plus  Data File:
* FileName = C:\DATA\081919_fcr_0003.hex
* Software version 2.8.0.119 SB_Terminal.dll
* Temperature SN = 7809
* Conductivity SN = 7809
* System UpLoad Time = Aug 20 2019 10:48:44
* <ApplicationData>
* <Seaterm232>
* <SoftwareVersion>2.8.0.119</SoftwareVersion>
* <BuildDate>07-Nov-2018</BuildDate>
* </Seaterm232>
* </ApplicationData>
* cast   3 19 Aug 2019 11:17:03 samples 1138 to 1647, avg = 1, stop = mag switch
# nquan = 16
# nvalues = 462                         
# units = specified
# name 0 = depFM: Depth [fresh water, m]
# name 1 = dz/dtM: Descent Rate [m/s]
# name 2 = sbeox0Mg/L: Oxygen, SBE 43 [mg/l]
# name 3 = sbeox0PS: Oxygen, SBE 43 [% saturation]
# name 4 = specc: Specific Conductance [uS/cm]
# name 5 = c0uS/cm: Conductivity [uS/cm]
# name 6 = flECO-AFL: Fluorescence, WET Labs ECO-AFL/FL [mg/m^3]
# name 7 = ph: pH
# name 8 = orp: Oxidation Reduction Potential [mV]
# name 9 = par/sat/log: PAR/Logarithmic, Satlantic
# name 10 = turbWETntu0: Turbidity, WET Labs ECO [NTU]
# name 11 = prdM: Pressure, Strain Gauge [db]
# name 12 = prdE: Pressure, Strain Gauge [psi]
# name 13 = tv290C: Temperature [ITS-90, deg C]
# name 14 = density00: Density [density, kg/m^3]
# name 15 = flag:  0.000e+00
# span 0 =     -0.560,      2.234       
# span 1 =     -0.089,      0.197       
# span 2 =     0.0408,    11.8926       
# span 3 =      0.480,    149.691       
# span 4 =      2.182,     58.984       
# span 5 =   2.324676,  57.126181       
# span 6 =    -0.9896,     5.7617       
# span 7 =      8.194,      9.062       
# span 8 =   171.2247,   459.5705       
# span 9 = 2.2419e+01, 2.1406e+03       
# span 10 =   -11.9882,    31.7540      
# span 11 =     -0.551,      2.191      
# span 12 =     -0.798,      3.178      
# span 13 =    23.3755,    28.3527      
# span 14 =   996.1418,   997.4851      
# span 15 = 0.0000e+00, 0.0000e+00      
# interval = seconds: 0.25
# start_time = Aug 19 2019 11:17:03 [Instrument's time stamp, header]
# bad_flag = -9.990e-29
# <Sensors count="9" >
#   <sensor Channel="1" >
#     <!-- Count, Temperature -->
#     <TemperatureSensor SensorID="58" >
#       <SerialNumber>7809</SerialNumber>
#       <CalibrationDate>24-Mar-19</CalibrationDate>
#       <A0>1.21792325e-003</A0>
#       <A1>2.81669265e-004</A1>
#       <A2>-1.60333336e-006</A2>
#       <A3>1.98414625e-007</A3>
#       <Slope>1.00000000</Slope>
#       <Offset>0.0000</Offset>
#     </TemperatureSensor>
#   </sensor>
#   <sensor Channel="2" >
#     <!-- Frequency 0, Conductivity -->
#     <ConductivitySensor SensorID="3" >
#       <SerialNumber>7809</SerialNumber>
#       <CalibrationDate>24-Mar-19</CalibrationDate>
#       <UseG_J>1</UseG_J>
#       <!-- Cell const and series R are applicable only for wide range sensors. -->
#       <SeriesR>0.0000</SeriesR>
#       <CellConst>2000.0000</CellConst>
#       <ConductivityType>0</ConductivityType>
#       <Coefficients equation="0" >
#         <A>0.00000000e+000</A>
#         <B>0.00000000e+000</B>
#         <C>0.00000000e+000</C>
#         <D>0.00000000e+000</D>
#         <M>0.0</M>
#         <CPcor>-9.57000000e-008</CPcor>
#       </Coefficients>
#       <Coefficients equation="1" >
#         <G>-1.00589325e+000</G>
#         <H>1.26816302e-001</H>
#         <I>-1.51560448e-004</I>
#         <J>2.67137274e-005</J>
#         <CPcor>-9.57000000e-008</CPcor>
#         <CTcor>3.2500e-006</CTcor>
#         <!-- WBOTC not applicable unless ConductivityType = 1. -->
#         <WBOTC>0.00000000e+000</WBOTC>
#       </Coefficients>
#       <Slope>1.00000000</Slope>
#       <Offset>0.00000</Offset>
#     </ConductivitySensor>
#   </sensor>
#   <sensor Channel="3" >
#     <!-- Count, Pressure, Strain Gauge -->
#     <PressureSensor SensorID="46" >
#       <SerialNumber>7809</SerialNumber>
#       <CalibrationDate>11-Mar-19</CalibrationDate>
#       <PA0>4.56561833e-002</PA0>
#       <PA1>4.85095118e-004</PA1>
#       <PA2>-2.88327090e-012</PA2>
#       <PTEMPA0>-5.48784562e+001</PTEMPA0>
#       <PTEMPA1>5.53756816e+001</PTEMPA1>
#       <PTEMPA2>-5.86727098e-001</PTEMPA2>
#       <PTCA0>5.25246745e+005</PTCA0>
#       <PTCA1>1.22304214e+001</PTCA1>
#       <PTCA2>-3.56745036e-001</PTCA2>
#       <PTCB0>2.51668750e+001</PTCB0>
#       <PTCB1>3.75000000e-004</PTCB1>
#       <PTCB2>0.00000000e+000</PTCB2>
#       <Offset>0.000000</Offset>
#     </PressureSensor>
#   </sensor>
#   <sensor Channel="4" >
#     <!-- A/D voltage 0, Oxygen, SBE 43 -->
#     <OxygenSensor SensorID="38" >
#       <SerialNumber>0434</SerialNumber>
#       <CalibrationDate>13-Apr-19</CalibrationDate>
#       <Use2007Equation>1</Use2007Equation>
#       <CalibrationCoefficients equation="0" >
#         <!-- Coefficients for Owens-Millard equation. -->
#         <Boc>0.0000</Boc>
#         <Soc>0.0000e+000</Soc>
#         <offset>0.0000</offset>
#         <Pcor>0.00e+000</Pcor>
#         <Tcor>0.0000</Tcor>
#         <Tau>0.0</Tau>
#       </CalibrationCoefficients>
#       <CalibrationCoefficients equation="1" >
#         <!-- Coefficients for Sea-Bird equation - SBE calibration in 2007 and later. -->
#         <Soc>4.2007e-001</Soc>
#         <offset>-0.6109</offset>
#         <A>-4.3656e-003</A>
#         <B> 1.7017e-004</B>
#         <C>-2.5341e-006</C>
#         <D0> 2.5826e+000</D0>
#         <D1> 1.92634e-004</D1>
#         <D2>-4.64803e-002</D2>
#         <E> 3.6000e-002</E>
#         <Tau20> 1.1800</Tau20>
#         <H1>-3.3000e-002</H1>
#         <H2> 5.0000e+003</H2>
#         <H3> 1.4500e+003</H3>
#       </CalibrationCoefficients>
#     </OxygenSensor>
#   </sensor>
#   <sensor Channel="5" >
#     <!-- A/D voltage 1, PAR/Logarithmic, Satlantic -->
#     <PARLog_SatlanticSensor SensorID="76" >
#       <SerialNumber>1122</SerialNumber>
#       <CalibrationDate>08-May-2019</CalibrationDate>
#       <a0>9.7456e-001</a0>
#       <a1>8.1640e-001</a1>
#       <Im>1.3589e+000</Im>
#       <Multiplier>1.0000e+000</Multiplier>
#     </PARLog_SatlanticSensor>
#   </sensor>
#   <sensor Channel="6" >
#     <!-- A/D voltage 2, pH -->
#     <pH_Sensor SensorID="43" >
#       <SerialNumber>0363</SerialNumber>
#       <CalibrationDate>15-Apr-19</CalibrationDate>
#       <Slope>4.5952</Slope>
#       <Offset>2.5370</Offset>
#     </pH_Sensor>
#   </sensor>
#   <sensor Channel="7" >
#     <!-- A/D voltage 3, Oxidation Reduction Potential -->
#     <OxidationReductionPotentialSensor SensorID="41" >
#       <SerialNumber>0363</SerialNumber>
#       <CalibrationDate>15-Apr-19</CalibrationDate>
#       <B>2.499480</B>
#       <M>-0.496195</M>
#       <Offset>0.0</Offset>
#     </OxidationReductionPotentialSensor>
#   </sensor>
#   <sensor Channel="8" >
#     <!-- A/D voltage 4, Fluorometer, WET Labs ECO-AFL/FL -->
#     <FluoroWetlabECO_AFL_FL_Sensor SensorID="20" >
#       <SerialNumber>FLNTURT-2496</SerialNumber>
#       <CalibrationDate>08-May-2019</CalibrationDate>
#       <ScaleFactor>5.00000000e+001</ScaleFactor>
#       <!-- Dark output -->
#       <Vblank>0.0550</Vblank>
#     </FluoroWetlabECO_AFL_FL_Sensor>
#   </sensor>
#   <sensor Channel="9" >
#     <!-- A/D voltage 5, Turbidity Meter, WET Labs, ECO-NTU -->
#     <TurbidityMeter SensorID="67" >
#       <SerialNumber>FLNTURT-2496</SerialNumber>
#       <CalibrationDate>08-May-2019</CalibrationDate>
#       <ScaleFactor>189.000000</ScaleFactor>
#       <!-- Dark output -->
#       <DarkVoltage>0.071000</DarkVoltage>
#     </TurbidityMeter>
#   </sensor>
# </Sensors>
# datcnv_date = Aug 20 2019 10:51:56, 7.26.7.129 [datcnv_vars = 15]
# datcnv_in = C:\DATA\081919_fcr10.hex C:\DATA\SBE19plusV2_7809.xmlcon
# datcnv_skipover = 0
# datcnv_ox_hysteresis_correction = yes
# datcnv_ox_tau_correction = yes
# filter_date = Aug 20 2019 10:52:12, 7.26.7.129
# filter_in = C:\DATA\081919_fcr10.cnv
# filter_low_pass_tc_A = 0.030
# filter_low_pass_tc_B = 0.150
# filter_low_pass_A_vars = prdM prdE tv290C density00
# filter_low_pass_B_vars = depFM dz/dtM sbeox0Mg/L sbeox0PS specc c0uS/cm flECO-AFL ph orp par/sat/log turbWETntu0
# alignctd_date = Aug 20 2019 10:52:30, 7.26.7.129
# alignctd_in = C:\DATA\081919_fcr10.cnv
# alignctd_adv = dz/dtM 1.000, sbeox0Mg/L 1.000, sbeox0PS 1.000, specc 1.000, c0uS/cm 1.000, flECO-AFL 1.000, ph 1.000, orp 1.000, turbWETntu0 1.000                                                                                 
# file_type = ascii
*END*
     -0.560 6.3329e-07     7.1171     91.436      2.250   2.398924    -0.1559      8.701   459.5705 1.0410e+03    -0.5198     -0.549     -0.796    28.3527   996.1418 0.0000e+00
     -0.559      0.000     7.1246     91.502      2.296   2.447459    -0.0205      8.696   458.3353 1.0988e+03    -0.7898     -0.549     -0.796    28.3451   996.1440 0.0000e+00
     -0.559      0.000     7.1307     91.548      2.266   2.415115     1.4590      8.691   451.2494 1.2210e+03    -3.5731     -0.548     -0.795    28.3365   996.1466 0.0000e+00
     -0.559      0.001     7.1343     91.571      2.182   2.324676     4.1642      8.667   370.8839 1.3304e+03    -8.8063     -0.549     -0.796    28.3294   996.1485 0.0000e+00
     -0.560      0.004     7.1355     91.573      2.342   2.494507     5.6387      8.622   232.1739 1.3809e+03   -11.7276     -0.549     -0.798    28.3185   996.1516 0.0000e+00
     -0.560      0.012     7.1355     91.565      3.898   4.151704     5.7617      8.597   171.2247 1.4079e+03   -11.9882     -0.550     -0.797    28.2968   996.1579 0.0000e+00
     -0.560      0.027     7.1355     91.549      9.813  10.448175     5.6244      8.623   192.1749 1.4389e+03   -11.8263     -0.551     -0.798    28.2738   996.1644 0.0000e+00
     -0.556      0.051     7.1378     91.539     21.107  22.460046     3.9277      8.685   221.7701 1.4984e+03   -10.4913     -0.549     -0.796    28.2601   996.1684 0.0000e+00
     -0.546      0.082     7.1429     91.538     31.947  33.971571     0.8008      8.752   237.7290 1.5826e+03    -8.1360     -0.538     -0.780    28.2525   996.1706 0.0000e+00
     -0.526      0.116     7.1490     91.546     36.940  39.252487    -0.9023      8.802   241.4472 1.6602e+03    -6.7808     -0.523     -0.759    28.2479   996.1719 0.0000e+00
     -0.490      0.148     7.1552     91.556     37.898  40.240276    -0.9896      8.831   242.5491 1.7296e+03    -5.8060     -0.487     -0.707    28.2448   996.1738 0.0000e+00
     -0.438      0.174     7.1632     91.576     37.958  40.265148    -0.2453      8.843   241.5017 1.7700e+03     3.9127     -0.430     -0.623    28.2210   996.1847 0.0000e+00
     -0.381      0.191     7.1780     91.652     37.936  40.187987     1.1520      8.844   238.6778 1.5800e+03    21.7508     -0.374     -0.542    28.1690   996.2039 0.0000e+00
     -0.326      0.197     7.2030     91.824     37.949  40.132515     1.9205      8.844   227.0760 1.4098e+03    31.4287     -0.318     -0.462    28.1233   996.2181 0.0000e+00
     -0.273      0.190     7.2368     92.086     37.994  40.102196     2.0153      8.848   206.5380 1.6561e+03    31.7540     -0.266     -0.386    28.0862   996.2287 0.0000e+00
     -0.224      0.174     7.2765     92.425     38.041  40.075202     2.2459      8.855   194.0090 1.7238e+03    25.6842     -0.219     -0.319    28.0396   996.2423 0.0000e+00
     -0.179      0.158     7.3170     92.800     38.087  40.059946     2.6451      8.860   191.3114 1.3771e+03    14.4074     -0.171     -0.249    27.9703   996.2622 0.0000e+00
     -0.141      0.145     7.3546     93.175     38.117  40.044602     2.8548      8.863   190.1837 1.3156e+03     8.2415     -0.134     -0.194    27.8758   996.2891 0.0000e+00
     -0.113      0.134     7.3889     93.542     38.120  40.016569     2.8736      8.864   189.5800 1.5366e+03     7.6985     -0.110     -0.159    27.7683   996.3196 0.0000e+00
     -0.088      0.123     7.4198     93.885     38.101  39.974885     2.9681      8.864   189.1743 1.5470e+03     7.5786     -0.090     -0.129    27.6609   996.3500 0.0000e+00
     -0.057      0.109     7.4459     94.179     38.067  39.921469     3.1386      8.863   189.0633 1.2693e+03     7.3824     -0.059     -0.085    27.5739   996.3745 0.0000e+00
     -0.020      0.094     7.4638     94.367     38.042  39.878548     3.2271      8.861   189.1845 1.0195e+03     7.2597     -0.016     -0.023    27.5146   996.3913 0.0000e+00
      0.010      0.076     7.4673     94.370     38.020  39.836795     3.2326      8.861   189.2634 8.7518e+02     7.2094      0.014      0.021    27.4768   996.4020 0.0000e+00
      0.027      0.053     7.4598     94.238     37.999  39.797490     3.2214      8.860   189.2422 5.3074e+02     7.1674      0.029      0.043    27.4514   996.4091 0.0000e+00
      0.035      0.027     7.4643     94.273     37.995  39.784184     3.1617      8.859   189.2723 2.6537e+02     6.9479      0.039      0.057    27.4300   996.4151 0.0000e+00
      0.034      0.005     7.5128     94.887     38.012  39.802859     3.0659      8.856   189.4564 2.5237e+02     6.5549      0.036      0.051    27.4084   996.4211 0.0000e+00
      0.027     -0.009     7.6235     96.309     38.031  39.832845     3.0171      8.854   189.5755 2.5413e+02     6.3483      0.026      0.038    27.3830   996.4281 0.0000e+00
      0.017     -0.014     7.7923     98.478     38.012  39.829360     3.0048      8.852   189.5066 2.5525e+02     6.3183      0.015      0.024    27.3576   996.4353 0.0000e+00
      0.008     -0.013     8.0146    101.313     37.997  39.824220     2.9856      8.850   189.4842 2.5941e+02     6.3568      0.005      0.008    27.3425   996.4394 0.0000e+00
      0.005     -0.008     8.2807    104.682     38.005  39.834202     2.9766      8.849   189.6496 2.6104e+02     6.4527      0.002      0.003    27.3438   996.4390 0.0000e+00
      0.009     -0.006     8.5523    108.102     37.999  39.823096     2.9818      8.847   189.8716 2.5636e+02     6.4948      0.008      0.011    27.3605   996.4344 0.0000e+00
      0.014     -0.006     8.7813    110.979     37.999  39.816882     2.9876      8.845   190.0167 2.8031e+02     6.5050      0.014      0.021    27.3848   996.4276 0.0000e+00
      0.016     -0.009     8.9331    112.880     38.011  39.822548     3.0130      8.842   190.1998 5.7457e+02     6.5108      0.016      0.024    27.4035   996.4224 0.0000e+00
      0.013     -0.016     8.9910    113.593     38.023  39.828117     3.0634      8.836   190.3647 8.4083e+02     6.4989      0.015      0.021    27.4042   996.4222 0.0000e+00
      0.004     -0.023     8.9594    113.177     38.022  39.820720     3.0940      8.831   190.3752 5.7920e+02     6.5250      0.005      0.006    27.3931   996.4252 0.0000e+00
     -0.007     -0.028     8.8549    111.847     38.002  39.796584     3.1053      8.827   190.3276 2.9975e+02     6.5639     -0.008     -0.012    27.3844   996.4277 0.0000e+00
     -0.017     -0.029     8.6947    109.822     37.997  39.790214     3.1053      8.824   190.3053 2.8900e+02     6.5437     -0.017     -0.024    27.3766   996.4298 0.0000e+00
     -0.025     -0.029     8.5017    107.388     38.012  39.807176     3.0768      8.822   190.4491 3.9193e+02     6.4774     -0.025     -0.037    27.3673   996.4323 0.0000e+00
     -0.030     -0.027     8.3098    104.971     38.013  39.811224     3.0464      8.818   190.8619 5.0377e+02     6.4505     -0.031     -0.044    27.3577   996.4350 0.0000e+00
     -0.035     -0.022     8.1452    102.898     37.977  39.775683     3.0504      8.812   191.2526 5.1622e+02     6.4804     -0.033     -0.047    27.3513   996.4368 0.0000e+00
     -0.041     -0.016     8.0150    101.258     37.958  39.758353     3.1244      8.806   191.3015 8.5264e+02     6.4457     -0.039     -0.057    27.3513   996.4367 0.0000e+00
     -0.050     -0.008     7.9218    100.088     37.987  39.792135     3.2387      8.802   191.2810 1.5052e+03     6.3263     -0.052     -0.074    27.3544   996.4358 0.0000e+00
     -0.053     -0.000     7.8696     99.439     37.993  39.803254     3.2880      8.802   191.3487 1.8262e+03     6.2490     -0.055     -0.079    27.3583   996.4347 0.0000e+00
     -0.049      0.008     7.8504     99.208     37.953  39.765824     3.2781      8.804   191.3455 1.7959e+03     6.2649     -0.049     -0.070    27.3617   996.4338 0.0000e+00
     -0.043      0.016     7.8437     99.133     37.905  39.720469     3.2060      8.807   191.2421 1.6119e+03     6.3543     -0.042     -0.061    27.3644   996.4330 0.0000e+00
     -0.037      0.021     7.8302     98.971     37.881  39.699254     3.0748      8.809   191.1316 1.3869e+03     6.4775     -0.036     -0.052    27.3681   996.4321 0.0000e+00
     -0.030      0.023     7.8085     98.704     37.879  39.699765     3.0008      8.813   191.2140 1.4359e+03     6.5420     -0.029     -0.042    27.3742   996.4304 0.0000e+00
     -0.022      0.022     7.8059     98.676     37.904  39.726657     2.9883      8.816   191.3783 1.6650e+03     6.5123     -0.022     -0.032    27.3815   996.4284 0.0000e+00
     -0.016      0.019     7.8524     99.266     37.944  39.770487     2.9931      8.819   191.4838 1.7873e+03     6.4783     -0.015     -0.022    27.3878   996.4266 0.0000e+00
     -0.012      0.015     7.9453    100.439     37.959  39.785328     3.0583      8.823   191.6287 1.8147e+03     6.4915     -0.011     -0.016    27.3926   996.4253 0.0000e+00
     -0.009      0.011     8.0593    101.878     37.954  39.779136     3.1700      8.827   191.7539 1.8184e+03     6.5089     -0.008     -0.012    27.3968   996.4242 0.0000e+00
     -0.007      0.007     8.1723    103.298     37.938  39.759104     3.2246      8.830   191.7919 1.8152e+03     6.4912     -0.006     -0.009    27.3991   996.4236 0.0000e+00
     -0.007      0.003     8.2657    104.467     37.919  39.733562     3.2242      8.831   191.8306 1.8112e+03     6.4738     -0.006     -0.009    27.3997   996.4234 0.0000e+00
     -0.007      0.001     8.3286    105.246     37.916  39.724223     3.2427      8.834   191.9638 1.8112e+03     6.4305     -0.006     -0.009    27.3995   996.4234 0.0000e+00
     -0.007      0.000     8.3663    105.702     37.910  39.709658     3.2754      8.836   192.1974 1.8152e+03     6.3275     -0.007     -0.010    27.3982   996.4238 0.0000e+00
     -0.007 2.2689e-08     8.3946    106.036     37.895  39.684408     3.2905      8.838   192.3320 1.8181e+03     6.2774     -0.006     -0.009    27.3949   996.4247 0.0000e+00
     -0.007 2.4958e-07     8.4281    106.437     37.891  39.672841     3.2868      8.840   192.3866 1.8159e+03     6.2838     -0.006     -0.009    27.3879   996.4266 0.0000e+00
     -0.007 2.4930e-07     8.4756    107.018     37.921  39.696756     3.2734      8.842   192.5142 1.8123e+03     6.3396     -0.007     -0.011    27.3791   996.4291 0.0000e+00
     -0.007 1.9285e-08     8.5401    107.816     37.950  39.719622     3.2675      8.843   192.5837 1.8119e+03     6.4594     -0.007     -0.010    27.3685   996.4320 0.0000e+00
     -0.007 -3.541e-08     8.6166    108.766     37.932  39.695373     3.2765      8.844   192.6254 1.8131e+03     6.5526     -0.006     -0.009    27.3547   996.4359 0.0000e+00
     -0.006 -4.102e-07     8.6951    109.744     37.900  39.657485     3.2878      8.846   192.7599 1.8134e+03     6.6153     -0.006     -0.009    27.3423   996.4393 0.0000e+00
     -0.006      0.000     8.7679    110.653     37.890  39.642395     3.3085      8.847   193.0055 1.8143e+03     6.6278     -0.006     -0.008    27.3336   996.4418 0.0000e+00
     -0.006      0.000     8.8307    111.438     37.890  39.639878     3.3350      8.849   193.2725 1.8166e+03     6.5719     -0.006     -0.009    27.3251   996.4441 0.0000e+00
     -0.006     -0.001     8.8793    112.044     37.880  39.627058     3.3483      8.850   193.4065 1.8173e+03     6.5290     -0.006     -0.009    27.3169   996.4465 0.0000e+00
     -0.006     -0.001     8.9101    112.429     37.870  39.614341     3.3565      8.851   193.4209 1.8150e+03     6.5359     -0.006     -0.008    27.3104   996.4483 0.0000e+00
     -0.007     -0.001     8.9232    112.590     37.870  39.613072     3.3915      8.853   193.4468 1.8130e+03     6.4917     -0.007     -0.010    27.3050   996.4497 0.0000e+00
     -0.008     -0.002     8.9205    112.553     37.870  39.611717     3.4498      8.854   193.5469 1.8134e+03     6.3542     -0.008     -0.012    27.3013   996.4507 0.0000e+00
     -0.008     -0.003     8.9038    112.342     37.857  39.597962     3.4803      8.856   193.6845 1.8146e+03     6.2832     -0.008     -0.012    27.2985   996.4515 0.0000e+00
     -0.008     -0.005     8.8732    111.957     37.833  39.573724     3.4746      8.856   193.9059 1.8150e+03     6.2883     -0.008     -0.011    27.2959   996.4522 0.0000e+00
     -0.009     -0.007     8.8319    111.439     37.831  39.572572     3.4671      8.855   194.1596 1.8145e+03     6.2847     -0.008     -0.012    27.2942   996.4526 0.0000e+00
     -0.011     -0.007     8.7887    110.898     37.840  39.584027     3.4855      8.854   194.3421 1.8129e+03     6.3052     -0.009     -0.014    27.2926   996.4532 0.0000e+00
     -0.016     -0.007     8.7494    110.406     37.840  39.585274     3.5236      8.854   194.4784 1.8096e+03     6.3070     -0.015     -0.022    27.2919   996.4534 0.0000e+00
     -0.020     -0.006     8.7096    109.912     37.840  39.587658     3.5381      8.855   194.6027 1.8065e+03     6.2740     -0.020     -0.031    27.2934   996.4528 0.0000e+00
     -0.021     -0.005     8.6574    109.266     37.860  39.612849     3.5307      8.857   194.7268 1.8050e+03     6.2669     -0.021     -0.030    27.2951   996.4524 0.0000e+00
     -0.020     -0.003     8.5833    108.341     37.878  39.635944     3.5470      8.858   194.7744 1.8064e+03     6.3191     -0.019     -0.028    27.2962   996.4522 0.0000e+00
     -0.018     -0.001     8.4897    107.165     37.853  39.612984     3.5792      8.858   194.7479 1.8088e+03     6.4135     -0.017     -0.025    27.2980   996.4516 0.0000e+00
     -0.018      0.001     8.3884    105.889     37.830  39.589155     3.5898      8.859   194.8364 1.8103e+03     6.4584     -0.017     -0.024    27.3024   996.4504 0.0000e+00
     -0.019      0.001     8.2924    104.678     37.841  39.601756     3.5977      8.861   195.0704 1.8115e+03     6.4686     -0.019     -0.027    27.3095   996.4484 0.0000e+00
     -0.020      0.001     8.2078    103.611     37.876  39.638387     3.6829      8.862   195.2542 1.8134e+03     6.5363     -0.020     -0.029    27.3157   996.4467 0.0000e+00
     -0.019      0.002     8.1362    102.709     37.887  39.651168     3.8313      8.864   195.3374 1.8173e+03     6.6542     -0.020     -0.029    27.3184   996.4460 0.0000e+00
     -0.018      0.002     8.0821    102.029     37.865  39.629342     3.9088      8.864   195.3880 1.8202e+03     6.7474     -0.018     -0.026    27.3189   996.4458 0.0000e+00
     -0.017      0.002     8.0438    101.551     37.863  39.628407     3.9010      8.864   195.4361 1.8188e+03     6.7785     -0.017     -0.024    27.3191   996.4457 0.0000e+00
     -0.016      0.002     8.0133    101.169     37.872  39.639865     3.8320      8.864   195.5756 1.8148e+03     6.7677     -0.016     -0.023    27.3197   996.4456 0.0000e+00
     -0.015      0.002     7.9826    100.787     37.871  39.640915     3.7164      8.864   195.7832 1.8103e+03     6.7472     -0.014     -0.021    27.3206   996.4454 0.0000e+00
     -0.015      0.001     7.9436    100.297     37.871  39.641113     3.6572      8.864   195.8817 1.8054e+03     6.7281     -0.014     -0.021    27.3224   996.4448 0.0000e+00
     -0.016      0.000     7.8921     99.648     37.871  39.642267     3.6625      8.865   195.9063 1.8007e+03     6.7330     -0.016     -0.023    27.3250   996.4441 0.0000e+00
     -0.016 2.0641e-08     7.8307     98.874     37.882  39.654869     3.7187      8.867   195.9940 1.7993e+03     6.7077     -0.016     -0.023    27.3276   996.4434 0.0000e+00
     -0.016 2.2705e-07     7.7624     98.014     37.892  39.666514     3.8253      8.869   196.0820 1.8019e+03     6.6193     -0.015     -0.022    27.3298   996.4428 0.0000e+00
     -0.016 2.6086e-07     7.6871     97.066     37.881  39.656106     3.8935      8.869   196.1103 1.8039e+03     6.5817     -0.015     -0.021    27.3315   996.4423 0.0000e+00
     -0.016 4.2940e-07     7.6061     96.045     37.880  39.655991     3.9101      8.870   196.1638 1.8026e+03     6.5812     -0.015     -0.022    27.3327   996.4420 0.0000e+00
     -0.016      0.000     7.5260     95.035     37.889  39.665129     3.9141      8.872   196.2990 1.8001e+03     6.5473     -0.015     -0.021    27.3338   996.4416 0.0000e+00
     -0.016      0.000     7.4496     94.072     37.864  39.639632     3.9158      8.873   196.4543 1.7978e+03     6.5653     -0.015     -0.022    27.3349   996.4414 0.0000e+00
     -0.016      0.001     7.3745     93.125     37.826  39.601627     3.9213      8.875   196.5781 1.7977e+03     6.6675     -0.016     -0.023    27.3359   996.4411 0.0000e+00
     -0.016      0.001     7.3029     92.223     37.811  39.586505     3.9122      8.877   196.6778 1.8002e+03     6.7341     -0.016     -0.023    27.3370   996.4407 0.0000e+00
     -0.015      0.001     7.2354     91.373     37.808  39.583759     3.8832      8.878   196.7996 1.8024e+03     6.7481     -0.014     -0.021    27.3379   996.4406 0.0000e+00
     -0.014      0.000     7.1693     90.539     37.793  39.568419     3.7623      8.879   196.9326 1.8043e+03     6.6399     -0.013     -0.019    27.3390   996.4402 0.0000e+00
     -0.013     -0.004     7.1071     89.754     37.754  39.527999     3.5503      8.880   196.9947 1.8081e+03     6.4094     -0.013     -0.019    27.3400   996.4399 0.0000e+00
     -0.013     -0.009     7.0502     89.035     37.704  39.475925     3.4271      8.879   197.2067 1.8150e+03     6.3209     -0.013     -0.019    27.3407   996.4397 0.0000e+00
     -0.015     -0.018     6.9968     88.362     37.676  39.446653     3.3993      8.877   198.8067 1.8215e+03     6.3564     -0.014     -0.020    27.3419   996.4394 0.0000e+00
     -0.019     -0.033     6.9498     87.772     37.656  39.427997     3.2496      8.876   215.1364 1.8172e+03     6.2488     -0.018     -0.026    27.3425   996.4392 0.0000e+00
     -0.026     -0.055     6.9170     87.378     37.599  39.377312     2.9689      8.875   245.4559 1.8018e+03     6.0033     -0.024     -0.036    27.3438   996.4388 0.0000e+00
     -0.037     -0.078     6.9130     87.369     37.545  39.341694     2.8142      8.864   261.6788 1.7910e+03     5.8453     -0.035     -0.050    27.3439   996.4387 0.0000e+00
     -0.057     -0.089     6.9475     87.839     37.565  39.378257     2.8097      8.840   261.5778 1.7880e+03     5.8460     -0.049     -0.070    27.3444   996.4386 0.0000e+00
     -0.093     -0.085     7.0188     88.745     37.620  39.438536     2.8197      8.820   260.5813 1.7505e+03     6.1761     -0.084     -0.121    27.3429   996.4388 0.0000e+00
     -0.141     -0.070     7.1254     90.080     37.623  39.435722     2.8135      8.813   259.9553 1.5015e+03     6.7234     -0.145     -0.211    27.3506   996.4363 0.0000e+00
     -0.172     -0.049     7.2629     91.808     37.540  39.344225     2.7962      8.812   248.4161 1.1433e+03     6.9576     -0.184     -0.268    27.3881   996.4256 0.0000e+00
     -0.171     -0.026     7.4203     93.792     37.425  39.220967     2.7835      8.813   225.2547 1.1431e+03     6.9428     -0.173     -0.250    27.4174   996.4175 0.0000e+00
     -0.151     -0.004     7.5741     95.733     37.360  39.151530     2.7293      8.818   210.6707 1.1764e+03     6.9381     -0.145     -0.210    27.4133   996.4189 0.0000e+00
     -0.136      0.011     7.6974     97.291     37.349  39.139470     2.6263      8.825   207.3356 8.3950e+02     6.9332     -0.129     -0.186    27.4016   996.4222 0.0000e+00
     -0.131      0.015     7.7810     98.350     37.347  39.138620     2.5695      8.832   205.7514 7.8065e+02     6.9492     -0.125     -0.181    27.3951   996.4240 0.0000e+00
     -0.135      0.010     7.8366     99.060     37.347  39.141257     2.5723      8.839   204.5950 1.1096e+03     6.9676     -0.132     -0.191    27.3923   996.4247 0.0000e+00
     -0.142      0.005     7.8823     99.647     37.311  39.107881     2.5907      8.844   203.6783 1.2532e+03     6.9595     -0.141     -0.204    27.3904   996.4252 0.0000e+00
     -0.145      0.004     7.9243    100.191     37.253  39.052478     2.7397      8.849   202.9278 1.0217e+03     6.8507     -0.145     -0.210    27.3896   996.4254 0.0000e+00
     -0.142      0.006     7.9613    100.669     37.239  39.042716     3.0123      8.854   202.4038 6.3102e+02     6.6362     -0.141     -0.205    27.3913   996.4249 0.0000e+00
     -0.133      0.009     7.9893    101.028     37.248  39.053327     3.1553      8.858   202.0739 6.5529e+02     6.5285     -0.130     -0.189    27.3952   996.4239 0.0000e+00
     -0.127      0.010     8.0053    101.231     37.248  39.053818     3.1690      8.862   201.6927 1.0611e+03     6.5312     -0.123     -0.178    27.4018   996.4221 0.0000e+00
     -0.125      0.009     8.0110    101.303     37.243  39.048661     3.2130      8.866   201.4092 1.2778e+03     6.5704     -0.122     -0.177    27.4096   996.4200 0.0000e+00
     -0.126      0.006     8.0043    101.218     37.249  39.054448     3.2963      8.868   201.2265 1.2635e+03     6.6746     -0.124     -0.179    27.4154   996.4182 0.0000e+00
     -0.127      0.003     7.9820    100.934     37.255  39.060311     3.3531      8.872   200.9466 1.0393e+03     6.7436     -0.125     -0.181    27.4180   996.4175 0.0000e+00
     -0.127      0.002     7.9484    100.508     37.251  39.056061     3.3616      8.877   200.6916 6.7267e+02     6.7160     -0.125     -0.181    27.4182   996.4175 0.0000e+00
     -0.126      0.002     7.9097    100.018     37.261  39.066554     3.3998      8.881   200.4668 5.0879e+02     6.5696     -0.124     -0.179    27.4179   996.4176 0.0000e+00
     -0.124      0.003     7.8677     99.486     37.255  39.060214     3.4849      8.884   200.2929 5.8962e+02     6.3830     -0.122     -0.176    27.4176   996.4177 0.0000e+00
     -0.123      0.003     7.8231     98.921     37.239  39.042888     3.5322      8.888   200.2239 7.9803e+02     6.2951     -0.120     -0.174    27.4167   996.4179 0.0000e+00
     -0.123      0.002     7.7764     98.330     37.244  39.047499     3.5297      8.893   200.1492 1.0271e+03     6.2933     -0.120     -0.175    27.4159   996.4181 0.0000e+00
     -0.123      0.002     7.7255     97.687     37.249  39.052492     3.5238      8.897   200.0780 1.1400e+03     6.3611     -0.120     -0.175    27.4154   996.4183 0.0000e+00
     -0.123      0.002     7.6702     96.988     37.236  39.039778     3.5306      8.900   200.0510 1.1365e+03     6.4600     -0.120     -0.175    27.4150   996.4184 0.0000e+00
     -0.122      0.002     7.6110     96.240     37.218  39.020732     3.5428      8.903   199.9952 1.0805e+03     6.5060     -0.120     -0.174    27.4147   996.4185 0.0000e+00
     -0.122      0.002     7.5483     95.448     37.210  39.012648     3.5496      8.905   199.9193 1.0275e+03     6.5234     -0.120     -0.174    27.4144   996.4185 0.0000e+00
     -0.121      0.003     7.4855     94.656     37.203  39.005514     3.5948      8.909   199.8214 1.0151e+03     6.5072     -0.119     -0.172    27.4146   996.4185 0.0000e+00
     -0.120      0.003     7.4265     93.910     37.195  38.997959     3.6740      8.912   199.7578 1.0438e+03     6.4403     -0.117     -0.170    27.4151   996.4184 0.0000e+00
     -0.120      0.003     7.3728     93.232     37.183  38.984776     3.7015      8.914   199.8383 1.0722e+03     6.4358     -0.117     -0.170    27.4153   996.4183 0.0000e+00
     -0.119      0.004     7.3233     92.605     37.171  38.973076     3.7020      8.915   200.1066 1.0294e+03     6.5187     -0.116     -0.169    27.4158   996.4182 0.0000e+00
     -0.117      0.006     7.2731     91.971     37.181  38.983458     3.7223      8.915   200.3346 9.5019e+02     6.5249     -0.115     -0.166    27.4161   996.4181 0.0000e+00
     -0.116      0.011     7.2226     91.334     37.180  38.983343     3.7301      8.914   200.2724 9.3880e+02     6.4128     -0.113     -0.164    27.4164   996.4180 0.0000e+00
     -0.116      0.018     7.1776     90.765     37.169  38.971687     3.7273      8.913   200.2151 8.7600e+02     6.3096     -0.114     -0.165    27.4164   996.4180 0.0000e+00
     -0.113      0.025     7.1386     90.273     37.167  38.969473     3.7314      8.913   200.5020 8.6289e+02     6.2609     -0.114     -0.164    27.4167   996.4178 0.0000e+00
     -0.105      0.030     7.1028     89.820     37.154  38.956578     3.7283      8.913   201.7622 1.1119e+03     6.2826     -0.105     -0.152    27.4175   996.4177 0.0000e+00
     -0.092      0.032     7.0668     89.366     37.141  38.942728     3.6808      8.913   213.4732 1.3849e+03     6.4411     -0.090     -0.130    27.4181   996.4177 0.0000e+00
     -0.078      0.031     7.0291     88.890     37.127  38.928982     3.5992      8.913   225.5155 1.5531e+03     6.6695     -0.075     -0.108    27.4185   996.4176 0.0000e+00
     -0.068      0.028     6.9946     88.453     37.116  38.917335     3.5487      8.913   217.1016 1.6334e+03     6.7497     -0.065     -0.095    27.4185   996.4177 0.0000e+00
     -0.064      0.021     6.9627     88.051     37.127  38.928866     3.5372      8.913   205.7826 1.6622e+03     6.6900     -0.062     -0.091    27.4187   996.4176 0.0000e+00
     -0.062      0.014     6.9266     87.595     37.139  38.941445     3.5649      8.916   203.7789 1.7324e+03     6.6355     -0.061     -0.089    27.4191   996.4175 0.0000e+00
     -0.060      0.008     6.8851     87.071     37.140  38.942474     3.6237      8.920   203.1137 1.8025e+03     6.5828     -0.059     -0.086    27.4195   996.4173 0.0000e+00
     -0.059      0.005     6.8424     86.531     37.138  38.941309     3.6587      8.923   202.8157 1.8131e+03     6.5444     -0.058     -0.084    27.4196   996.4173 0.0000e+00
     -0.059      0.005     6.8030     86.033     37.124  38.927355     3.6583      8.925   202.6708 1.7836e+03     6.5314     -0.058     -0.084    27.4201   996.4172 0.0000e+00
     -0.059      0.005     6.7702     85.618     37.099  38.900715     3.6283      8.926   202.4804 1.7607e+03     6.5889     -0.058     -0.084    27.4207   996.4170 0.0000e+00
     -0.058      0.005     6.7438     85.285     37.073  38.873120     3.5817      8.926   202.3208 1.7471e+03     6.7157     -0.057     -0.082    27.4210   996.4170 0.0000e+00
     -0.055      0.005     6.7213     85.000     37.048  38.847623     3.5536      8.927   202.2897 1.7364e+03     6.7863     -0.055     -0.079    27.4214   996.4169 0.0000e+00
     -0.053      0.005     6.6982     84.709     37.047  38.846339     3.5488      8.928   202.2761 1.7362e+03     6.7868     -0.052     -0.075    27.4213   996.4168 0.0000e+00
     -0.051      0.005     6.6721     84.380     37.057  38.857601     3.6184      8.929   202.2427 1.7457e+03     6.6565     -0.050     -0.072    27.4215   996.4169 0.0000e+00
     -0.051      0.004     6.6425     84.006     37.056  38.856827     3.7626      8.932   202.1440 1.7557e+03     6.4241     -0.050     -0.072    27.4217   996.4168 0.0000e+00
     -0.051      0.003     6.6085     83.577     37.037  38.836986     3.8449      8.935   202.0290 1.7593e+03     6.3039     -0.050     -0.073    27.4215   996.4168 0.0000e+00
     -0.050      0.003     6.5709     83.102     37.010  38.808141     3.8504      8.937   202.0573 1.7550e+03     6.2843     -0.049     -0.072    27.4219   996.4167 0.0000e+00
     -0.049      0.003     6.5327     82.619     37.026  38.825452     3.8463      8.939   202.1418 1.7470e+03     6.3188     -0.048     -0.070    27.4225   996.4166 0.0000e+00
     -0.048      0.003     6.4961     82.154     37.055  38.855872     3.8480      8.942   202.1036 1.7403e+03     6.4256     -0.047     -0.069    27.4227   996.4165 0.0000e+00
     -0.047      0.004     6.4636     81.744     37.057  38.858543     3.8532      8.944   202.0266 1.7370e+03     6.4941     -0.047     -0.068    27.4229   996.4164 0.0000e+00
     -0.046      0.004     6.4363     81.399     37.056  38.857744     3.8482      8.946   202.0702 1.7364e+03     6.4916     -0.045     -0.066    27.4235   996.4163 0.0000e+00
     -0.045      0.005     6.4128     81.103     37.045  38.846215     3.8485      8.947   202.2007 1.7398e+03     6.4944     -0.045     -0.065    27.4238   996.4162 0.0000e+00
     -0.044      0.005     6.3883     80.793     37.044  38.846112     3.8826      8.948   202.3148 1.7475e+03     6.5598     -0.044     -0.063    27.4239   996.4162 0.0000e+00
     -0.043      0.004     6.3592     80.426     37.054  38.856500     3.9313      8.949   202.3313 1.7554e+03     6.6597     -0.042     -0.061    27.4241   996.4162 0.0000e+00
     -0.041      0.003     6.3287     80.041     37.043  38.844854     3.9516      8.951   202.3139 1.7594e+03     6.7191     -0.040     -0.058    27.4241   996.4162 0.0000e+00
     -0.040      0.003     6.2987     79.662     37.031  38.832263     3.9543      8.953   202.3617 1.7572e+03     6.7532     -0.039     -0.057    27.4243   996.4161 0.0000e+00
     -0.040      0.002     6.2687     79.282     37.030  38.831222     3.9036      8.954   202.4789 1.7518e+03     6.7781     -0.039     -0.057    27.4245   996.4160 0.0000e+00
     -0.040      0.002     6.2398     78.917     37.030  38.832263     3.7898      8.956   202.6128 1.7479e+03     6.7897     -0.039     -0.057    27.4250   996.4159 0.0000e+00
     -0.040      0.001     6.2137     78.587     37.042  38.844844     3.7233      8.957   202.6908 1.7476e+03     6.7961     -0.040     -0.058    27.4255   996.4158 0.0000e+00
     -0.039      0.001     6.1891     78.276     37.053  38.856385     3.7143      8.958   202.7338 1.7510e+03     6.7891     -0.038     -0.056    27.4259   996.4157 0.0000e+00
     -0.039      0.002     6.1649     77.970     37.042  38.844841     3.7420      8.959   202.7019 1.7556e+03     6.7711     -0.038     -0.055    27.4261   996.4156 0.0000e+00
     -0.039      0.002     6.1417     77.678     37.030  38.832236     3.8073      8.959   202.6501 1.7581e+03     6.7426     -0.038     -0.055    27.4260   996.4156 0.0000e+00
     -0.039      0.002     6.1184     77.384     37.029  38.830934     3.8452      8.960   202.7091 1.7566e+03     6.7394     -0.038     -0.055    27.4262   996.4155 0.0000e+00
     -0.038      0.002     6.0935     77.070     37.027  38.829098     3.8437      8.963   202.9001 1.7527e+03     6.7659     -0.037     -0.053    27.4263   996.4156 0.0000e+00
     -0.038      0.003     6.0685     76.753     37.008  38.810031     3.8241      8.966   203.1519 1.7462e+03     6.7670     -0.037     -0.053    27.4266   996.4155 0.0000e+00
     -0.037      0.003     6.0451     76.457     36.990  38.790831     3.7981      8.968   203.2581 1.7379e+03     6.7524     -0.036     -0.053    27.4269   996.4154 0.0000e+00
     -0.036      0.003     6.0224     76.171     36.986  38.787391     3.7815      8.968   203.2376 1.7315e+03     6.7529     -0.036     -0.052    27.4272   996.4153 0.0000e+00
     -0.034      0.004     6.0004     75.892     36.968  38.768443     3.7706      8.969   203.2478 1.7279e+03     6.7734     -0.034     -0.050    27.4276   996.4152 0.0000e+00
     -0.033      0.004     5.9798     75.632     36.953  38.752165     3.7874      8.970   203.2956 1.7289e+03     6.8041     -0.032     -0.047    27.4281   996.4151 0.0000e+00
     -0.032      0.004     5.9594     75.374     36.979  38.781010     3.8292      8.971   203.3851 1.7346e+03     6.7956     -0.032     -0.046    27.4282   996.4150 0.0000e+00
     -0.031      0.004     5.9418     75.150     37.119  38.926765     3.8511      8.972   203.4706 1.7369e+03     6.7696     -0.032     -0.046    27.4283   996.4150 0.0000e+00
     -0.030      0.003     5.9584     75.342     37.433  39.244900     3.8523      8.972   203.4684 1.7331e+03     6.7526     -0.030     -0.044    27.4284   996.4150 0.0000e+00
     -0.029      0.002     6.1375     77.547     37.783  39.580519     3.8433      8.973   203.4444 1.7282e+03     6.7204     -0.029     -0.042    27.4290   996.4148 0.0000e+00
     -0.029      0.002     6.6718     84.197     37.989  39.747160     3.8388      8.974   203.5254 1.7249e+03     6.7742     -0.028     -0.041    27.4289   996.4149 0.0000e+00
     -0.029      0.001     7.6019     95.838     38.079  39.799608     3.8489      8.975   203.6731 1.7239e+03     6.9109     -0.028     -0.041    27.4292   996.4148 0.0000e+00
     -0.029      0.001     8.7214    109.888     38.137  39.833703     3.8538      8.977   203.7676 1.7264e+03     6.9972     -0.029     -0.042    27.4280   996.4153 0.0000e+00
     -0.029      0.001     9.7778    123.156     38.160  39.841953     3.8540      8.977   203.8072 1.7301e+03     6.9981     -0.029     -0.042    27.3850   996.4273 0.0000e+00
     -0.029      0.001    10.6514    134.132     38.163  39.835849     3.8686      8.978   203.8943 1.7314e+03     6.8889     -0.028     -0.041    27.3025   996.4504 0.0000e+00
     -0.028      0.001    11.3053    142.345     38.158  39.823364     3.8924      8.980   204.0457 1.7307e+03     6.7579     -0.028     -0.040    27.2430   996.4669 0.0000e+00
     -0.028      0.001    11.7212    147.560     38.159  39.817964     3.9078      8.981   204.1755 1.7278e+03     6.7259     -0.028     -0.040    27.2132   996.4751 0.0000e+00
     -0.028      0.001    11.8926    149.691     38.182  39.834027     3.9157      8.982   204.2588 1.7234e+03     6.7306     -0.027     -0.039    27.1936   996.4806 0.0000e+00
     -0.028      0.000    11.8439    149.045     38.184  39.827117     3.9444      8.982   204.2786 1.7198e+03     6.7170     -0.027     -0.039    27.1831   996.4836 0.0000e+00
     -0.028     -0.002    11.6609    146.703     38.166  39.797886     3.9953      8.982   204.2435 1.7132e+03     6.6924     -0.027     -0.040    27.1764   996.4854 0.0000e+00
     -0.028     -0.004    11.4462    143.968     38.176  39.797992     4.0198      8.982   204.2640 1.6911e+03     6.6956     -0.027     -0.039    27.1682   996.4875 0.0000e+00
     -0.028     -0.004    11.2613    141.627     38.210  39.828378     4.0236      8.982   204.2685 1.6020e+03     6.7555     -0.026     -0.038    27.1586   996.4902 0.0000e+00
     -0.030     -0.003    11.1178    139.831     38.226  39.847872     4.0580      8.981   204.2125 1.5267e+03     6.8273     -0.028     -0.041    27.1467   996.4936 0.0000e+00
     -0.034     -0.002    11.0078    138.473     38.214  39.843245     4.1149      8.981   204.1889 1.6054e+03     6.8751     -0.034     -0.050    27.1300   996.4981 0.0000e+00
     -0.036      0.000    10.9259    137.464     38.201  39.835920     4.1474      8.982   204.2410 1.6746e+03     6.8741     -0.036     -0.052    27.1143   996.5024 0.0000e+00
     -0.034      0.003    10.8672    136.723     38.189  39.822809     4.1564      8.984   204.4122 1.3671e+03     6.8807     -0.033     -0.048    27.1072   996.5044 0.0000e+00
     -0.030      0.005    10.8266    136.200     38.182  39.811674     4.1466      8.986   204.6242 8.3253e+02     6.9559     -0.029     -0.042    27.1108   996.5034 0.0000e+00
     -0.028      0.005    10.7992    135.847     38.201  39.828248     4.1147      8.986   204.7389 7.6411e+02     6.9966     -0.027     -0.039    27.1255   996.4995 0.0000e+00
     -0.026      0.004    10.7805    135.609     38.206  39.832760     4.0918      8.987   204.7666 1.1350e+03     6.9789     -0.025     -0.036    27.1376   996.4962 0.0000e+00
     -0.025      0.002    10.7680    135.448     38.178  39.802746     4.0862      8.988   204.8728 1.3237e+03     6.9715     -0.024     -0.034    27.1340   996.4971 0.0000e+00
     -0.026      0.000    10.7591    135.332     38.161  39.782756     4.0826      8.991   204.9910 1.2670e+03     6.9396     -0.025     -0.036    27.1261   996.4993 0.0000e+00
     -0.028     -0.001    10.7501    135.212     38.161  39.781507     4.0823      8.993   205.0774 1.2982e+03     6.8556     -0.027     -0.039    27.1229   996.5002 0.0000e+00
     -0.028     -0.001    10.7400    135.082     38.168  39.787638     4.0914      8.993   205.1428 1.4603e+03     6.7754     -0.028     -0.041    27.1223   996.5004 0.0000e+00
     -0.027      0.000    10.7290    134.943     38.173  39.793404     4.0974      8.993   205.1797 1.6112e+03     6.7560     -0.027     -0.038    27.1224   996.5003 0.0000e+00
     -0.027      0.001    10.7159    134.777     38.168  39.787741     4.0938      8.994   205.2655 1.7362e+03     6.7528     -0.025     -0.037    27.1194   996.5011 0.0000e+00
     -0.027      0.002    10.7042    134.623     38.166  39.782642     4.0921      8.996   205.3194 1.8041e+03     6.9000     -0.026     -0.038    27.1163   996.5020 0.0000e+00
     -0.026      0.002    10.6995    134.553     38.181  39.795234     4.0935      8.998   205.3147 1.8149e+03     7.2251     -0.026     -0.037    27.1153   996.5022 0.0000e+00
     -0.026      0.001    10.7015    134.566     38.202  39.813020     4.0937      8.998   205.2953 1.8168e+03     7.4064     -0.025     -0.037    27.1153   996.5023 0.0000e+00
     -0.026      0.001    10.7049    134.602     38.198  39.807246     4.0946      8.998   205.3428 1.8134e+03     7.4201     -0.025     -0.037    27.1156   996.5021 0.0000e+00
     -0.025      0.001    10.7071    134.628     38.181  39.788898     4.0871      8.999   205.4586 1.8096e+03     7.3589     -0.025     -0.036    27.1128   996.5029 0.0000e+00
     -0.025      0.001    10.7115    134.684     38.174  39.781623     4.0808      9.000   205.5768 1.8094e+03     7.2564     -0.024     -0.035    27.1071   996.5044 0.0000e+00
     -0.025      0.000    10.7178    134.766     38.174  39.782767     4.0954      9.001   205.6538 1.8075e+03     7.2287     -0.024     -0.035    27.1016   996.5060 0.0000e+00
     -0.025      0.000    10.7204    134.799     38.193  39.802737     4.1170      9.001   205.7014 1.8048e+03     7.2210     -0.024     -0.034    27.0988   996.5068 0.0000e+00
     -0.025     -0.001    10.7176    134.761     38.223  39.832622     4.1597      9.002   205.8079 1.8049e+03     7.0648     -0.024     -0.035    27.0983   996.5070 0.0000e+00
     -0.026     -0.001    10.7147    134.721     38.218  39.826695     4.2305      9.004   205.9095 1.8063e+03     6.8153     -0.025     -0.036    27.0990   996.5067 0.0000e+00
     -0.026     -0.001    10.7183    134.767     38.188  39.794553     4.2709      9.004   205.9834 1.8084e+03     6.6944     -0.026     -0.037    27.1002   996.5064 0.0000e+00
     -0.026     -0.001    10.7291    134.909     38.154  39.761409     4.2668      9.004   206.0990 1.8132e+03     6.7169     -0.025     -0.037    27.1005   996.5063 0.0000e+00
     -0.026      0.000    10.7431    135.093     38.134  39.743367     4.2240      9.004   206.1883 1.8187e+03     6.7924     -0.025     -0.036    27.0996   996.5066 0.0000e+00
     -0.026      0.001    10.7541    135.236     38.155  39.766858     4.1605      9.004   206.2888 1.8197e+03     6.8864     -0.025     -0.036    27.0978   996.5071 0.0000e+00
     -0.026      0.001    10.7597    135.303     38.180  39.791506     4.1413      9.005   206.3674 1.8172e+03     6.9363     -0.025     -0.037    27.0967   996.5074 0.0000e+00
     -0.026      0.001    10.7622    135.325     38.178  39.787456     4.1564      9.005   206.3653 1.8155e+03     6.9371     -0.026     -0.037    27.0996   996.5066 0.0000e+00
     -0.025      0.001    10.7630    135.327     38.175  39.781369     4.1612      9.005   206.4358 1.8145e+03     6.9286     -0.024     -0.035    27.1050   996.5050 0.0000e+00
     -0.024      0.001    10.7633    135.327     38.177  39.781383     4.1722      9.005   206.5306 1.8133e+03     6.9645     -0.024     -0.034    27.1065   996.5047 0.0000e+00
     -0.024      0.001    10.7628    135.317     38.183  39.787628     4.1942      9.004   206.6508 1.8131e+03     7.0761     -0.023     -0.034    27.1049   996.5051 0.0000e+00
     -0.024      0.000    10.7619    135.306     38.188  39.793395     4.2025      9.004   206.8575 1.8138e+03     7.1643     -0.023     -0.034    27.1012   996.5061 0.0000e+00
     -0.024     -0.001    10.7604    135.291     38.182  39.787629     4.2119      9.004   207.0504 1.8141e+03     7.1786     -0.024     -0.034    27.0965   996.5074 0.0000e+00
     -0.024     -0.001    10.7559    135.237     38.175  39.781384     4.2559      9.004   207.1766 1.8061e+03     7.1827     -0.024     -0.034    27.0946   996.5080 0.0000e+00
     -0.025      0.000    10.7493    135.151     38.176  39.781384     4.3097      9.004   207.1788 1.6886e+03     7.1817     -0.024     -0.035    27.0939   996.5081 0.0000e+00
     -0.025      0.000    10.7398    135.026     38.184  39.787629     4.3242      9.004   207.1632 1.5908e+03     7.1335     -0.026     -0.037    27.0941   996.5080 0.0000e+00
     -0.025      0.000    10.7272    134.862     38.192  39.793396     4.3195      9.003   207.2460 1.7250e+03     7.0913     -0.025     -0.037    27.0960   996.5075 0.0000e+00
     -0.024      0.000    10.7172    134.734     38.187  39.787625     4.2955      9.000   207.4059 1.8547e+03     7.0974     -0.023     -0.033    27.0979   996.5070 0.0000e+00
     -0.024     -0.003    10.7147    134.707     38.179  39.781333     4.2422      8.997   207.5471 1.8596e+03     7.0768     -0.023     -0.034    27.0972   996.5072 0.0000e+00
     -0.024     -0.010    10.7200    134.783     38.176  39.780813     4.2041      8.996   207.5761 1.8276e+03     7.0065     -0.024     -0.035    27.0933   996.5084 0.0000e+00
     -0.024     -0.021    10.7315    134.936     38.174  39.781333     4.1901      8.998   207.5846 1.7860e+03     6.9684     -0.023     -0.033    27.0896   996.5094 0.0000e+00
     -0.026     -0.032    10.7467    135.138     38.176  39.787634     4.1244      8.999   207.6501 1.7914e+03     6.8778     -0.022     -0.032    27.0890   996.5096 0.0000e+00
     -0.036     -0.040    10.7595    135.313     38.178  39.793518     3.9912      8.999   207.9389 1.7866e+03     6.6652     -0.031     -0.046    27.0916   996.5088 0.0000e+00
     -0.055     -0.042    10.7640    135.377     38.171  39.789008     3.9145      8.999   209.4414 1.4678e+03     6.5278     -0.053     -0.077    27.0955   996.5076 0.0000e+00
     -0.075     -0.040    10.7621    135.352     38.179  39.796591     3.9080      8.999   224.2664 1.0313e+03     6.4949     -0.077     -0.112    27.0994   996.5064 0.0000e+00
     -0.089     -0.035    10.7576    135.293     38.204  39.821713     3.9045      8.998   250.3851 9.4258e+02     6.5292     -0.093     -0.133    27.1036   996.5052 0.0000e+00
     -0.093     -0.026    10.7501    135.198     38.221  39.838831     3.8981      8.998   253.2703 8.4509e+02     6.6470     -0.093     -0.134    27.1101   996.5033 0.0000e+00
     -0.092     -0.016    10.7421    135.097     38.196  39.813120     3.8997      9.000   244.1810 6.2591e+02     6.7401     -0.089     -0.129    27.1145   996.5021 0.0000e+00
     -0.092     -0.007    10.7373    135.033     38.151  39.764772     3.9153      9.005   256.2092 7.7418e+02     6.7697     -0.089     -0.129    27.1126   996.5027 0.0000e+00
     -0.094     -0.002    10.7350    134.995     38.151  39.762117     3.9305      9.008   268.9555 1.0656e+03     6.7430     -0.093     -0.134    27.1104   996.5033 0.0000e+00
     -0.097     -0.001    10.7372    135.017     38.171  39.781005     3.9971      9.010   270.4413 8.7941e+02     6.6471     -0.096     -0.139    27.1105   996.5032 0.0000e+00
     -0.097     -0.000    10.7456    135.122     38.192  39.802692     4.1217      9.012   270.5596 5.2262e+02     6.5273     -0.096     -0.140    27.1114   996.5030 0.0000e+00
     -0.095      0.001    10.7542    135.235     38.220  39.833892     4.1980      9.013   270.3004 4.2307e+02     6.4745     -0.093     -0.135    27.1100   996.5033 0.0000e+00
     -0.093      0.003    10.7582    135.290     38.225  39.840834     4.2166      9.015   269.1139 4.1661e+02     6.5005     -0.091     -0.132    27.1052   996.5047 0.0000e+00
     -0.093      0.004    10.7585    135.293     38.208  39.823144     4.2341      9.015   257.9347 4.6601e+02     6.5792     -0.091     -0.131    27.1022   996.5055 0.0000e+00
     -0.092      0.004    10.7574    135.273     38.198  39.810458     4.2538      9.017   236.8322 5.6537e+02     6.6720     -0.091     -0.132    27.1019   996.5056 0.0000e+00
     -0.091      0.007    10.7547    135.233     38.204  39.814404     4.2635      9.020   223.6429 5.6596e+02     6.7060     -0.090     -0.131    27.1046   996.5049 0.0000e+00
     -0.089      0.015    10.7521    135.194     38.199  39.807370     4.2739      9.021   220.2957 4.5475e+02     6.7280     -0.087     -0.125    27.1086   996.5038 0.0000e+00
     -0.089      0.025    10.7511    135.177     38.182  39.788894     4.3097      9.021   218.5598 3.6778e+02     6.8060     -0.089     -0.128    27.1079   996.5039 0.0000e+00
     -0.086      0.035    10.7502    135.171     38.174  39.781448     4.3591      9.023   217.3669 3.7610e+02     6.8945     -0.090     -0.130    27.1038   996.5051 0.0000e+00
     -0.074      0.042    10.7510    135.193     38.170  39.780822     4.3763      9.026   216.2830 7.2425e+02     6.9136     -0.075     -0.109    27.1015   996.5058 0.0000e+00
     -0.054      0.045    10.7540    135.234     38.169  39.781333     4.3703      9.029   215.2634 1.3304e+03     6.9061     -0.051     -0.075    27.0988   996.5067 0.0000e+00
     -0.036      0.044    10.7539    135.221     38.178  39.787623     4.3382      9.031   214.4165 1.3997e+03     6.9029     -0.032     -0.046    27.0952   996.5078 0.0000e+00
     -0.023      0.037    10.7473    135.122     38.189  39.793394     4.2661      9.032   213.7875 1.2131e+03     6.8412     -0.021     -0.030    27.0980   996.5070 0.0000e+00
     -0.016      0.027    10.7384    135.001     38.187  39.787617     4.2176      9.032   213.3359 1.5044e+03     6.7498     -0.015     -0.021    27.1048   996.5052 0.0000e+00
     -0.012      0.016    10.7317    134.907     38.183  39.781254     4.2123      9.033   212.9145 1.6374e+03     6.6832     -0.011     -0.015    27.1080   996.5043 0.0000e+00
     -0.012      0.006    10.7267    134.828     38.187  39.779939     4.2540      9.036   212.3924 1.5533e+03     6.6258     -0.012     -0.017    27.1019   996.5059 0.0000e+00
     -0.014      0.001    10.7260    134.798     38.185  39.771704     4.3316      9.038   211.9276 1.8029e+03     6.5809     -0.014     -0.020    27.0918   996.5087 0.0000e+00
     -0.015     -0.002    10.7344    134.882     38.166  39.745155     4.3782      9.040   211.7678 2.0386e+03     6.5658     -0.014     -0.020    27.0897   996.5093 0.0000e+00
     -0.016     -0.003    10.7505    135.067     38.140  39.712859     4.3923      9.041   211.7513 2.0770e+03     6.5415     -0.015     -0.022    27.0883   996.5098 0.0000e+00
     -0.017     -0.001    10.7670    135.262     38.130  39.698614     4.3980      9.039   211.5563 2.0942e+03     6.6149     -0.016     -0.023    27.0805   996.5119 0.0000e+00
     -0.018      0.004    10.7784    135.403     38.132  39.699873     4.4130      9.038   211.2162 2.1181e+03     6.8306     -0.017     -0.026    27.0708   996.5145 0.0000e+00
     -0.019      0.010    10.7850    135.504     38.154  39.728082     4.4441      9.038   210.9957 2.1406e+03     6.9538     -0.019     -0.028    27.0623   996.5168 0.0000e+00
     -0.017      0.017    10.7927    135.634     38.199  39.785770     4.4626      9.040   210.9545 2.1079e+03     6.9570     -0.019     -0.027    27.0541   996.5191 0.0000e+00
     -0.011      0.023    10.8015    135.777     38.228  39.826050     4.4627      9.041   211.0620 1.8850e+03     6.9675     -0.014     -0.019    27.0478   996.5208 0.0000e+00
     -0.000      0.028    10.7983    135.748     38.232  39.834238     4.4274      9.041   211.1777 1.5497e+03     6.9175     -0.000      0.000    27.0464   996.5213 0.0000e+00
      0.010      0.030    10.7834    135.556     38.222  39.821297     4.3656      9.041   211.4924 1.3795e+03     6.8115      0.011      0.017    27.0534   996.5195 0.0000e+00
      0.019      0.029    10.7747    135.434     38.202  39.796539     4.3396      9.042   213.2328 1.3580e+03     6.7665      0.018      0.027    27.0706   996.5148 0.0000e+00
      0.027      0.028    10.7790    135.473     38.199  39.788807     4.3479      9.043   222.7556 1.3621e+03     6.7671      0.028      0.041    27.0866   996.5105 0.0000e+00
      0.032      0.028    10.7896    135.588     38.207  39.791287     4.4138      9.043   237.1515 1.4064e+03     6.7530      0.033      0.048    27.0910   996.5093 0.0000e+00
      0.036      0.033    10.7967    135.658     38.185  39.763035     4.5376      9.043   243.4345 1.4772e+03     6.7265      0.034      0.051    27.0865   996.5104 0.0000e+00
      0.040      0.043    10.7984    135.659     38.132  39.701127     4.6140      9.042   237.7202 1.4947e+03     6.7094      0.037      0.054    27.0807   996.5121 0.0000e+00
      0.050      0.058    10.8046    135.711     38.057  39.614084     4.6260      9.040   224.6746 1.4318e+03     6.7099      0.046      0.067    27.0748   996.5137 0.0000e+00
      0.067      0.076    10.8176    135.836     37.993  39.535854     4.5701      9.041   215.7929 1.4643e+03     6.7661      0.065      0.094    27.0670   996.5160 0.0000e+00
      0.088      0.091    10.8269    135.907     37.988  39.517009     4.4589      9.046   213.6190 1.5192e+03     6.8646      0.084      0.121    27.0594   996.5182 0.0000e+00
      0.117      0.103    10.8212    135.799     37.995  39.513162     4.3993      9.050   212.4998 1.2741e+03     6.9175      0.111      0.161    27.0517   996.5203 0.0000e+00
      0.153      0.109    10.7906    135.398     37.977  39.489324     4.4042      9.054   211.6384 9.4410e+02     6.9467      0.152      0.222    27.0414   996.5233 0.0000e+00
      0.186      0.111    10.7430    134.798     37.972  39.482700     4.5009      9.056   210.9482 8.3363e+02     7.0210      0.186      0.269    27.0258   996.5278 0.0000e+00
      0.211      0.111    10.6927    134.164     37.925  39.433068     4.6844      9.059   210.6077 9.3233e+02     7.1277      0.206      0.299    27.0046   996.5337 0.0000e+00
      0.235      0.106    10.6406    133.486     37.776  39.270112     4.7846      9.061   210.6188 1.0309e+03     7.1887      0.229      0.333    26.9874   996.5385 0.0000e+00
      0.261      0.099    10.5873    132.767     37.627  39.099402     4.7848      9.061   210.6518 9.3729e+02     7.1679      0.256      0.372    26.9819   996.5402 0.0000e+00
      0.289      0.091    10.5357    132.062     37.568  39.019487     4.7819      9.062   210.6633 8.1604e+02     7.0077      0.284      0.412    26.9823   996.5402 0.0000e+00
      0.315      0.082    10.4799    131.321     37.564  39.002117     4.7844      9.062   210.8433 7.7595e+02     6.7270      0.310      0.449    26.9844   996.5398 0.0000e+00
      0.337      0.071    10.4058    130.367     37.586  39.016317     4.7895      9.062   211.1075 7.4930e+02     6.5590      0.333      0.482    26.9763   996.5420 0.0000e+00
      0.352      0.059    10.3033    129.070     37.635  39.064211     4.7909      9.060   211.3630 7.2815e+02     6.5500      0.347      0.503    26.9499   996.5492 0.0000e+00
      0.362      0.047    10.1797    127.521     37.705  39.136830     4.7836      9.057   211.6095 7.2969e+02     6.5520      0.354      0.514    26.9230   996.5567 0.0000e+00
      0.372      0.036    10.0586    126.016     37.759  39.196069     4.7966      9.055   211.6795 7.2744e+02     6.5825      0.364      0.528    26.9053   996.5616 0.0000e+00
      0.380      0.025     9.9628    124.831     37.767  39.209149     4.8357      9.053   211.5200 6.9764e+02     6.6570      0.374      0.542    26.8952   996.5644 0.0000e+00
      0.386      0.012     9.9054    124.127     37.783  39.231516     4.8584      9.053   211.4011 6.5023e+02     6.6989      0.379      0.549    26.8904   996.5657 0.0000e+00
      0.390      0.001     9.8939    123.998     37.822  39.276073     4.8457      9.053   211.6195 6.4924e+02     6.7288      0.384      0.557    26.8894   996.5660 0.0000e+00
      0.390     -0.004     9.9268    124.426     37.782  39.240050     4.7769      9.052   212.1820 6.9703e+02     6.6912      0.385      0.558    26.8956   996.5644 0.0000e+00
      0.383     -0.001     9.9935    125.268     37.718  39.176857     4.6770      9.048   213.0397 6.9658e+02     6.5720      0.378      0.548    26.9038   996.5620 0.0000e+00
      0.372      0.012    10.0787    126.328     37.692  39.146820     4.6353      9.041   213.9023 6.5994e+02     6.4998      0.363      0.527    26.9101   996.5602 0.0000e+00
      0.366      0.034    10.1618    127.358     37.619  39.067305     4.6363      9.034   214.2659 6.3234e+02     6.5066      0.353      0.512    26.9158   996.5587 0.0000e+00
      0.375      0.059    10.2232    128.112     37.537  38.977187     4.6714      9.031   214.4245 6.2950e+02     6.6873      0.364      0.528    26.9256   996.5560 0.0000e+00
      0.400      0.084    10.2574    128.513     37.515  38.945912     4.7477      9.030   214.7008 6.4505e+02     7.0134      0.388      0.562    26.9309   996.5547 0.0000e+00
      0.436      0.103    10.2643    128.566     37.523  38.943071     4.7869      9.030   214.9396 6.1018e+02     7.2053      0.426      0.620    26.9233   996.5570 0.0000e+00
      0.476      0.112    10.2408    128.246     37.531  38.942814     4.7909      9.030   215.1614 5.3976e+02     7.2047      0.471      0.684    26.9178   996.5586 0.0000e+00
      0.507      0.109    10.1907    127.599     37.538  38.942790     4.8478      9.029   215.4034 4.8440e+02     7.1041      0.498      0.722    26.9138   996.5598 0.0000e+00
      0.533      0.099    10.1293    126.813     37.543  38.942778     4.9629      9.029   215.5422 4.4515e+02     7.0047      0.523      0.760    26.9011   996.5634 0.0000e+00
      0.555      0.085    10.0748    126.116     37.547  38.942661     5.0294      9.029   215.5492 4.2750e+02     6.9867      0.547      0.792    26.8839   996.5682 0.0000e+00
      0.574      0.073    10.0364    125.625     37.550  38.941365     5.0286      9.030   215.7461 4.1577e+02     6.9844      0.563      0.817    26.8719   996.5716 0.0000e+00
      0.591      0.066    10.0150    125.347     37.540  38.927097     5.0138      9.031   216.2018 3.9870e+02     6.9111      0.581      0.843    26.8652   996.5735 0.0000e+00
      0.605      0.063    10.0050    125.211     37.514  38.897103     4.9888      9.028   216.7568 3.8342e+02     6.7883      0.595      0.862    26.8571   996.5757 0.0000e+00
      0.616      0.065    10.0008    125.147     37.456  38.832625     4.9686      9.022   217.3803 3.6785e+02     6.7451      0.603      0.876    26.8508   996.5775 0.0000e+00
      0.629      0.073    10.0021    125.146     37.351  38.718805     4.9602      9.015   217.8896 3.4950e+02     6.7501      0.616      0.893    26.8465   996.5787 0.0000e+00
      0.646      0.083    10.0074    125.185     37.245  38.600038     4.9575      9.009   218.2695 3.3452e+02     6.7176      0.631      0.916    26.8414   996.5802 0.0000e+00
      0.668      0.090    10.0100    125.165     37.203  38.539212     4.9614      9.006   218.5318 3.2027e+02     6.7455      0.652      0.946    26.8371   996.5815 0.0000e+00
      0.698      0.094     9.9972    124.927     37.243  38.554641     4.9640      9.004   218.6524 3.0049e+02     6.8573      0.683      0.990    26.8331   996.5827 0.0000e+00
      0.732      0.094     9.9507    124.273     37.307  38.596110     4.9632      9.002   218.7813 2.8391e+02     6.9552      0.719      1.045    26.8256   996.5849 0.0000e+00
      0.759      0.090     9.8502    122.973     37.384  38.659705     4.9683      8.999   219.0576 2.7347e+02     6.9792      0.747      1.085    26.8163   996.5876 0.0000e+00
      0.778      0.083     9.6933    120.977     37.485  38.752230     5.0089      8.994   219.4985 2.6439e+02     6.9510      0.764      1.108    26.7956   996.5933 0.0000e+00
      0.793      0.073     9.5053    118.582     37.573  38.826114     5.0721      8.987   219.8959 2.5584e+02     6.9420      0.776      1.127    26.7529   996.6050 0.0000e+00
      0.808      0.064     9.3143    116.146     37.619  38.854738     5.0919      8.979   220.1624 2.4635e+02     6.9351      0.791      1.148    26.7148   996.6154 0.0000e+00
      0.825      0.059     9.1316    113.828     37.623  38.844376     5.0833      8.972   220.3974 2.3609e+02     6.9001      0.809      1.174    26.7000   996.6196 0.0000e+00
      0.841      0.056     8.9580    111.643     37.615  38.827760     5.0811      8.964   220.6726 2.2733e+02     6.7817      0.825      1.197    26.6878   996.6229 0.0000e+00
      0.855      0.055     8.7977    109.634     37.574  38.780785     5.0644      8.954   221.0802 2.2024e+02     6.5857      0.839      1.217    26.6620   996.6301 0.0000e+00
      0.867      0.056     8.6644    107.960     37.459  38.657263     5.0383      8.943   221.6263 2.1504e+02     6.4965      0.851      1.235    26.6335   996.6379 0.0000e+00
      0.877      0.059     8.5706    106.772     37.352  38.540350     5.0251      8.930   222.1134 2.0964e+02     6.5223      0.860      1.247    26.6134   996.6433 0.0000e+00
      0.891      0.063     8.5181    106.099     37.330  38.509790     5.0524      8.917   222.4104 2.0180e+02     6.7013      0.872      1.264    26.6037   996.6461 0.0000e+00
      0.910      0.067     8.5078    105.955     37.305  38.478192     5.1086      8.904   222.5490 1.9340e+02     7.0221      0.891      1.292    26.6010   996.6469 0.0000e+00
      0.931      0.070     8.5463    106.414     37.248  38.412199     5.1406      8.893   222.7568 1.8547e+02     7.1883      0.913      1.324    26.5955   996.6484 0.0000e+00
      0.952      0.071     8.6323    107.449     37.260  38.410114     5.1444      8.883   223.8040 1.7852e+02     7.1709      0.934      1.355    26.5838   996.6517 0.0000e+00
      0.970      0.069     8.7487    108.846     37.382  38.516445     5.1027      8.877   225.8322 1.7303e+02     7.0406      0.953      1.382    26.5722   996.6549 0.0000e+00
      0.987      0.066     8.8758    110.375     37.624  38.745642     5.0179      8.872   227.6625 1.6838e+02     6.8259      0.968      1.404    26.5661   996.6567 0.0000e+00
      1.002      0.062     8.9931    111.790     37.910  39.023008     4.9685      8.868   228.6404 1.6392e+02     6.7054      0.983      1.426    26.5601   996.6583 0.0000e+00
      1.016      0.060     9.0709    112.719     38.099  39.203914     4.9647      8.863   229.1387 1.5953e+02     6.6982      0.996      1.447    26.5406   996.6636 0.0000e+00
      1.031      0.059     9.0805    112.804     38.189  39.282484     4.9637      8.858   229.3852 1.5511e+02     6.7061      1.010      1.466    26.5097   996.6721 0.0000e+00
      1.046      0.058     9.0109    111.905     38.255  39.338164     4.9486      8.853   229.5553 1.5045e+02     6.7676      1.025      1.487    26.4821   996.6797 0.0000e+00
      1.062      0.056     8.8718    110.143     38.360  39.432753     4.9294      8.848   229.9912 1.4583e+02     6.8841      1.041      1.510    26.4605   996.6857 0.0000e+00
      1.078      0.054     8.6929    107.886     38.476  39.537404     4.9214      8.841   230.5267 1.4185e+02     6.9682      1.059      1.536    26.4431   996.6905 0.0000e+00
      1.091      0.053     8.5099    105.570     38.542  39.587774     4.9133      8.833   230.7808 1.3900e+02     6.9977      1.071      1.554    26.4261   996.6952 0.0000e+00
      1.102      0.053     8.3427    103.442     38.635  39.660864     4.9175      8.824   230.9128 1.3653e+02     6.9788      1.080      1.567    26.4085   996.7000 0.0000e+00
      1.113      0.054     8.1972    101.574     38.784  39.786274     4.9463      8.815   231.0042 1.3382e+02     6.9373      1.092      1.583    26.3929   996.7043 0.0000e+00
      1.126      0.056     8.0775    100.018     38.799  39.770938     4.9758      8.805   231.0250 1.3100e+02     6.9213      1.104      1.602    26.3751   996.7092 0.0000e+00
      1.141      0.061     7.9824     98.762     38.605  39.538874     4.9874      8.795   231.2510 1.2806e+02     6.9498      1.119      1.624    26.3517   996.7155 0.0000e+00
      1.157      0.065     7.9043     97.713     38.374  39.265679     4.9650      8.785   231.5852 1.2501e+02     7.0192      1.135      1.646    26.3240   996.7231 0.0000e+00
      1.175      0.066     7.8335     96.755     38.219  39.070412     4.9307      8.777   231.7966 1.2146e+02     7.1040      1.151      1.671    26.2885   996.7328 0.0000e+00
      1.195      0.065     7.7641     95.827     38.074  38.891825     4.9199      8.770   231.9151 1.1758e+02     7.1564      1.173      1.702    26.2469   996.7441 0.0000e+00
      1.215      0.063     7.7026     95.013     37.903  38.693339     4.9204      8.764   232.0707 1.1443e+02     7.1943      1.193      1.731    26.2039   996.7556 0.0000e+00
      1.230      0.060     7.6603     94.446     37.806  38.574855     4.9550      8.758   232.4736 1.1199e+02     7.2339      1.206      1.751    26.1557   996.7685 0.0000e+00
      1.242      0.057     7.6440     94.206     37.787  38.538357     5.0355      8.752   233.0007 1.0932e+02     7.2093      1.217      1.766    26.1062   996.7817 0.0000e+00
      1.254      0.054     7.6571     94.329     37.772  38.505925     5.0866      8.744   233.3674 1.0630e+02     7.1594      1.229      1.783    26.0643   996.7929 0.0000e+00
      1.268      0.052     7.6974     94.783     37.785  38.500093     5.0876      8.738   233.6373 1.0345e+02     7.1551      1.243      1.803    26.0336   996.8010 0.0000e+00
      1.282      0.050     7.7574     95.478     37.834  38.531286     5.0561      8.732   233.8553 1.0066e+02     7.1567      1.256      1.822    26.0093   996.8075 0.0000e+00
      1.296      0.048     7.8267     96.297     37.882  38.565661     4.9998      8.726   234.1103 9.7981e+01     7.1797      1.271      1.844    25.9882   996.8131 0.0000e+00
      1.309      0.046     7.8941     97.096     37.927  38.598306     4.9706      8.721   234.6555 9.6046e+01     7.2036      1.285      1.864    25.9668   996.8189 0.0000e+00
      1.319      0.046     7.9518     97.771     38.015  38.672057     4.9712      8.715   235.3718 9.4591e+01     7.1831      1.294      1.877    25.9397   996.8261 0.0000e+00
      1.328      0.046     7.9932     98.253     38.111  38.759097     4.9727      8.708   235.8868 9.3099e+01     7.0953      1.302      1.888    25.9124   996.8334 0.0000e+00
      1.338      0.047     8.0128     98.501     38.110  38.761977     5.0071      8.701   236.0646 9.1449e+01     6.9284      1.312      1.902    25.8943   996.8383 0.0000e+00
      1.350      0.049     8.0134     98.548     38.040  38.706890     5.0661      8.694   236.0592 8.9463e+01     6.8046      1.323      1.920    25.8801   996.8420 0.0000e+00
      1.365      0.052     8.0009     98.434     38.044  38.727865     5.0879      8.687   236.0793 8.7402e+01     6.7449      1.338      1.941    25.8579   996.8480 0.0000e+00
      1.379      0.055     7.9794     98.179     38.198  38.888645     5.0796      8.680   236.2208 8.5579e+01     6.6979      1.354      1.963    25.8349   996.8542 0.0000e+00
      1.393      0.055     7.9561     97.866     38.444  39.127377     5.0603      8.673   236.4807 8.3686e+01     6.7610      1.366      1.982    25.8414   996.8526 0.0000e+00
      1.408      0.053     7.9297     97.515     38.654  39.329064     5.0370      8.668   236.7258 8.1435e+01     6.9190      1.379      2.001    25.8701   996.8451 0.0000e+00
      1.424      0.049     7.8864     96.962     38.754  39.422814     5.0324      8.663   236.9478 7.9425e+01     7.0023      1.398      2.027    25.8987   996.8375 0.0000e+00
      1.438      0.044     7.8118     96.007     38.784  39.435640     5.0305      8.658   237.2722 7.8032e+01     6.9813      1.413      2.048    25.9087   996.8350 0.0000e+00
      1.448      0.040     7.6983     94.547     38.736  39.357158     4.9796      8.655   237.6365 7.6829e+01     6.8946      1.420      2.059    25.8814   996.8424 0.0000e+00
      1.455      0.038     7.5509     92.667     38.585  39.172134     4.8938      8.653   238.0826 7.5772e+01     6.8053      1.427      2.069    25.8630   996.8473 0.0000e+00
      1.461      0.037     7.3857     90.573     38.422  38.975928     4.8510      8.650   238.6221 7.4646e+01     6.7859      1.433      2.078    25.8620   996.8476 0.0000e+00
      1.470      0.039     7.2224     88.507     38.304  38.825705     4.8522      8.645   239.0834 7.3132e+01     6.7922      1.440      2.088    25.8412   996.8532 0.0000e+00
      1.480      0.044     7.0843     86.760     38.194  38.688820     4.8830      8.639   239.4440 7.1402e+01     6.8160      1.450      2.103    25.7961   996.8651 0.0000e+00
      1.492      0.049     6.9880     85.531     38.120  38.590408     4.9368      8.634   239.7987 6.9515e+01     6.9099      1.462      2.121    25.7523   996.8766 0.0000e+00
      1.506      0.053     6.9364     84.846     38.144  38.587953     4.9742      8.629   240.1022 6.7555e+01     7.0095      1.477      2.141    25.7172   996.8858 0.0000e+00
      1.522      0.054     6.9181     84.575     38.238  38.659097     4.9797      8.624   240.2757 6.5529e+01     7.0366      1.492      2.164    25.6719   996.8977 0.0000e+00
      1.539      0.052     6.9139     84.498     38.343  38.752293     4.8906      8.620   240.4332 6.3748e+01     7.0084      1.510      2.190    25.6391   996.9065 0.0000e+00
      1.554      0.048     6.9109     84.468     38.413  38.826070     4.7205      8.615   240.7160 6.2712e+01     6.9642      1.525      2.212    25.6147   996.9129 0.0000e+00
      1.564      0.044     6.9082     84.472     38.421  38.852867     4.6221      8.610   241.1132 6.2130e+01     6.9608      1.534      2.226    25.5737   996.9237 0.0000e+00
      1.572      0.042     6.9155     84.597     38.373  38.822400     4.6194      8.605   241.4499 6.1473e+01     7.0002      1.542      2.236    25.5397   996.9326 0.0000e+00
      1.580      0.041     6.9412     84.897     38.333  38.775125     4.6877      8.600   241.6900 6.0681e+01     7.0146      1.549      2.246    25.5208   996.9377 0.0000e+00
      1.590      0.042     6.9850     85.346     38.451  38.852567     4.7987      8.595   241.9509 5.9691e+01     7.0031      1.558      2.260    25.5222   996.9374 0.0000e+00
      1.601      0.045     7.0357     85.837     38.846  39.187364     4.8517      8.591   242.1952 5.8392e+01     6.9925      1.569      2.277    25.5557   996.9286 0.0000e+00
      1.614      0.048     7.0739     86.173     39.305  39.585536     4.8504      8.588   242.4070 5.7012e+01     6.9852      1.583      2.296    25.5938   996.9187 0.0000e+00
      1.627      0.050     7.0742     86.058     39.508  39.730946     4.8532      8.584   242.6194 5.5607e+01     6.9476      1.595      2.313    25.5899   996.9198 0.0000e+00
      1.640      0.051     7.0072     85.134     39.572  39.739272     4.8945      8.582   242.8711 5.4047e+01     6.7999      1.608      2.332    25.5248   996.9368 0.0000e+00
      1.654      0.052     6.8470     83.086     39.762  39.876569     4.9682      8.579   243.2128 5.2502e+01     6.6088      1.622      2.353    25.4317   996.9614 0.0000e+00
      1.668      0.053     6.5854     79.814     39.997  40.057789     5.0073      8.573   243.5666 5.1192e+01     6.5039      1.636      2.373    25.3479   996.9834 0.0000e+00
      1.680      0.054     6.2375     75.502     40.084  40.089312     5.0118      8.567   243.8796 5.0053e+01     6.4828      1.648      2.391    25.2750   997.0024 0.0000e+00
      1.692      0.054     5.8216     70.380     40.053  40.003694     5.0485      8.561   244.1576 4.8818e+01     6.4518      1.658      2.404    25.2035   997.0209 0.0000e+00
      1.707      0.053     5.3507     64.617     40.007  39.911267     5.1133      8.555   244.4328 4.7415e+01     6.3578      1.673      2.426    25.1376   997.0381 0.0000e+00
      1.724      0.051     4.8387     58.379     39.996  39.860475     5.1438      8.549   244.7977 4.6140e+01     6.2965      1.692      2.454    25.0729   997.0548 0.0000e+00
      1.738      0.048     4.3187     52.069     40.000  39.833900     5.1413      8.544   245.2140 4.5254e+01     6.2685      1.706      2.474    24.9995   997.0738 0.0000e+00
      1.749      0.045     3.8405     46.284     39.962  39.780346     5.1173      8.539   245.5951 4.4603e+01     6.1176      1.715      2.488    24.9285   997.0920 0.0000e+00
      1.758      0.042     3.4322     41.355     39.912  39.720786     5.0701      8.534   245.9638 4.3968e+01     5.9138      1.724      2.500    24.8711   997.1067 0.0000e+00
      1.767      0.039     3.1040     37.389     39.890  39.685097     5.0393      8.528   246.2308 4.3364e+01     5.8362      1.732      2.513    24.8208   997.1195 0.0000e+00
      1.777      0.038     2.8613     34.450     39.890  39.666224     5.0391      8.522   246.4148 4.2711e+01     5.8356      1.742      2.526    24.7793   997.1301 0.0000e+00
      1.787      0.038     2.7061     32.568     39.862  39.619533     5.0847      8.515   246.6391 4.1996e+01     5.7747      1.752      2.542    24.7621   997.1345 0.0000e+00
      1.797      0.039     2.6335     31.679     39.763  39.501423     5.1658      8.509   246.8776 4.1384e+01     5.6571      1.763      2.557    24.7579   997.1355 0.0000e+00
      1.806      0.040     2.6211     31.514     39.663  39.380793     5.2052      8.504   247.1483 4.0772e+01     5.5937      1.771      2.567    24.7411   997.1399 0.0000e+00
      1.816      0.040     2.6403     31.729     39.605  39.303640     5.2057      8.499   247.4172 4.0024e+01     5.5649      1.779      2.581    24.7117   997.1474 0.0000e+00
      1.827      0.039     2.6669     32.038     39.584  39.266831     5.2064      8.493   247.6334 3.9285e+01     5.5386      1.791      2.598    24.6894   997.1531 0.0000e+00
      1.838      0.038     2.6788     32.173     39.580  39.253120     5.1974      8.488   247.7827 3.8630e+01     5.6043      1.803      2.614    24.6686   997.1584 0.0000e+00
      1.848      0.036     2.6639     31.992     39.531  39.201328     5.1912      8.483   247.9317 3.8016e+01     5.7354      1.814      2.630    24.6369   997.1664 0.0000e+00
      1.858      0.033     2.6283     31.562     39.481  39.148461     5.2006      8.477   248.0578 3.7520e+01     5.8133      1.823      2.644    24.6122   997.1726 0.0000e+00
      1.866      0.030     2.5803     30.982     39.458  39.121750     5.2151      8.472   248.1029 3.7163e+01     5.8252      1.830      2.654    24.5917   997.1778 0.0000e+00
      1.871      0.028     2.5270     30.333     39.417  39.068799     5.2200      8.468   248.3054 3.6823e+01     5.7155      1.835      2.661    24.5780   997.1813 0.0000e+00
      1.877      0.028     2.4735     29.675     39.387  39.016057     5.2078      8.465   248.6132 3.6421e+01     5.5029      1.840      2.668    24.5781   997.1814 0.0000e+00
      1.883      0.028     2.4199     29.014     39.325  38.928373     5.1983      8.461   248.8135 3.5954e+01     5.3847      1.846      2.678    24.5734   997.1825 0.0000e+00
      1.891      0.030     2.3700     28.401     39.058  38.643376     5.1993      8.456   249.0928 3.5474e+01     5.3676      1.854      2.689    24.5701   997.1834 0.0000e+00
      1.899      0.035     2.3275     27.880     38.536  38.109299     5.1589      8.451   249.4958 3.5054e+01     5.3619      1.863      2.702    24.5588   997.1863 0.0000e+00
      1.907      0.038     2.2896     27.412     38.119  37.676010     5.0753      8.446   249.8140 3.4625e+01     5.3483      1.869      2.712    24.5239   997.1951 0.0000e+00
      1.917      0.038     2.2410     26.816     38.188  37.720901     5.0298      8.441   249.9289 3.3980e+01     5.3345      1.877      2.723    24.4861   997.2047 0.0000e+00
      1.930      0.036     2.1533     25.757     38.504  38.017292     5.0235      8.436   249.9377 3.3217e+01     5.3585      1.892      2.745    24.4608   997.2110 0.0000e+00
      1.943      0.031     2.0053     23.984     38.706  38.212775     5.0252      8.431   250.0924 3.2720e+01     5.3763      1.908      2.768    24.4435   997.2152 0.0000e+00
      1.952      0.025     1.8065     21.609     38.794  38.307112     5.0339      8.426   250.3371 3.2619e+01     5.3534      1.917      2.780    24.4145   997.2222 0.0000e+00
      1.955      0.019     1.6036     19.189     38.870  38.396199     5.0336      8.421   250.4868 3.2754e+01     5.3433      1.919      2.783    24.3786   997.2313 0.0000e+00
      1.955      0.014     1.4495     17.352     38.858  38.401244     5.0300      8.415   250.5259 3.2893e+01     5.3521      1.918      2.781    24.3561   997.2371 0.0000e+00
      1.955      0.014     1.3674     16.375     38.553  38.114223     5.0768      8.412   250.6380 3.2910e+01     5.4279      1.916      2.779    24.3512   997.2385 0.0000e+00
      1.957      0.017     1.3557     16.233     38.093  37.655382     5.1655      8.409   250.8964 3.2820e+01     5.5715      1.918      2.782    24.3633   997.2354 0.0000e+00
      1.961      0.022     1.4023     16.780     37.886  37.423727     5.2014      8.405   251.0685 3.2561e+01     5.6466      1.922      2.788    24.3837   997.2303 0.0000e+00
      1.969      0.026     1.4803     17.699     37.967  37.471435     5.1895      8.401   251.1697 3.2152e+01     5.6152      1.929      2.799    24.4074   997.2244 0.0000e+00
      1.979      0.027     1.5436     18.447     38.052  37.533941     5.1522      8.397   251.2597 3.1708e+01     5.5194      1.941      2.815    24.4327   997.2180 0.0000e+00
      1.989      0.025     1.5443     18.454     38.004  37.481232     5.0793      8.393   251.2959 3.1295e+01     5.4388      1.952      2.831    24.4332   997.2178 0.0000e+00
      1.997      0.022     1.4688     17.551     37.929  37.405405     5.0365      8.388   251.3494 3.1092e+01     5.4271      1.960      2.843    24.3881   997.2290 0.0000e+00
      2.001      0.018     1.3463     16.082     37.912  37.378819     5.0332      8.383   251.4762 3.1106e+01     5.4103      1.963      2.847    24.3338   997.2427 0.0000e+00
      2.001      0.015     1.2119     14.470     37.902  37.350197     5.0227      8.378   251.6242 3.1083e+01     5.3670      1.962      2.846    24.3044   997.2501 0.0000e+00
      2.002      0.012     1.0830     12.924     37.887  37.313200     4.9608      8.373   251.6772 3.0911e+01     5.3627      1.962      2.846    24.3045   997.2501 0.0000e+00
      2.006      0.010     0.9681     11.549     37.905  37.312314     4.8580      8.368   251.6868 3.0670e+01     5.3903      1.967      2.852    24.3105   997.2485 0.0000e+00
      2.011      0.009     0.8760     10.448     37.938  37.339450     4.8025      8.362   251.7400 3.0429e+01     5.4061      1.972      2.861    24.2939   997.2527 0.0000e+00
      2.015      0.009     0.8129      9.696     37.978  37.387397     4.7929      8.357   251.7179 3.0296e+01     5.3898      1.977      2.867    24.2664   997.2596 0.0000e+00
      2.017      0.008     0.7791      9.296     38.029  37.447728     4.8022      8.353   251.6782 3.0351e+01     5.2919      1.979      2.871    24.2379   997.2667 0.0000e+00
      2.016      0.008     0.7682      9.168     38.012  37.434170     4.8364      8.350   251.8612 3.0434e+01     5.1721      1.976      2.866    24.2059   997.2746 0.0000e+00
      2.015      0.009     0.7717      9.209     37.930  37.350421     4.8603      8.346   252.0380 3.0416e+01     5.1540      1.975      2.865    24.1946   997.2775 0.0000e+00
      2.017      0.011     0.7849      9.364     37.911  37.323770     4.8569      8.343   252.0098 3.0330e+01     5.1719      1.979      2.869    24.2196   997.2712 0.0000e+00
      2.022      0.016     0.8056      9.607     37.902  37.302353     4.8211      8.340   252.0366 3.0200e+01     5.1911      1.982      2.875    24.2344   997.2676 0.0000e+00
      2.027      0.022     0.8249      9.832     37.841  37.218391     4.7659      8.337   252.1904 3.0099e+01     5.2890      1.988      2.883    24.2349   997.2675 0.0000e+00
      2.032      0.028     0.8304      9.888     37.856  37.197206     4.7356      8.335   252.3208 2.9990e+01     5.4055      1.993      2.891    24.2345   997.2676 0.0000e+00
      2.040      0.032     0.8166      9.715     38.002  37.300055     4.7240      8.333   252.3223 2.9694e+01     5.4516      1.998      2.898    24.2206   997.2711 0.0000e+00
      2.050      0.036     0.7780      9.247     38.448  37.700172     4.6079      8.330   252.2078 2.9236e+01     5.4863      2.009      2.913    24.2077   997.2743 0.0000e+00
      2.061      0.042     0.7025      8.343     39.733  38.924612     4.3893      8.326   252.0556 2.8829e+01     5.5299      2.023      2.933    24.1793   997.2814 0.0000e+00
      2.071      0.048     0.5943      7.053     42.598  41.694022     4.2663      8.321   251.9443 2.8524e+01     5.5199      2.031      2.947    24.1268   997.2945 0.0000e+00
      2.080      0.053     0.4769      5.654     46.184  45.154936     4.2293      8.316   251.8945 2.8096e+01     5.4968      2.038      2.956    24.0681   997.3091 0.0000e+00
      2.095      0.055     0.3654      4.327     48.263  47.118748     3.9603      8.312   251.7117 2.7383e+01     5.3488      2.052      2.977    24.0185   997.3216 0.0000e+00
      2.114      0.055     0.2621      3.099     48.833  47.595417     3.4757      8.307   251.2824 2.6602e+01     5.0415      2.074      3.009    23.9784   997.3317 0.0000e+00
      2.133      0.054     0.1721      2.032     49.121  47.806410     3.2169      8.302   250.9206 2.6039e+01     4.8619      2.094      3.037    23.9389   997.3424 0.0000e+00
      2.146      0.050     0.1052      1.242     49.394  48.018548     3.1893      8.297   250.8646 2.5673e+01     4.8489      2.106      3.055    23.8917   997.3558 0.0000e+00
      2.156      0.044     0.0640      0.755     49.808  48.382064     3.1679      8.292   250.9490 2.5322e+01     4.8838      2.114      3.066    23.8133   997.3756 0.0000e+00
      2.164      0.037     0.0445      0.525     50.956  49.470703     3.1318      8.287   250.9948 2.4944e+01     4.9235      2.122      3.078    23.7222   997.3979 0.0000e+00
      2.173      0.031     0.0408      0.480     53.029  51.463579     3.0911      8.282   250.9881 2.4632e+01     4.9345      2.132      3.092    23.6498   997.4157 0.0000e+00
      2.181      0.027     0.0459      0.540     55.599  53.930880     3.0660      8.277   251.0396 2.4409e+01     4.9185      2.140      3.104    23.5964   997.4288 0.0000e+00
      2.187      0.025     0.0565      0.665     58.024  56.243508     3.0615      8.272   251.1026 2.4222e+01     4.8947      2.144      3.110    23.5589   997.4379 0.0000e+00
      2.192      0.023     0.0706      0.830     58.984  57.126181     3.1237      8.268   251.0614 2.4031e+01     4.8434      2.148      3.116    23.5334   997.4444 0.0000e+00
      2.197      0.021     0.0863      1.013     58.212  56.344011     3.2371      8.263   250.9716 2.3836e+01     4.7574      2.155      3.125    23.5205   997.4483 0.0000e+00
      2.203      0.019     0.1008      1.184     56.997  55.172918     3.2975      8.256   250.7913 2.3656e+01     4.7065      2.161      3.134    23.5025   997.4535 0.0000e+00
      2.209      0.017     0.1123      1.320     56.159  54.402612     3.3069      8.251   250.5148 2.3523e+01     4.6860      2.167      3.143    23.4631   997.4642 0.0000e+00
      2.213      0.015     0.1225      1.442     55.782  54.082242     3.3509      8.245   250.3827 2.3423e+01     4.6744      2.170      3.147    23.4174   997.4756 0.0000e+00
      2.215      0.013     0.1315      1.548     55.627  53.967615     3.4314      8.239   250.3986 2.3307e+01     4.6646      2.172      3.151    23.3755   997.4851 0.0000e+00
      2.217      0.012     0.1368      1.611     55.006  53.397889     3.4731      8.234   250.3635 2.3183e+01     4.6657      2.174      3.153    23.3783   997.4840 0.0000e+00
      2.220      0.011     0.1400      1.650     53.614  52.085143     3.4738      8.228   250.2152 2.3088e+01     4.6883      2.177      3.157    23.4345   997.4702 0.0000e+00
      2.223      0.011     0.1437      1.696     52.238  50.799866     3.3699      8.223   249.9818 2.2992e+01     4.6755      2.180      3.161    23.4763   997.4601 0.0000e+00
      2.226      0.010     0.1489      1.758     51.348  49.990137     3.1623      8.218   249.7796 2.2830e+01     4.6420      2.183      3.166    23.5027   997.4537 0.0000e+00
      2.230      0.009     0.1555      1.837     50.778  49.472214     3.0535      8.213   249.5768 2.2615e+01     4.6434      2.186      3.171    23.5331   997.4462 0.0000e+00
      2.232      0.007     0.1645      1.944     50.523  49.237788     3.0511      8.207   249.3370 2.2454e+01     4.6592      2.189      3.176    23.5624   997.4386 0.0000e+00
      2.234      0.005     0.1778      2.101     50.528  49.251666     3.0552      8.201   249.1166 2.2419e+01     4.6037      2.191      3.177    23.6153   997.4253 0.0000e+00
      2.234      0.003     0.1928      2.281     50.714  49.449481     3.0605      8.196   248.9774 2.2469e+01     4.4969      2.191      3.177    23.6813   997.4089 0.0000e+00
      2.234      0.002     0.2001      2.367     50.854  49.597163     3.0631      8.194   248.9446 2.2514e+01     4.4501      2.191      3.178    23.7200   997.3993 0.0000e+00
      2.234 -9.990e-29 -9.990e-29 -9.990e-29 -9.990e-29 -9.990e-29 -9.990e-29 -9.990e-29 -9.990e-29 2.2529e+01 -9.990e-29      2.191      3.177    23.7243   997.3982 0.0000e+00
      2.233 -9.990e-29 -9.990e-29 -9.990e-29 -9.990e-29 -9.990e-29 -9.990e-29 -9.990e-29 -9.990e-29 2.2517e+01 -9.990e-29      2.190      3.177    23.7244   997.3981 0.0000e+00
      2.233 -9.990e-29 -9.990e-29 -9.990e-29 -9.990e-29 -9.990e-29 -9.990e-29 -9.990e-29 -9.990e-29 2.2469e+01 -9.990e-29      2.190      3.177    23.7501   997.3919 0.0000e+00
      2.233 -9.990e-29 -9.990e-29 -9.990e-29 -9.990e-29 -9.990e-29 -9.990e-29 -9.990e-29 -9.990e-29 2.2439e+01 -9.990e-29      2.191      3.178    23.7711   997.3870 0.0000e+00
