* Sea-Bird SBE19plus  Data File:
* FileName = C:\DATA\081919_fcr50_0001.hex
* Software version 2.8.0.119 SB_Terminal.dll
* Temperature SN = 7809
* Conductivity SN = 7809
* System UpLoad Time = Aug 19 2019 09:53:56
* <ApplicationData>
* <Seaterm232>
* <SoftwareVersion>2.8.0.119</SoftwareVersion>
* <BuildDate>07-Nov-2018</BuildDate>
* </Seaterm232>
* </ApplicationData>
* cast   1 19 Aug 2019 09:40:08 samples 1 to 966, avg = 1, stop = mag switch
# nquan = 16
# nvalues = 825                         
# units = specified
# name 0 = depFM: Depth [fresh water, m]
# name 1 = dz/dtM: Descent Rate [m/s]
# name 2 = sbeox0Mg/L: Oxygen, SBE 43 [mg/l]
# name 3 = sbeox0PS: Oxygen, SBE 43 [% saturation]
# name 4 = specc: Specific Conductance [uS/cm]
# name 5 = c0uS/cm: Conductivity [uS/cm]
# name 6 = flECO-AFL: Fluorescence, WET Labs ECO-AFL/FL [mg/m^3]
# name 7 = ph: pH
# name 8 = orp: Oxidation Reduction Potential [mV]
# name 9 = par/sat/log: PAR/Logarithmic, Satlantic
# name 10 = turbWETntu0: Turbidity, WET Labs ECO [NTU]
# name 11 = prdM: Pressure, Strain Gauge [db]
# name 12 = prdE: Pressure, Strain Gauge [psi]
# name 13 = tv290C: Temperature [ITS-90, deg C]
# name 14 = density00: Density [density, kg/m^3]
# name 15 = flag:  0.000e+00
# span 0 =     -0.564,      9.246       
# span 1 =     -2.941,      0.262       
# span 2 =    -0.3830,    10.4323       
# span 3 =     -4.491,    131.495       
# span 4 =      1.868,     67.383       
# span 5 =   1.823281,  52.231112       
# span 6 =    -0.2311,     8.0053       
# span 7 =      6.520,      9.397       
# span 8 =  -805.0052,   617.8823       
# span 9 = 1.2356e-01, 1.3673e+03       
# span 10 =    -0.4996,   894.0179      
# span 11 =     -0.553,      9.067      
# span 12 =     -0.802,     13.151      
# span 13 =    11.9784,    27.4632      
# span 14 =   996.4053,   999.5644      
# span 15 = 0.0000e+00, 0.0000e+00      
# interval = seconds: 0.25
# start_time = Aug 19 2019 09:40:08 [Instrument's time stamp, header]
# bad_flag = -9.990e-29
# <Sensors count="9" >
#   <sensor Channel="1" >
#     <!-- Count, Temperature -->
#     <TemperatureSensor SensorID="58" >
#       <SerialNumber>7809</SerialNumber>
#       <CalibrationDate>24-Mar-19</CalibrationDate>
#       <A0>1.21792325e-003</A0>
#       <A1>2.81669265e-004</A1>
#       <A2>-1.60333336e-006</A2>
#       <A3>1.98414625e-007</A3>
#       <Slope>1.00000000</Slope>
#       <Offset>0.0000</Offset>
#     </TemperatureSensor>
#   </sensor>
#   <sensor Channel="2" >
#     <!-- Frequency 0, Conductivity -->
#     <ConductivitySensor SensorID="3" >
#       <SerialNumber>7809</SerialNumber>
#       <CalibrationDate>24-Mar-19</CalibrationDate>
#       <UseG_J>1</UseG_J>
#       <!-- Cell const and series R are applicable only for wide range sensors. -->
#       <SeriesR>0.0000</SeriesR>
#       <CellConst>2000.0000</CellConst>
#       <ConductivityType>0</ConductivityType>
#       <Coefficients equation="0" >
#         <A>0.00000000e+000</A>
#         <B>0.00000000e+000</B>
#         <C>0.00000000e+000</C>
#         <D>0.00000000e+000</D>
#         <M>0.0</M>
#         <CPcor>-9.57000000e-008</CPcor>
#       </Coefficients>
#       <Coefficients equation="1" >
#         <G>-1.00589325e+000</G>
#         <H>1.26816302e-001</H>
#         <I>-1.51560448e-004</I>
#         <J>2.67137274e-005</J>
#         <CPcor>-9.57000000e-008</CPcor>
#         <CTcor>3.2500e-006</CTcor>
#         <!-- WBOTC not applicable unless ConductivityType = 1. -->
#         <WBOTC>0.00000000e+000</WBOTC>
#       </Coefficients>
#       <Slope>1.00000000</Slope>
#       <Offset>0.00000</Offset>
#     </ConductivitySensor>
#   </sensor>
#   <sensor Channel="3" >
#     <!-- Count, Pressure, Strain Gauge -->
#     <PressureSensor SensorID="46" >
#       <SerialNumber>7809</SerialNumber>
#       <CalibrationDate>11-Mar-19</CalibrationDate>
#       <PA0>4.56561833e-002</PA0>
#       <PA1>4.85095118e-004</PA1>
#       <PA2>-2.88327090e-012</PA2>
#       <PTEMPA0>-5.48784562e+001</PTEMPA0>
#       <PTEMPA1>5.53756816e+001</PTEMPA1>
#       <PTEMPA2>-5.86727098e-001</PTEMPA2>
#       <PTCA0>5.25246745e+005</PTCA0>
#       <PTCA1>1.22304214e+001</PTCA1>
#       <PTCA2>-3.56745036e-001</PTCA2>
#       <PTCB0>2.51668750e+001</PTCB0>
#       <PTCB1>3.75000000e-004</PTCB1>
#       <PTCB2>0.00000000e+000</PTCB2>
#       <Offset>0.000000</Offset>
#     </PressureSensor>
#   </sensor>
#   <sensor Channel="4" >
#     <!-- A/D voltage 0, Oxygen, SBE 43 -->
#     <OxygenSensor SensorID="38" >
#       <SerialNumber>0434</SerialNumber>
#       <CalibrationDate>13-Apr-19</CalibrationDate>
#       <Use2007Equation>1</Use2007Equation>
#       <CalibrationCoefficients equation="0" >
#         <!-- Coefficients for Owens-Millard equation. -->
#         <Boc>0.0000</Boc>
#         <Soc>0.0000e+000</Soc>
#         <offset>0.0000</offset>
#         <Pcor>0.00e+000</Pcor>
#         <Tcor>0.0000</Tcor>
#         <Tau>0.0</Tau>
#       </CalibrationCoefficients>
#       <CalibrationCoefficients equation="1" >
#         <!-- Coefficients for Sea-Bird equation - SBE calibration in 2007 and later. -->
#         <Soc>4.2007e-001</Soc>
#         <offset>-0.6109</offset>
#         <A>-4.3656e-003</A>
#         <B> 1.7017e-004</B>
#         <C>-2.5341e-006</C>
#         <D0> 2.5826e+000</D0>
#         <D1> 1.92634e-004</D1>
#         <D2>-4.64803e-002</D2>
#         <E> 3.6000e-002</E>
#         <Tau20> 1.1800</Tau20>
#         <H1>-3.3000e-002</H1>
#         <H2> 5.0000e+003</H2>
#         <H3> 1.4500e+003</H3>
#       </CalibrationCoefficients>
#     </OxygenSensor>
#   </sensor>
#   <sensor Channel="5" >
#     <!-- A/D voltage 1, PAR/Logarithmic, Satlantic -->
#     <PARLog_SatlanticSensor SensorID="76" >
#       <SerialNumber>1122</SerialNumber>
#       <CalibrationDate>08-May-2019</CalibrationDate>
#       <a0>9.7456e-001</a0>
#       <a1>8.1640e-001</a1>
#       <Im>1.3589e+000</Im>
#       <Multiplier>1.0000e+000</Multiplier>
#     </PARLog_SatlanticSensor>
#   </sensor>
#   <sensor Channel="6" >
#     <!-- A/D voltage 2, pH -->
#     <pH_Sensor SensorID="43" >
#       <SerialNumber>0363</SerialNumber>
#       <CalibrationDate>15-Apr-19</CalibrationDate>
#       <Slope>4.5952</Slope>
#       <Offset>2.5370</Offset>
#     </pH_Sensor>
#   </sensor>
#   <sensor Channel="7" >
#     <!-- A/D voltage 3, Oxidation Reduction Potential -->
#     <OxidationReductionPotentialSensor SensorID="41" >
#       <SerialNumber>0363</SerialNumber>
#       <CalibrationDate>15-Apr-19</CalibrationDate>
#       <B>2.499480</B>
#       <M>-0.496195</M>
#       <Offset>0.0</Offset>
#     </OxidationReductionPotentialSensor>
#   </sensor>
#   <sensor Channel="8" >
#     <!-- A/D voltage 4, Fluorometer, WET Labs ECO-AFL/FL -->
#     <FluoroWetlabECO_AFL_FL_Sensor SensorID="20" >
#       <SerialNumber>FLNTURT-2496</SerialNumber>
#       <CalibrationDate>08-May-2019</CalibrationDate>
#       <ScaleFactor>5.00000000e+001</ScaleFactor>
#       <!-- Dark output -->
#       <Vblank>0.0550</Vblank>
#     </FluoroWetlabECO_AFL_FL_Sensor>
#   </sensor>
#   <sensor Channel="9" >
#     <!-- A/D voltage 5, Turbidity Meter, WET Labs, ECO-NTU -->
#     <TurbidityMeter SensorID="67" >
#       <SerialNumber>FLNTURT-2496</SerialNumber>
#       <CalibrationDate>08-May-2019</CalibrationDate>
#       <ScaleFactor>189.000000</ScaleFactor>
#       <!-- Dark output -->
#       <DarkVoltage>0.071000</DarkVoltage>
#     </TurbidityMeter>
#   </sensor>
# </Sensors>
# datcnv_date = Aug 19 2019 09:55:32, 7.26.7.129 [datcnv_vars = 15]
# datcnv_in = C:\DATA\081919_fcr50.hex C:\DATA\SBE19plusV2_7809.xmlcon
# datcnv_skipover = 0
# datcnv_ox_hysteresis_correction = yes
# datcnv_ox_tau_correction = yes
# filter_date = Aug 19 2019 09:55:51, 7.26.7.129
# filter_in = C:\DATA\081919_fcr50.cnv
# filter_low_pass_tc_A = 0.030
# filter_low_pass_tc_B = 0.150
# filter_low_pass_A_vars = prdM prdE tv290C density00
# filter_low_pass_B_vars = depFM dz/dtM sbeox0Mg/L sbeox0PS specc c0uS/cm flECO-AFL ph orp par/sat/log turbWETntu0
# alignctd_date = Aug 19 2019 09:56:13, 7.26.7.129
# alignctd_in = C:\DATA\081919_fcr50.cnv
# alignctd_adv = dz/dtM 1.000, sbeox0Mg/L 1.000, sbeox0PS 1.000, specc 1.000, c0uS/cm 1.000, flECO-AFL 1.000, ph 1.000, orp 1.000, turbWETntu0 1.000                                                                                 
# file_type = ascii
*END*
     -0.564 2.7991e-11     7.9555     94.149      1.931   1.883862    -0.1144      6.520  -805.0052 1.2772e+03    -0.3352     -0.553     -0.802    23.7859   997.3569 0.0000e+00
     -0.563 3.0790e-10     7.9550     94.144      1.919   1.872171    -0.1060      6.647  -615.6463 1.2899e+03    -0.2664     -0.552     -0.801    23.7889   997.3562 0.0000e+00
     -0.563 3.3869e-09     7.9555     94.151      1.918   1.871949    -0.1033      6.699  -540.4585 1.3254e+03    -0.2146     -0.552     -0.801    23.7917   997.3554 0.0000e+00
     -0.563 3.7255e-08     7.9565     94.162      1.928   1.881175    -0.0985      6.698  -522.7975 1.3566e+03    -0.1999     -0.553     -0.802    23.7932   997.3551 0.0000e+00
     -0.563 4.0981e-07     7.9568     94.166      1.903   1.856991    -0.1000      6.697  -506.0449 1.3673e+03    -0.2204     -0.552     -0.801    23.7944   997.3548 0.0000e+00
     -0.563      0.000     7.9563     94.161      1.878   1.832996    -0.1129      6.693  -497.5926 1.3452e+03    -0.2652     -0.552     -0.801    23.7948   997.3547 0.0000e+00
     -0.563      0.000     7.9569     94.170      1.890   1.844506    -0.1241      6.683  -506.2110 1.0781e+03    -0.2836     -0.552     -0.801    23.7952   997.3546 0.0000e+00
     -0.563      0.001     7.9584     94.190      1.915   1.869426    -0.1234      6.676  -519.1340 8.1483e+02    -0.3115     -0.552     -0.801    23.7953   997.3545 0.0000e+00
     -0.563      0.001     7.9585     94.194      1.927   1.880865    -0.1217      6.672  -533.9049 8.5463e+02    -0.4060     -0.552     -0.801    23.7957   997.3544 0.0000e+00
     -0.563      0.001     7.9579     94.189      1.902   1.856087    -0.1297      6.669  -549.8094 6.9224e+02    -0.4750     -0.552     -0.801    23.7958   997.3543 0.0000e+00
     -0.562      0.001     7.9583     94.194      1.868   1.823281    -0.1329      6.669  -565.9410 5.9634e+02    -0.4909     -0.552     -0.800    23.7974   997.3540 0.0000e+00
     -0.562      0.001     7.9582     94.196      1.909   1.864386    -0.1609      6.668  -575.7155 8.5191e+02    -0.4996     -0.551     -0.799    23.7979   997.3539 0.0000e+00
     -0.562      0.001     7.9563     94.181      2.344   2.289720    -0.2164      6.669  -520.6923 8.4924e+02    -0.3515     -0.551     -0.799    23.8006   997.3532 0.0000e+00
     -0.562      0.006     7.9513     94.171      6.665   6.522417    -0.2311      6.829   -63.0161 8.3724e+02     1.5297     -0.551     -0.800    23.7982   997.3539 0.0000e+00
     -0.562      0.021     7.9225     94.161     17.249  16.974027    -0.1660      7.298   550.9916 1.1355e+03    22.2457     -0.552     -0.801    23.8038   997.3524 0.0000e+00
     -0.562      0.051     7.8488     94.136     29.689  29.501773     0.4934      7.894   617.8823 1.3357e+03   250.0584     -0.551     -0.799    23.7976   997.3541 0.0000e+00
     -0.560      0.092     7.7534     94.106     38.129  38.306307     1.7067      8.404   454.7689 1.3547e+03   667.5821     -0.552     -0.801    23.8120   997.3503 0.0000e+00
     -0.545      0.140     7.6701     94.079     40.405  40.998973     2.3663      8.791   432.3452 1.3423e+03   893.5702     -0.549     -0.796    23.7947   997.3550 0.0000e+00
     -0.497      0.187     7.6026     94.059     39.592  40.544658     2.4079      9.056   424.2805 1.3309e+03   894.0179     -0.497     -0.720    23.8729   997.3395 0.0000e+00
     -0.424      0.227     7.5518     94.107     38.868  40.114707     2.3047      9.218   420.0685 1.3296e+03   673.0929     -0.415     -0.602    24.4505   997.2004 0.0000e+00
     -0.348      0.253     7.5280     94.286     38.415  39.863928     2.1167      9.311   416.1784 1.2631e+03   264.7514     -0.341     -0.496    25.2184   997.0086 0.0000e+00
     -0.273      0.262     7.5296     94.579     38.232  39.798207     2.0160      9.362   412.6932 1.0016e+03    41.8871     -0.267     -0.386    25.7587   996.8679 0.0000e+00
     -0.201      0.251     7.5491     94.975     38.257  39.891599     2.0147      9.386   409.8501 8.5820e+02    21.5466     -0.193     -0.280    26.2162   996.7461 0.0000e+00
     -0.138      0.228     7.5815     95.478     38.237  39.914030     2.0222      9.396   408.1299 1.1200e+03    19.3739     -0.131     -0.191    26.6513   996.6291 0.0000e+00
     -0.083      0.202     7.6215     96.036     38.119  39.815559     2.0811      9.397   407.9836 1.3492e+03    15.8135     -0.080     -0.115    26.9284   996.5535 0.0000e+00
     -0.036      0.175     7.6649     96.577     38.026  39.716739     2.1979      9.392   407.4787 1.3192e+03     9.5660     -0.031     -0.044    27.0624   996.5168 0.0000e+00
      0.003      0.147     7.7089     97.066     38.011  39.671429     2.2550      9.385   406.4134 1.0713e+03     6.1689      0.006      0.008    27.1416   996.4952 0.0000e+00
      0.036      0.119     7.7494     97.482     38.029  39.648566     2.2601      9.378   405.3419 7.2470e+02     5.8732      0.034      0.049    27.1915   996.4815 0.0000e+00
      0.067      0.093     7.7783     97.790     37.974  39.567196     2.3816      9.370   404.4181 6.6758e+02     5.7936      0.070      0.101    27.2325   996.4703 0.0000e+00
      0.089      0.068     7.7938     97.995     37.856  39.449328     2.6054      9.361   403.9345 8.4626e+02     5.6981      0.093      0.135    27.2308   996.4708 0.0000e+00
      0.099      0.047     7.8130     98.288     37.755  39.366100     2.7292      9.353   403.4522 8.5358e+02     5.6683      0.100      0.144    27.1844   996.4836 0.0000e+00
      0.104      0.029     7.8687     99.057     37.686  39.322700     2.7425      9.347   402.8024 7.4688e+02     5.6631      0.103      0.150    27.1146   996.5030 0.0000e+00
      0.107      0.015     7.9475    100.119     37.642  39.305505     2.7401      9.338   402.3586 7.5901e+02     5.7012      0.105      0.152    27.0741   996.5141 0.0000e+00
      0.107      0.006     7.9943    100.769     37.597  39.285191     2.7349      9.328   402.0435 8.6110e+02     5.8017      0.105      0.152    27.0900   996.5097 0.0000e+00
      0.107      0.002     8.0046    100.944     37.562  39.267574     2.7321      9.320   401.6602 8.3925e+02     5.8618      0.105      0.152    27.1253   996.5000 0.0000e+00
      0.107      0.000     7.9993    100.909     37.564  39.282973     2.7316      9.314   401.4242 6.4500e+02     5.8706      0.105      0.152    27.1651   996.4889 0.0000e+00
      0.107 4.2120e-08     7.9723    100.586     37.554  39.280953     2.6776      9.309   401.3410 6.3622e+02     5.8748      0.104      0.151    27.2060   996.4775 0.0000e+00
      0.107 4.6332e-07     7.9128     99.848     37.514  39.243155     2.5636      9.303   400.9989 7.9388e+02     5.8800      0.105      0.152    27.2410   996.4679 0.0000e+00
      0.107 4.6301e-07     7.8225     98.716     37.476  39.206853     2.4984      9.298   400.3852 8.6742e+02     5.8687      0.106      0.153    27.2672   996.4606 0.0000e+00
      0.107 3.8306e-08     7.7051     97.238     37.430  39.159441     2.4962      9.293   400.1149 9.3121e+02     5.8692      0.105      0.152    27.2833   996.4562 0.0000e+00
      0.107 1.4018e-10     7.5745     95.589     37.387  39.114259     2.5026      9.288   400.0534 1.0018e+03     5.8857      0.105      0.153    27.2923   996.4536 0.0000e+00
      0.107 1.5420e-09     7.4573     94.112     37.377  39.104910     2.5063      9.283   399.5558 9.5742e+02     5.8714      0.105      0.153    27.2987   996.4518 0.0000e+00
      0.107 1.6962e-08     7.3632     92.933     37.378  39.109892     2.4976      9.278   398.6579 8.2200e+02     5.8273      0.106      0.153    27.3030   996.4507 0.0000e+00
      0.107 1.8658e-07     7.2894     92.016     37.373  39.111026     2.5009      9.273   397.7155 7.6071e+02     5.8116      0.105      0.153    27.3050   996.4500 0.0000e+00
      0.107 1.8963e-07     7.2361     91.353     37.376  39.118631     2.6156      9.268   397.6257 7.5460e+02     5.8456      0.106      0.153    27.3034   996.4505 0.0000e+00
      0.107 5.3881e-08     7.1988     90.886     37.393  39.138371     2.8094      9.264   398.2597 6.9631e+02     5.8775      0.105      0.153    27.3029   996.4507 0.0000e+00
      0.107 4.0796e-07     7.1707     90.524     37.417  39.159252     2.9110      9.259   398.3268 7.0378e+02     5.8699      0.105      0.152    27.3096   996.4488 0.0000e+00
      0.107      0.000     7.1487     90.234     37.442  39.180662     2.9255      9.254   397.9209 8.6049e+02     5.8512      0.105      0.153    27.3190   996.4462 0.0000e+00
      0.108      0.000     7.1328     90.024     37.472  39.206783     2.9325      9.250   397.1375 9.8860e+02     5.8480      0.105      0.153    27.3268   996.4440 0.0000e+00
      0.108      0.001     7.1290     89.972     37.487  39.221153     2.9868      9.248   395.9109 8.9654e+02     5.7662      0.107      0.154    27.3297   996.4432 0.0000e+00
      0.108      0.001     7.1551     90.303     37.492  39.227455     3.0966      9.246   395.5654 6.3374e+02     5.6160      0.106      0.155    27.3238   996.4449 0.0000e+00
      0.108      0.000     7.2271     91.214     37.483  39.219491     3.1586      9.243   396.3158 4.7878e+02     5.5400      0.105      0.153    27.3141   996.4476 0.0000e+00
      0.108 1.8474e-08     7.3439     92.694     37.451  39.188344     3.1559      9.241   396.8092 5.2112e+02     5.5351      0.106      0.154    27.3078   996.4493 0.0000e+00
      0.108 2.0321e-07     7.4917     94.564     37.430  39.168260     3.1677      9.239   396.6264 5.8542e+02     5.6223      0.106      0.154    27.3059   996.4499 0.0000e+00
      0.108 2.0321e-07     7.6489     96.553     37.428  39.167105     3.2058      9.236   396.1712 6.3417e+02     5.7755      0.106      0.154    27.3070   996.4495 0.0000e+00
      0.108 1.8474e-08     7.7949     98.398     37.433  39.174389     3.2264      9.233   395.6075 7.3536e+02     5.8465      0.106      0.154    27.3092   996.4490 0.0000e+00
      0.108 1.6794e-09     7.9139     99.902     37.450  39.192850     3.2263      9.230   395.1455 9.3823e+02     5.8254      0.105      0.153    27.3121   996.4481 0.0000e+00
      0.108 1.5267e-10     7.9952    100.929     37.457  39.199873     3.1961      9.227   394.9725 1.0505e+03     5.8154      0.107      0.155    27.3155   996.4471 0.0000e+00
      0.108 1.3880e-11     8.0360    101.445     37.453  39.195823     3.1382      9.225   394.8066 9.5201e+02     5.8574      0.106      0.154    27.3181   996.4464 0.0000e+00
      0.108 1.2618e-12     8.0407    101.505     37.463  39.207364     3.1163      9.223   394.3441 8.5481e+02     5.8742      0.106      0.154    27.3200   996.4460 0.0000e+00
      0.108 1.1471e-13     8.0227    101.277     37.468  39.212463     3.1305      9.222   392.6496 7.8436e+02     5.8544      0.106      0.154    27.3209   996.4457 0.0000e+00
      0.108 1.0428e-14     7.9972    100.956     37.450  39.193992     3.1276      9.219   390.2363 8.0546e+02     5.7817      0.106      0.154    27.3210   996.4456 0.0000e+00
      0.108 9.4800e-16     7.9739    100.665     37.430  39.174464     3.1079      9.217   389.2562 8.9291e+02     5.6499      0.107      0.155    27.3212   996.4456 0.0000e+00
      0.108 8.6180e-17     7.9591    100.481     37.422  39.166798     3.1001      9.215   389.6612 8.6634e+02     5.5722      0.106      0.154    27.3215   996.4455 0.0000e+00
      0.108 7.8341e-18     7.9548    100.430     37.419  39.164793     3.1116      9.212   390.2288 8.2267e+02     5.5622      0.106      0.153    27.3216   996.4455 0.0000e+00
      0.108 7.0813e-19     7.9580    100.473     37.404  39.150213     3.1255      9.210   390.1828 7.7406e+02     5.5956      0.106      0.154    27.3221   996.4454 0.0000e+00
      0.109 1.9477e-20     7.9639    100.549     37.372  39.117481     3.1639      9.208   388.5883 6.6157e+02     5.6814      0.107      0.155    27.3235   996.4449 0.0000e+00
      0.109 -4.921e-19     7.9699    100.624     37.342  39.086423     3.2382      9.206   386.0930 6.2832e+02     5.7801      0.107      0.155    27.3250   996.4445 0.0000e+00
      0.109 -5.478e-18     7.9731    100.663     37.348  39.092094     3.2864      9.204   385.3077 6.9473e+02     5.8388      0.107      0.155    27.3268   996.4440 0.0000e+00
      0.108 -6.026e-17     7.9713    100.637     37.379  39.122565     3.2958      9.202   385.9775 6.9305e+02     5.8662      0.106      0.154    27.3286   996.4435 0.0000e+00
      0.108 -6.628e-16     7.9634    100.533     37.395  39.137454     3.2915      9.201   386.1034 6.2510e+02     5.8823      0.106      0.154    27.3292   996.4433 0.0000e+00
      0.109 -7.291e-15     7.9497    100.354     37.404  39.145144     3.2867      9.201   385.3671 5.3516e+02     5.8692      0.107      0.155    27.3293   996.4433 0.0000e+00
      0.109 -8.020e-14     7.9303    100.105     37.412  39.152073     3.2893      9.200   384.0434 4.0891e+02     5.8389      0.107      0.156    27.3293   996.4433 0.0000e+00
      0.109 -8.822e-13     7.9047     99.777     37.420  39.157745     3.2881      9.199   383.0050 3.6171e+02     5.8437      0.107      0.155    27.3273   996.4439 0.0000e+00
      0.109 -9.705e-12     7.8741     99.387     37.415  39.150245     3.2804      9.197   382.5353 3.7096e+02     5.8614      0.107      0.156    27.3238   996.4448 0.0000e+00
      0.109 -1.068e-10     7.8400     98.953     37.392  39.124863     3.2744      9.196   382.4938 3.3417e+02     5.8244      0.107      0.155    27.3207   996.4457 0.0000e+00
      0.109 -1.174e-09     7.8029     98.482     37.373  39.104770     3.2773      9.193   382.8464 3.0176e+02     5.7884      0.107      0.156    27.3181   996.4464 0.0000e+00
      0.109 -1.292e-08     7.7645     97.998     37.366  39.097736     3.2886      9.192   382.7548 3.0360e+02     5.8196      0.107      0.156    27.3157   996.4471 0.0000e+00
      0.109 -1.421e-07     7.7276     97.533     37.371  39.103299     3.2983      9.192   381.9881 3.0733e+02     5.8741      0.107      0.156    27.3129   996.4479 0.0000e+00
      0.109 -2.605e-07     7.6939     97.108     37.376  39.108547     3.2999      9.191   381.2349 3.0194e+02     5.8908      0.107      0.156    27.3107   996.4485 0.0000e+00
      0.109 -1.421e-07     7.6624     96.710     37.366  39.097713     3.2906      9.191   380.6167 3.0721e+02     5.8579      0.108      0.156    27.3098   996.4488 0.0000e+00
      0.109 -1.291e-08     7.6309     96.309     37.368  39.099261     3.2808      9.190   380.0207 3.1033e+02     5.8373      0.107      0.155    27.3101   996.4487 0.0000e+00
      0.109 -1.174e-09     7.5947     95.849     37.397  39.127271     3.2848      9.188   380.2229 3.0358e+02     5.9028      0.107      0.155    27.3110   996.4484 0.0000e+00
      0.109 -1.068e-10     7.5513     95.295     37.392  39.118973     3.2965      9.186   380.9959 3.0649e+02     6.0278      0.107      0.155    27.3113   996.4483 0.0000e+00
      0.109 -9.705e-12     7.5044     94.696     37.341  39.062410     3.3003      9.184   380.8492 3.0310e+02     6.1028      0.108      0.156    27.3109   996.4484 0.0000e+00
      0.109 -8.820e-13     7.4577     94.096     37.300  39.014677     3.2964      9.182   379.7407 3.1666e+02     6.0884      0.107      0.156    27.3098   996.4487 0.0000e+00
      0.109 -8.020e-14     7.4108     93.495     37.277  38.986185     3.3102      9.179   378.6064 3.5040e+02     6.0831      0.107      0.155    27.3074   996.4494 0.0000e+00
      0.109 -7.290e-15     7.3653     92.910     37.268  38.971826     3.3365      9.176   379.0079 3.3514e+02     6.1044      0.107      0.156    27.3036   996.4505 0.0000e+00
      0.110 -6.625e-16     7.3252     92.391     37.269  38.968014     3.3461      9.172   380.5506 3.0428e+02     6.0840      0.108      0.156    27.2987   996.4518 0.0000e+00
      0.110 -6.025e-17     7.2925     91.965     37.248  38.940091     3.3478      9.169   380.9980 3.4007e+02     6.0654      0.108      0.156    27.2928   996.4534 0.0000e+00
      0.110 -5.475e-18     7.2651     91.605     37.204  38.888118     3.3487      9.167   380.2010 3.8752e+02     6.0760      0.108      0.156    27.2866   996.4551 0.0000e+00
      0.110 -4.979e-19     7.2394     91.265     37.173  38.847436     3.3317      9.166   379.0023 3.9653e+02     6.1471      0.108      0.156    27.2797   996.4571 0.0000e+00
      0.110 -4.527e-20     7.2119     90.899     37.164  38.829065     3.3058      9.164   378.8078 4.2434e+02     6.2705      0.108      0.156    27.2720   996.4592 0.0000e+00
      0.110 -4.115e-21     7.1813     90.491     37.139  38.792945     3.2958      9.163   379.8284 4.6418e+02     6.3221      0.108      0.156    27.2642   996.4613 0.0000e+00
      0.110 -3.741e-22     7.1480     90.048     37.087  38.728084     3.2978      9.162   380.3289 4.5712e+02     6.3126      0.108      0.156    27.2561   996.4636 0.0000e+00
      0.110 -3.401e-23     7.1105     89.555     37.051  38.679604     3.3122      9.161   379.7839 4.2832e+02     6.3181      0.108      0.157    27.2469   996.4661 0.0000e+00
      0.110 -3.092e-24     7.0675     88.995     37.031  38.651106     3.3400      9.160   378.9177 4.4927e+02     6.3232      0.108      0.156    27.2347   996.4695 0.0000e+00
      0.110 -2.811e-25     7.0221     88.408     37.026  38.637419     3.3574      9.157   378.2863 4.9281e+02     6.3101      0.108      0.156    27.2200   996.4736 0.0000e+00
      0.110 -2.555e-26     6.9770     87.824     37.036  38.641068     3.3569      9.155   377.7421 5.0756e+02     6.2898      0.108      0.157    27.2053   996.4776 0.0000e+00
      0.110 -2.323e-27     6.9316     87.240     37.032  38.631728     3.3522      9.153   377.3284 5.3412e+02     6.2088      0.108      0.157    27.1921   996.4813 0.0000e+00
      0.110 -2.111e-28     6.8873     86.671     36.995  38.587959     3.3521      9.152   377.2423 5.5164e+02     6.0851      0.108      0.157    27.1802   996.4846 0.0000e+00
      0.110 -1.920e-29     6.8456     86.135     36.970  38.556200     3.3560      9.150   377.1310 4.8983e+02     6.0717      0.108      0.156    27.1700   996.4874 0.0000e+00
      0.110 -1.745e-30     6.8049     85.612     36.984  38.565110     3.3649      9.149   376.8440 4.4994e+02     6.1456      0.107      0.156    27.1612   996.4898 0.0000e+00
      0.110 -1.587e-31     6.7635     85.081     36.992  38.568721     3.3728      9.148   375.9225 4.6641e+02     6.2901      0.108      0.157    27.1528   996.4921 0.0000e+00
      0.110 -1.442e-32     6.7226     84.556     36.966  38.536380     3.3643      9.147   374.6792 4.5373e+02     6.5414      0.108      0.157    27.1450   996.4942 0.0000e+00
      0.110 -1.311e-33     6.6836     84.056     36.927  38.491460     3.3498      9.146   374.2013 4.4139e+02     6.6933      0.107      0.156    27.1381   996.4961 0.0000e+00
      0.110 -1.192e-34     6.6449     83.560     36.912  38.469937     3.3523      9.144   374.1026 4.4384e+02     6.6848      0.108      0.156    27.1317   996.4979 0.0000e+00
      0.110 -1.084e-35     6.6068     83.071     36.913  38.466577     3.3603      9.142   374.2599 4.7093e+02     6.5367      0.108      0.157    27.1251   996.4997 0.0000e+00
      0.110 -9.850e-37     6.5699     82.596     36.902  38.450824     3.3508      9.140   374.7261 4.7308e+02     6.2459      0.108      0.157    27.1182   996.5016 0.0000e+00
      0.110 -8.955e-38     6.5319     82.111     36.864  38.406416     3.3413      9.139   373.7161 4.0728e+02     6.0522      0.108      0.156    27.1114   996.5035 0.0000e+00
      0.110 -8.140e-39     6.4934     81.618     36.837  38.373980     3.3503      9.137   371.4266 3.7760e+02     6.0298      0.108      0.156    27.1046   996.5053 0.0000e+00
      0.110 -7.400e-40     6.4574     81.158     36.842  38.376022     3.3636      9.136   370.3608 4.2340e+02     6.0417      0.108      0.157    27.0981   996.5072 0.0000e+00
      0.110 -6.730e-41     6.4228     80.716     36.837  38.367618     3.3810      9.135   370.7247 4.7294e+02     6.0982      0.108      0.157    27.0921   996.5089 0.0000e+00
      0.110 -6.115e-42     6.3880     80.273     36.810  38.335846     3.4045      9.134   371.3531 4.5560e+02     6.2203      0.108      0.157    27.0860   996.5105 0.0000e+00
      0.110 -5.560e-43     6.3548     79.849     36.788  38.309246     3.4134      9.133   370.7302 3.9773e+02     6.2729      0.108      0.157    27.0800   996.5122 0.0000e+00
      0.110 -5.055e-44     6.3219     79.429     36.783  38.299904     3.4106      9.133   368.7862 3.8166e+02     6.2427      0.109      0.158    27.0748   996.5136 0.0000e+00
      0.110 -4.596e-45     6.2896     79.016     36.774  38.286361     3.4150      9.132   367.6372 3.9834e+02     6.3132      0.108      0.157    27.0702   996.5149 0.0000e+00
      0.110 -4.178e-46     6.2597     78.633     36.764  38.272443     3.4227      9.131   367.6787 3.8085e+02     6.4707      0.108      0.156    27.0655   996.5161 0.0000e+00
      0.110 -3.798e-47     6.2332     78.292     36.754  38.258568     3.4261      9.129   367.8250 3.9598e+02     6.5408      0.108      0.157    27.0608   996.5174 0.0000e+00
      0.110 -3.456e-48     6.2089     77.979     36.745  38.245549     3.4203      9.128   367.5991 5.3197e+02     6.5388      0.108      0.157    27.0561   996.5188 0.0000e+00
      0.110 -3.442e-49     6.1847     77.668     36.746  38.241982     3.4052      9.127   367.1852 6.4000e+02     6.4786      0.108      0.157    27.0512   996.5201 0.0000e+00
      0.110 -3.620e-49     6.1616     77.370     36.724  38.215436     3.3993      9.125   366.5197 5.9834e+02     6.3706      0.108      0.157    27.0461   996.5215 0.0000e+00
      0.110 -3.671e-48     6.1404     77.095     36.693  38.178491     3.4106      9.123   365.5760 5.3495e+02     6.3472      0.108      0.157    27.0405   996.5230 0.0000e+00
      0.110 -4.036e-47     6.1215     76.849     36.694  38.176129     3.4205      9.121   365.0661 4.9401e+02     6.3590      0.108      0.157    27.0351   996.5245 0.0000e+00
      0.110 -4.439e-46     6.1036     76.618     36.709  38.186869     3.4226      9.119   365.0013 4.3842e+02     6.3825      0.108      0.157    27.0292   996.5261 0.0000e+00
      0.110 -4.883e-45     6.0839     76.363     36.708  38.181396     3.4185      9.117   365.2232 4.4737e+02     6.4672      0.108      0.157    27.0231   996.5278 0.0000e+00
      0.110 -5.371e-44     6.0631     76.094     36.704  38.173420     3.4142      9.115   365.5979 5.0724e+02     6.5307      0.108      0.157    27.0174   996.5293 0.0000e+00
      0.110 -5.908e-43     6.0436     75.842     36.689  38.153910     3.4236      9.114   365.4879 5.5780e+02     6.5604      0.108      0.157    27.0117   996.5309 0.0000e+00
      0.110 -6.499e-42     6.0261     75.614     36.676  38.135917     3.4447      9.113   365.0976 5.7105e+02     6.4987      0.108      0.157    27.0063   996.5324 0.0000e+00
      0.110 -7.149e-41     6.0097     75.401     36.691  38.146294     3.4615      9.112   364.5781 5.1929e+02     6.3419      0.108      0.157    27.0006   996.5340 0.0000e+00
      0.110 -7.864e-40     5.9923     75.173     36.701  38.152423     3.4621      9.112   364.7140 4.4970e+02     6.2706      0.108      0.157    26.9950   996.5355 0.0000e+00
      0.110 -8.650e-39     5.9758     74.958     36.700  38.146534     3.4606      9.112   365.7930 3.9992e+02     6.2927      0.108      0.157    26.9893   996.5371 0.0000e+00
      0.110 -9.516e-38     5.9610     74.764     36.697  38.138560     3.4611      9.111   366.0960 3.6507e+02     6.2807      0.108      0.157    26.9833   996.5387 0.0000e+00
      0.110 -1.047e-36     5.9435     74.534     36.683  38.119480     3.4330      9.109   365.7099 3.4467e+02     6.2898      0.108      0.157    26.9775   996.5403 0.0000e+00
      0.110 -1.151e-35     5.9260     74.307     36.675  38.106256     3.3806      9.108   364.9973 3.7645e+02     6.4022      0.108      0.157    26.9715   996.5420 0.0000e+00
      0.110 -1.267e-34     5.9108     74.107     36.679  38.105622     3.3482      9.107   363.7598 4.9755e+02     6.5256      0.108      0.157    26.9649   996.5438 0.0000e+00
      0.110 -1.393e-33     5.8961     73.914     36.690  38.111808     3.3448      9.105   363.8253 6.2720e+02     6.5699      0.108      0.157    26.9580   996.5457 0.0000e+00
      0.110 -1.532e-32     5.8830     73.740     36.700  38.117560     3.3661      9.103   365.1877 6.8013e+02     6.5114      0.109      0.158    26.9514   996.5474 0.0000e+00
      0.110 -1.686e-31     5.8710     73.581     36.699  38.111690     3.3969      9.103   365.6910 6.4092e+02     6.3745      0.108      0.157    26.9449   996.5492 0.0000e+00
      0.111 -1.854e-30     5.8596     73.430     36.697  38.104302     3.4052      9.103   365.0067 5.2033e+02     6.2580      0.109      0.158    26.9382   996.5511 0.0000e+00
      0.111 -2.040e-29     5.8498     73.298     36.689  38.091702     3.4055      9.103   363.9692 4.0220e+02     6.2510      0.109      0.158    26.9313   996.5530 0.0000e+00
      0.110 -2.244e-28     5.8407     73.176     36.689  38.086290     3.4179      9.102   363.4716 3.4080e+02     6.3558      0.108      0.157    26.9244   996.5549 0.0000e+00
      0.110 -2.468e-27     5.8312     73.048     36.709  38.102340     3.4246      9.100   363.6366 3.2707e+02     6.4759      0.108      0.157    26.9178   996.5567 0.0000e+00
      0.110 -2.715e-26     5.8229     72.935     36.707  38.095312     3.4178      9.098   363.8989 3.6920e+02     6.5237      0.108      0.157    26.9113   996.5585 0.0000e+00
      0.110 -2.986e-25     5.8152     72.830     36.682  38.064787     3.4138      9.097   363.9758 4.2357e+02     6.5077      0.108      0.157    26.9048   996.5602 0.0000e+00
      0.110 -3.285e-24     5.8072     72.720     36.674  38.050647     3.4193      9.095   363.7920 4.0987e+02     6.3803      0.108      0.157    26.8982   996.5621 0.0000e+00
      0.110 -3.614e-23     5.7995     72.614     36.679  38.051291     3.4234      9.095   363.4833 4.3928e+02     6.1635      0.109      0.158    26.8915   996.5639 0.0000e+00
      0.110 -3.975e-22     5.7899     72.484     36.705  38.072566     3.4291      9.095   362.6529 5.3841e+02     6.0485      0.108      0.157    26.8849   996.5657 0.0000e+00
      0.110 -4.372e-21     5.7782     72.326     36.754  38.117444     3.4270      9.093   361.7537 5.4649e+02     6.0392      0.108      0.157    26.8783   996.5675 0.0000e+00
      0.110 -4.810e-20     5.7689     72.199     36.792  38.149554     3.3976      9.091   361.8171 4.8251e+02     6.0508      0.108      0.157    26.8716   996.5694 0.0000e+00
      0.110 -5.291e-19     5.7615     72.094     36.793  38.143417     3.3695      9.091   361.9568 4.1215e+02     6.0901      0.108      0.157    26.8641   996.5714 0.0000e+00
      0.110 -5.820e-18     5.7518     71.958     36.765  38.106697     3.3644      9.090   361.8087 3.8339e+02     6.0881      0.108      0.157    26.8561   996.5736 0.0000e+00
      0.110 -6.402e-17     5.7415     71.814     36.753  38.086427     3.3704      9.090   360.9726 4.1279e+02     6.0600      0.108      0.157    26.8475   996.5760 0.0000e+00
      0.110 -7.042e-16     5.7330     71.694     36.764  38.088752     3.3733      9.090   359.3318 4.2354e+02     6.0787      0.109      0.158    26.8382   996.5785 0.0000e+00
      0.110 -7.746e-15     5.7253     71.584     36.755  38.071323     3.3730      9.088   358.5755 4.2363e+02     6.2154      0.108      0.156    26.8285   996.5812 0.0000e+00
      0.110 -8.520e-14     5.7184     71.484     36.757  38.066110     3.3925      9.086   358.4540 4.3698e+02     6.4346      0.108      0.157    26.8181   996.5840 0.0000e+00
      0.110 -9.373e-13     5.7133     71.407     36.787  38.089192     3.4189      9.085   358.4649 4.0331e+02     6.5334      0.109      0.158    26.8075   996.5869 0.0000e+00
      0.110 -1.031e-11     5.7088     71.335     36.802  38.096487     3.4235      9.085   357.9325 3.8065e+02     6.5579      0.108      0.157    26.7964   996.5900 0.0000e+00
      0.110 -1.134e-10     5.7043     71.265     36.805  38.090817     3.4139      9.085   356.2334 4.2142e+02     6.6325      0.108      0.157    26.7851   996.5930 0.0000e+00
      0.110 -1.247e-09     5.7000     71.197     36.806  38.084103     3.4064      9.084   355.1289 4.7877e+02     6.7144      0.108      0.157    26.7741   996.5960 0.0000e+00
      0.111 -1.372e-08     5.6936     71.104     36.808  38.078768     3.4106      9.082   354.9886 5.1476e+02     6.7606      0.109      0.158    26.7633   996.5990 0.0000e+00
      0.111 -1.509e-07     5.6871     71.008     36.827  38.089782     3.4212      9.081   355.3973 4.8426e+02     6.7654      0.109      0.158    26.7525   996.6019 0.0000e+00
      0.111     -0.000     5.6828     70.939     36.836  38.090302     3.4219      9.081   356.1131 4.8048e+02     6.7076      0.109      0.158    26.7413   996.6050 0.0000e+00
      0.111     -0.000     5.6780     70.863     36.839  38.085052     3.4102      9.081   355.8996 5.3460e+02     6.6196      0.108      0.157    26.7300   996.6081 0.0000e+00
      0.111     -0.000     5.6706     70.754     36.853  38.089766     3.4018      9.080   354.7945 5.0206e+02     6.5852      0.109      0.158    26.7191   996.6111 0.0000e+00
      0.110     -0.002     5.6629     70.643     36.857  38.083802     3.4073      9.079   353.9370 4.2520e+02     6.5872      0.108      0.157    26.7080   996.6141 0.0000e+00
      0.110     -0.024     5.6569     70.552     36.859  38.076397     3.3978      9.077   353.7051 4.3245e+02     6.5122      0.108      0.157    26.6964   996.6172 0.0000e+00
      0.111     -0.267     5.6511     70.463     36.855  38.063703     3.3661      9.077   353.7116 4.4340e+02     6.3667      0.109      0.158    26.6844   996.6205 0.0000e+00
      0.111     -2.941     5.6436     70.354     36.858  38.057262     3.3535      9.076   353.8429 4.0077e+02     6.3031      0.109      0.158    26.6716   996.6240 0.0000e+00
      0.111     -2.941     5.6352     70.232     36.872  38.061979     3.3579      9.075   354.0885 4.1315e+02     6.3006      0.109      0.158    26.6584   996.6275 0.0000e+00
      0.111     -0.267     5.6275     70.121     36.876  38.057249     3.3753      9.074   353.9280 4.3457e+02     6.2376      0.109      0.158    26.6454   996.6311 0.0000e+00
      0.111     -0.024     5.6209     70.024     36.891  38.063532     3.4080      9.075   353.1925 3.6511e+02     6.1312      0.109      0.158    26.6327   996.6345 0.0000e+00
      0.111     -0.002     5.6144     69.928     36.910  38.074454     3.4236      9.075   352.2510 3.0821e+02     6.0629      0.109      0.158    26.6200   996.6381 0.0000e+00
      0.111     -0.000     5.6077     69.832     36.905  38.062341     3.4167      9.075   351.6654 3.4167e+02     6.0667      0.109      0.158    26.6069   996.6416 0.0000e+00
      0.111     -0.000     5.6022     69.749     36.895  38.044020     3.4112      9.076   352.3064 3.9847e+02     6.1445      0.109      0.158    26.5943   996.6449 0.0000e+00
      0.110     -0.000     5.5974     69.677     36.902  38.043355     3.4174      9.077   353.3761 4.1017e+02     6.2498      0.108      0.157    26.5825   996.6482 0.0000e+00
      0.110 -1.509e-07     5.5944     69.631     37.102  38.244710     3.4221      9.077   353.1563 3.8957e+02     6.2910      0.108      0.157    26.5713   996.6512 0.0000e+00
      0.111 -1.372e-08     5.6096     69.850     37.590  38.764683     3.4158      9.077   352.4874 3.8608e+02     6.2829      0.109      0.158    26.5604   996.6542 0.0000e+00
      0.111 -1.247e-09     5.7288     71.471     37.987  39.252078     3.4108      9.077   351.9997 4.2028e+02     6.3152      0.109      0.158    26.5502   996.6569 0.0000e+00
      0.111 -1.134e-10     6.1232     76.644     38.042  39.440438     3.4483      9.076   351.9920 4.5193e+02     6.5184      0.109      0.158    26.5401   996.6596 0.0000e+00
      0.111 -1.031e-11     6.8471     85.964     37.932  39.455349     3.5148      9.073   352.9972 4.3607e+02     6.8384      0.109      0.158    26.5298   996.6624 0.0000e+00
      0.111 -9.370e-13     7.7301     97.247     37.824  39.432568     3.5378      9.070   353.5707 4.0572e+02     7.0064      0.109      0.158    26.5221   996.6647 0.0000e+00
      0.111 -8.520e-14     8.5874    108.170     37.757  39.419050     3.5273      9.067   353.3330 4.4822e+02     7.0092      0.109      0.158    26.6205   996.6382 0.0000e+00
      0.111 -7.745e-15     9.3226    117.523     37.723  39.418950     3.5097      9.067   352.7043 4.8731e+02     6.9376      0.109      0.158    26.8438   996.5774 0.0000e+00
      0.111 -7.040e-16     9.8878    124.708     37.715  39.431416     3.4801      9.066   352.1639 4.5754e+02     6.8288      0.109      0.158    27.0254   996.5275 0.0000e+00
      0.111 -6.400e-17    10.2584    129.421     37.713  39.442841     3.4644      9.066   352.3915 4.9772e+02     6.7750      0.109      0.158    27.1331   996.4978 0.0000e+00
      0.111 -5.820e-18    10.4207    131.495     37.693  39.430153     3.4675      9.065   352.6163 5.2917e+02     6.7780      0.109      0.158    27.2057   996.4778 0.0000e+00
      0.111 -5.290e-19    10.3992    131.241     37.663  39.404979     3.4398      9.064   352.4735 4.8021e+02     6.7679      0.108      0.157    27.2472   996.4662 0.0000e+00
      0.111 -4.783e-20    10.2622    129.523     37.648  39.392396     3.3809      9.062   352.1280 4.7674e+02     6.7511      0.109      0.158    27.2728   996.4590 0.0000e+00
      0.111 -1.465e-21    10.0887    127.348     37.655  39.404977     3.3541      9.061   351.5354 5.0049e+02     6.7710      0.109      0.159    27.2889   996.4546 0.0000e+00
      0.111 3.1582e-20     9.9293    125.356     37.672  39.430150     3.3580      9.060   350.8157 4.9219e+02     6.7800      0.109      0.158    27.3005   996.4514 0.0000e+00
      0.111 3.5174e-19     9.8010    123.756     37.678  39.442845     3.3677      9.059   350.1372 4.6275e+02     6.6950      0.109      0.158    27.3061   996.4498 0.0000e+00
      0.111 3.8695e-18     9.7043    122.541     37.665  39.431520     3.3850      9.058   349.8701 4.7848e+02     6.5621      0.109      0.158    27.3099   996.4488 0.0000e+00
      0.111 4.2565e-17     9.6344    121.651     37.657  39.420189     3.4024      9.056   349.9959 5.1894e+02     6.5496      0.109      0.159    27.3165   996.4470 0.0000e+00
      0.111 4.6821e-16     9.5856    121.020     37.675  39.432791     3.4128      9.053   350.1099 5.0434e+02     6.6099      0.109      0.159    27.3270   996.4441 0.0000e+00
      0.111 5.1503e-15     9.5515    120.575     37.702  39.456925     3.4060      9.050   349.1836 4.5931e+02     6.5376      0.109      0.158    27.3371   996.4412 0.0000e+00
      0.111 5.6654e-14     9.5298    120.288     37.707  39.458061     3.3809      9.047   347.3996 4.1368e+02     6.3641      0.109      0.159    27.3401   996.4405 0.0000e+00
      0.111 6.2319e-13     9.5154    120.095     37.700  39.446520     3.3526      9.045   346.5213 3.8415e+02     6.2486      0.109      0.159    27.3354   996.4417 0.0000e+00
      0.111 6.8551e-12     9.5023    119.916     37.703  39.444337     3.3413      9.043   346.8246 3.9480e+02     6.2230      0.109      0.158    27.3271   996.4440 0.0000e+00
      0.112 7.5406e-11     9.4901    119.751     37.695  39.431661     3.3563      9.041   347.2802 4.3616e+02     6.2509      0.110      0.159    27.3196   996.4461 0.0000e+00
      0.112 8.2947e-10     9.4839    119.670     37.685  39.420206     3.3702      9.038   346.6098 4.5578e+02     6.2249      0.110      0.160    27.3151   996.4474 0.0000e+00
      0.112 9.1241e-09     9.4846    119.685     37.695  39.432797     3.3618      9.036   345.1723 4.5540e+02     6.1060      0.109      0.159    27.3096   996.4489 0.0000e+00
      0.112 1.0037e-07     9.4856    119.710     37.714  39.456940     3.3496      9.034   344.4402 4.6340e+02     6.0261      0.110      0.159    27.3021   996.4510 0.0000e+00
      0.112      0.000     9.4846    119.709     37.711  39.458198     3.3530      9.033   344.2111 4.5211e+02     6.0124      0.110      0.159    27.2961   996.4527 0.0000e+00
      0.112      0.000     9.4832    119.703     37.698  39.448018     3.3760      9.030   344.2950 4.5668e+02     6.0389      0.110      0.160    27.2939   996.4533 0.0000e+00
      0.112      0.000     9.4819    119.703     37.703  39.460815     3.4026      9.028   344.7656 5.0123e+02     6.0834      0.110      0.160    27.2979   996.4521 0.0000e+00
      0.112      0.001     9.4790    119.692     37.718  39.485985     3.4154      9.024   344.2224 5.2290e+02     6.0922      0.110      0.160    27.3056   996.4500 0.0000e+00
      0.112      0.006     9.4743    119.662     37.721  39.498432     3.4182      9.001   342.4599 5.3906e+02     6.0792      0.110      0.160    27.3112   996.4485 0.0000e+00
      0.112      0.013     9.4703    119.644     37.697  39.484372     3.4189      8.956   341.1798 5.8002e+02     6.2543      0.110      0.160    27.3146   996.4475 0.0000e+00
      0.112      0.016     9.4691    119.670     37.643  39.442953     3.4239      8.931   340.7900 5.5384e+02     6.6033      0.110      0.160    27.3222   996.4454 0.0000e+00
      0.117      0.009     9.4731    119.753     37.571  39.378545     3.4268      8.943   340.7582 4.9140e+02     6.7600      0.111      0.161    27.3366   996.4414 0.0000e+00
      0.131     -0.009     9.4806    119.856     37.531  39.340448     3.4185      8.966   341.1392 5.0250e+02     6.7065      0.128      0.184    27.3495   996.4379 0.0000e+00
      0.144     -0.033     9.4858    119.915     37.555  39.363209     3.3583      8.985   341.5243 5.5017e+02     6.4477      0.150      0.216    27.3618   996.4346 0.0000e+00
      0.139     -0.055     9.4853    119.900     37.593  39.399828     3.2533      8.996   341.1986 5.5804e+02     6.0559      0.148      0.215    27.3853   996.4281 0.0000e+00
      0.107     -0.071     9.4811    119.841     37.598  39.402316     3.1902      9.001   340.4706 6.2815e+02     5.8701      0.109      0.159    27.4049   996.4224 0.0000e+00
      0.062     -0.080     9.4766    119.778     37.591  39.393290     3.1675      9.002   339.7786 8.5151e+02     5.8397      0.054      0.079    27.4051   996.4221 0.0000e+00
      0.029     -0.076     9.4749    119.754     37.615  39.417651     3.1173      9.002   339.8863 1.0228e+03     5.8195      0.020      0.030    27.3999   996.4234 0.0000e+00
      0.014     -0.058     9.4779    119.796     37.638  39.442940     3.0346      9.000   340.7403 1.0571e+03     5.8224      0.010      0.015    27.3949   996.4246 0.0000e+00
      0.010     -0.032     9.4814    119.848     37.637  39.445135     2.9915      8.993   340.8979 1.0547e+03     5.8415      0.009      0.013    27.3926   996.4253 0.0000e+00
      0.009     -0.012     9.4826    119.868     37.634  39.444199     2.9948      8.987   340.1571 1.0527e+03     5.8544      0.009      0.012    27.3912   996.4257 0.0000e+00
      0.012     -0.002     9.4862    119.918     37.621  39.431626     2.9878      8.987   339.1835 1.0633e+03     5.8472      0.010      0.014    27.3872   996.4268 0.0000e+00
      0.018     -0.003     9.4945    120.030     37.608  39.420076     2.8890      8.991   338.5038 1.0731e+03     5.8526      0.019      0.027    27.3900   996.4261 0.0000e+00
      0.023     -0.008     9.5030    120.146     37.616  39.431523     2.7203      8.993   338.4781 1.0706e+03     5.8542      0.026      0.037    27.3956   996.4246 0.0000e+00
      0.019     -0.014     9.5083    120.217     37.626  39.443076     2.6379      8.995   338.9584 1.0643e+03     5.8339      0.021      0.030    27.3983   996.4238 0.0000e+00
      0.009     -0.019     9.5099    120.237     37.616  39.432792     2.6381      8.996   339.0630 1.0581e+03     5.8354      0.007      0.012    27.3979   996.4239 0.0000e+00
     -0.001     -0.021     9.5087    120.225     37.616  39.434144     2.6360      8.997   338.5379 1.0513e+03     5.8408     -0.003     -0.002    27.4014   996.4228 0.0000e+00
     -0.009     -0.017     9.5046    120.182     37.637  39.459431     2.6218      8.998   337.9440 1.0478e+03     5.8333     -0.010     -0.014    27.4073   996.4211 0.0000e+00
     -0.014     -0.010     9.4977    120.111     37.656  39.484613     2.6130      8.995   337.3884 1.0473e+03     5.8430     -0.015     -0.021    27.4087   996.4208 0.0000e+00
     -0.015     -0.001     9.4922    120.059     37.650  39.484709     2.6160      8.989   336.9829 1.0495e+03     5.8590     -0.015     -0.022    27.4078   996.4209 0.0000e+00
     -0.012      0.006     9.4914    120.063     37.622  39.460603     2.6065      8.983   336.6546 1.0530e+03     5.9295     -0.013     -0.019    27.4087   996.4207 0.0000e+00
     -0.006      0.010     9.4958    120.125     37.607  39.447077     2.5762      8.977   336.1728 1.0527e+03     6.0395     -0.006     -0.008    27.4124   996.4198 0.0000e+00
     -0.000      0.012     9.5024    120.211     37.607  39.448126     2.5527      8.974   335.7170 1.0185e+03     6.0749      0.001      0.002    27.4202   996.4176 0.0000e+00
      0.003      0.012     9.5060    120.259     37.631  39.473290     2.5562      8.972   335.4459 8.6963e+02     6.0623      0.003      0.004    27.4307   996.4147 0.0000e+00
      0.003      0.012     9.5075    120.279     37.654  39.497414     2.5932      8.969   335.3042 5.9663e+02     6.0186      0.003      0.004    27.4375   996.4128 0.0000e+00
      0.004      0.012     9.5107    120.322     37.642  39.485880     2.6443      8.969   335.1221 4.0234e+02     5.9067      0.002      0.003    27.4397   996.4122 0.0000e+00
      0.008      0.012     9.5147    120.374     37.617  39.460792     2.6708      8.968   334.7923 4.8900e+02     5.8244      0.006      0.010    27.4407   996.4119 0.0000e+00
      0.013      0.012     9.5172    120.406     37.605  39.448001     2.6801      8.966   334.1561 7.6669e+02     5.8419      0.014      0.020    27.4418   996.4116 0.0000e+00
      0.017      0.010     9.5167    120.399     37.615  39.458190     2.7050      8.966   333.2811 9.8636e+02     5.8890      0.016      0.024    27.4422   996.4116 0.0000e+00
      0.020      0.004     9.5124    120.345     37.614  39.457026     2.7378      8.968   333.0750 1.0591e+03     5.9027      0.020      0.029    27.4430   996.4114 0.0000e+00
      0.023     -0.007     9.5082    120.292     37.592  39.433933     2.7474      8.970   333.5566 1.0653e+03     5.8760      0.024      0.034    27.4438   996.4111 0.0000e+00
      0.024     -0.019     9.5075    120.280     37.592  39.432892     2.7427      8.970   333.5976 1.0646e+03     5.8286      0.024      0.034    27.4432   996.4113 0.0000e+00
      0.020     -0.029     9.5091    120.297     37.604  39.444434     2.7336      8.969   332.8819 1.0636e+03     5.7881      0.022      0.033    27.4433   996.4112 0.0000e+00
      0.006     -0.034     9.5100    120.308     37.606  39.446524     2.6720      8.966   332.0440 1.0656e+03     5.6817      0.009      0.014    27.4438   996.4110 0.0000e+00
     -0.014     -0.034     9.5090    120.297     37.616  39.458159     2.5692      8.962   332.0708 1.0671e+03     5.4925     -0.019     -0.026    27.4444   996.4107 0.0000e+00
     -0.028     -0.031     9.5092    120.302     37.615  39.458158     2.5138      8.961   332.7767 1.0650e+03     5.3686     -0.033     -0.047    27.4430   996.4112 0.0000e+00
     -0.032     -0.023     9.5117    120.336     37.604  39.446511     2.5048      8.958   333.0933 1.0623e+03     5.3640     -0.032     -0.046    27.4391   996.4122 0.0000e+00
     -0.032     -0.013     9.5142    120.367     37.602  39.444298     2.5293      8.952   332.8009 1.0598e+03     5.5671     -0.031     -0.045    27.4394   996.4121 0.0000e+00
     -0.032     -0.005     9.5159    120.386     37.590  39.431402     2.5854      8.946   332.2529 1.0589e+03     5.8915     -0.032     -0.047    27.4417   996.4115 0.0000e+00
     -0.032     -0.003     9.5168    120.389     37.579  39.417552     2.6197      8.943   331.5435 1.0572e+03     6.0406     -0.033     -0.047    27.4428   996.4112 0.0000e+00
     -0.029     -0.003     9.5163    120.375     37.569  39.403797     2.6402      8.942   331.1072 1.0523e+03     6.0598     -0.027     -0.040    27.4434   996.4110 0.0000e+00
     -0.029     -0.004     9.5136    120.336     37.560  39.392047     2.7647      8.938   331.3655 1.0486e+03     5.9918     -0.026     -0.038    27.4436   996.4109 0.0000e+00
     -0.034     -0.005     9.5090    120.275     37.571  39.402433     2.9806      8.934   331.5688 1.0486e+03     5.8743     -0.035     -0.050    27.4431   996.4110 0.0000e+00
     -0.038     -0.005     9.5070    120.248     37.571  39.402422     3.1001      8.932   331.5008 1.0523e+03     5.8514     -0.038     -0.057    27.4391   996.4121 0.0000e+00
     -0.038     -0.005     9.5106    120.294     37.561  39.391912     3.1087      8.931   331.4030 1.0566e+03     5.8462     -0.038     -0.055    27.4340   996.4135 0.0000e+00
     -0.038     -0.003     9.5164    120.369     37.570  39.402309     3.0846      8.930   330.3860 1.0590e+03     5.8113     -0.038     -0.055    27.4325   996.4140 0.0000e+00
     -0.039      0.001     9.5219    120.441     37.568  39.401174     3.0517      8.930   328.7551 1.0597e+03     5.7907     -0.038     -0.055    27.4314   996.4143 0.0000e+00
     -0.039      0.004     9.5269    120.509     37.545  39.378186     3.0402      8.931   328.1175 1.0586e+03     5.7937     -0.039     -0.056    27.4297   996.4148 0.0000e+00
     -0.037      0.006     9.5300    120.555     37.543  39.378290     3.0402      8.932   328.6135 1.0585e+03     5.8147     -0.036     -0.053    27.4302   996.4146 0.0000e+00
     -0.034      0.006     9.5318    120.587     37.563  39.402431     3.0342      8.932   329.2460 1.0594e+03     5.8809     -0.033     -0.048    27.4317   996.4142 0.0000e+00
     -0.032      0.006     9.5337    120.621     37.573  39.416158     3.0378      8.931   328.1937 1.0585e+03     6.0041     -0.031     -0.045    27.4331   996.4139 0.0000e+00
     -0.030      0.005     9.5320    120.604     37.573  39.417312     3.0489      8.930   325.7847 1.0564e+03     6.0584     -0.030     -0.044    27.4347   996.4134 0.0000e+00
     -0.029      0.002     9.5244    120.506     37.572  39.416385     3.0556      8.930   324.6400 1.0516e+03     6.0462     -0.028     -0.041    27.4377   996.4126 0.0000e+00
     -0.028     -0.001     9.5154    120.390     37.562  39.404949     3.0577      8.929   325.0229 1.0314e+03     6.0205     -0.027     -0.039    27.4424   996.4113 0.0000e+00
     -0.029     -0.003     9.5078    120.293     37.563  39.405998     2.9793      8.926   325.7683 9.6390e+02     5.8130     -0.028     -0.040    27.4475   996.4098 0.0000e+00
     -0.031     -0.004     9.5007    120.206     37.583  39.429072     2.8276      8.924   325.6504 8.3916e+02     5.5041     -0.031     -0.045    27.4496   996.4092 0.0000e+00
     -0.034     -0.004     9.4955    120.145     37.583  39.430016     2.7495      8.923   324.3722 6.7781e+02     5.3662     -0.034     -0.050    27.4477   996.4098 0.0000e+00
     -0.035     -0.004     9.4927    120.114     37.570  39.417415     2.7550      8.923   323.2192 5.0199e+02     5.3907     -0.035     -0.050    27.4460   996.4102 0.0000e+00
     -0.036     -0.004     9.4905    120.088     37.556  39.403678     2.8321      8.923   322.8077 3.5579e+02     5.5382     -0.035     -0.051    27.4466   996.4100 0.0000e+00
     -0.036     -0.004     9.4899    120.081     37.544  39.390887     2.9624      8.922   322.7525 2.8979e+02     5.7075     -0.035     -0.051    27.4483   996.4096 0.0000e+00
     -0.036     -0.007     9.4900    120.083     37.542  39.389714     3.0303      8.921   322.6379 3.3814e+02     5.7664     -0.035     -0.051    27.4506   996.4089 0.0000e+00
     -0.036     -0.017     9.4859    120.032     37.542  39.389504     3.0374      8.919   322.7987 5.1199e+02     5.7912     -0.036     -0.052    27.4522   996.4085 0.0000e+00
     -0.037     -0.033     9.4786    119.938     37.541  39.388341     2.9971      8.915   323.2343 7.5036e+02     5.6795     -0.036     -0.052    27.4530   996.4082 0.0000e+00
     -0.042     -0.057     9.4747    119.883     37.531  39.375655     2.9154      8.910   322.8283 9.4293e+02     5.4000     -0.039     -0.057    27.4539   996.4080 0.0000e+00
     -0.055     -0.086     9.4776    119.907     37.523  39.363073     2.8823      8.906   321.7621 1.0428e+03     5.3278     -0.049     -0.071    27.4542   996.4079 0.0000e+00
     -0.081     -0.115     9.4864    120.003     37.528  39.363169     2.9432      8.901   321.1841 1.0751e+03     6.3142     -0.075     -0.108    27.4544   996.4077 0.0000e+00
     -0.119     -0.135     9.4971    120.127     37.545  39.376811     3.5739      8.896   322.0346 1.0741e+03    17.2617     -0.114     -0.165    27.4541   996.4076 0.0000e+00
     -0.166     -0.141     9.5046    120.217     37.570  39.401049     4.7330      8.887   323.4415 1.0658e+03    37.4097     -0.160     -0.232    27.4516   996.4081 0.0000e+00
     -0.219     -0.132     9.5079    120.257     37.572  39.402307     5.3750      8.878   323.3955 1.0623e+03    49.0937     -0.218     -0.315    27.4462   996.4093 0.0000e+00
     -0.263     -0.109     9.5046    120.217     37.561  39.392024     5.4409      8.872   322.6827 1.0648e+03    57.9532     -0.267     -0.387    27.4373   996.4116 0.0000e+00
     -0.287     -0.078     9.4883    120.016     37.570  39.403680     5.4424      8.867   322.1366 1.0682e+03   144.5951     -0.288     -0.418    27.4306   996.4134 0.0000e+00
     -0.293     -0.046     9.4575    119.636     37.579  39.416280     5.4372      8.862   322.1270 1.0717e+03   303.2900     -0.288     -0.418    27.4292   996.4137 0.0000e+00
     -0.291     -0.018     9.4165    119.130     37.576  39.417415     5.4397      8.858   323.0830 1.0752e+03   389.7894     -0.285     -0.414    27.4290   996.4138 0.0000e+00
     -0.288      0.000     9.3692    118.544     37.572  39.417404     5.4369      8.855   323.7148 1.0755e+03   396.8729     -0.283     -0.410    27.4299   996.4136 0.0000e+00
     -0.283      0.008     9.3181    117.902     37.570  39.416154     5.3685      8.854   323.6577 1.0747e+03   388.7055     -0.278     -0.403    27.4321   996.4130 0.0000e+00
     -0.279      0.009     9.2692    117.283     37.557  39.402306     4.6480      8.854   323.0799 1.0738e+03   291.3670     -0.272     -0.395    27.4365   996.4118 0.0000e+00
     -0.277      0.009     9.2307    116.792     37.533  39.376923     3.3405      8.854   322.4082 1.0732e+03   112.9069     -0.270     -0.392    27.4434   996.4099 0.0000e+00
     -0.277      0.010     9.2089    116.513     37.522  39.363178     2.6330      8.852   322.4191 1.0701e+03    15.5709     -0.272     -0.394    27.4493   996.4082 0.0000e+00
     -0.278      0.011     9.2055    116.469     37.522  39.363063     2.5702      8.849   322.5240 1.0633e+03     6.7106     -0.273     -0.396    27.4518   996.4075 0.0000e+00
     -0.275      0.013     9.2132    116.569     37.533  39.375539     2.5645      8.848   322.3851 1.0602e+03     6.0070     -0.272     -0.394    27.4510   996.4078 0.0000e+00
     -0.269      0.017     9.2240    116.711     37.542  39.387070     2.5640      8.849   322.3746 1.0606e+03     6.1457     -0.264     -0.384    27.4487   996.4084 0.0000e+00
     -0.263      0.023     9.2383    116.898     37.529  39.375527     2.5638      8.849   322.3116 1.0523e+03     6.2900     -0.255     -0.371    27.4469   996.4089 0.0000e+00
     -0.258      0.029     9.2608    117.188     37.515  39.362936     2.5618      8.845   321.6230 9.9329e+02     6.3426     -0.253     -0.366    27.4464   996.4091 0.0000e+00
     -0.253      0.037     9.2889    117.547     37.513  39.361792     2.5745      8.838   320.6744 8.3664e+02     6.3893     -0.249     -0.362    27.4478   996.4087 0.0000e+00
     -0.245      0.047     9.3128    117.852     37.512  39.361697     2.6047      8.830   320.3923 5.9990e+02     6.4934     -0.241     -0.349    27.4508   996.4079 0.0000e+00
     -0.232      0.057     9.3272    118.035     37.512  39.361791     2.6150      8.821   320.6213 3.9306e+02     6.5854     -0.229     -0.332    27.4543   996.4070 0.0000e+00
     -0.214      0.069     9.3330    118.110     37.512  39.362935     2.6123      8.813   320.7757 3.8128e+02     6.5849     -0.211     -0.306    27.4567   996.4065 0.0000e+00
     -0.193      0.080     9.3330    118.113     37.524  39.375527     2.6498      8.808   319.9360 6.0056e+02     6.5196     -0.188     -0.274    27.4579   996.4062 0.0000e+00
     -0.171      0.088     9.3296    118.072     37.534  39.387080     2.7125      8.808   318.3838 8.7148e+02     6.4191     -0.168     -0.244    27.4588   996.4060 0.0000e+00
     -0.148      0.093     9.3240    118.002     37.522  39.375652     2.7379      8.808   317.8395 1.0218e+03     6.3198     -0.147     -0.213    27.4598   996.4059 0.0000e+00
     -0.120      0.094     9.3166    117.908     37.512  39.364319     2.7322      8.808   318.2596 1.0609e+03     6.2693     -0.117     -0.170    27.4606   996.4058 0.0000e+00
     -0.093      0.094     9.3099    117.821     37.525  39.377016     2.7306      8.808   318.7305 1.0683e+03     6.3330     -0.088     -0.128    27.4614   996.4057 0.0000e+00
     -0.069      0.094     9.3036    117.739     37.549  39.402200     2.7359      8.807   318.7147 1.0753e+03     6.4665     -0.068     -0.098    27.4625   996.4055 0.0000e+00
     -0.048      0.094     9.2930    117.604     37.561  39.414885     2.7434      8.806   318.1550 1.0814e+03     6.5079     -0.049     -0.070    27.4632   996.4053 0.0000e+00
     -0.026      0.094     9.2806    117.446     37.551  39.403438     2.7521      8.803   317.6422 1.0816e+03     6.4720     -0.026     -0.037    27.4630   996.4055 0.0000e+00
     -0.003      0.096     9.2701    117.311     37.539  39.390750     2.7976      8.800   317.3324 1.0636e+03     6.4266     -0.004     -0.005    27.4619   996.4059 0.0000e+00
      0.021      0.099     9.2566    117.138     37.538  39.388443     2.8772      8.798   317.2482 1.0888e+03     6.3844      0.019      0.027    27.4607   996.4063 0.0000e+00
      0.049      0.101     9.2381    116.904     37.526  39.375540     2.9172      8.795   317.2267 1.0638e+03     6.3548      0.048      0.068    27.4608   996.4065 0.0000e+00
      0.078      0.101     9.2230    116.712     37.513  39.361690     2.9180      8.792   316.9008 9.2007e+02     6.2984      0.077      0.112    27.4600   996.4068 0.0000e+00
      0.105      0.100     9.2171    116.636     37.500  39.347954     2.9299      8.788   316.4908 9.5195e+02     6.2597      0.104      0.150    27.4585   996.4073 0.0000e+00
      0.129      0.097     9.2188    116.659     37.489  39.336411     3.0259      8.784   316.2274 1.0817e+03     6.2143      0.127      0.184    27.4579   996.4076 0.0000e+00
      0.152      0.093     9.2272    116.764     37.501  39.349088     3.1954      8.782   316.0392 9.4830e+02     6.1103      0.149      0.216    27.4574   996.4078 0.0000e+00
      0.175      0.091     9.2414    116.942     37.526  39.374269     3.2881      8.779   316.0217 6.3730e+02     6.0513      0.172      0.249    27.4571   996.4080 0.0000e+00
      0.198      0.091     9.2600    117.176     37.538  39.386956     3.2967      8.774   316.1881 4.4389e+02     6.0580      0.194      0.282    27.4569   996.4082 0.0000e+00
      0.220      0.093     9.2813    117.444     37.528  39.375517     3.3170      8.767   316.4159 4.3833e+02     6.1251      0.216      0.313    27.4571   996.4082 0.0000e+00
      0.242      0.096     9.3030    117.719     37.516  39.362927     3.3515      8.762   316.7969 5.0385e+02     6.2410      0.236      0.342    27.4574   996.4083 0.0000e+00
      0.267      0.098     9.3187    117.919     37.515  39.361679     3.3672      8.758   317.3537 5.4083e+02     6.3123      0.259      0.377    27.4563   996.4087 0.0000e+00
      0.294      0.100     9.3232    117.977     37.513  39.360430     3.3590      8.754   317.9007 5.0714e+02     6.3311      0.288      0.418    27.4551   996.4091 0.0000e+00
      0.322      0.100     9.3237    117.983     37.501  39.347829     3.3483      8.750   318.2478 4.8716e+02     6.2712      0.317      0.459    27.4549   996.4093 0.0000e+00
      0.349      0.100     9.3263    118.017     37.490  39.336276     3.3495      8.747   318.4531 5.1504e+02     6.1458      0.342      0.496    27.4549   996.4094 0.0000e+00
      0.374      0.102     9.3277    118.032     37.502  39.347714     3.3565      8.744   318.7478 5.1659e+02     6.0931      0.367      0.532    27.4553   996.4094 0.0000e+00
      0.397      0.106     9.3266    118.014     37.514  39.359160     3.3557      8.743   319.2298 4.9099e+02     6.1259      0.390      0.566    27.4558   996.4094 0.0000e+00
      0.418      0.111     9.3249    117.988     37.504  39.347704     3.3481      8.743   319.8078 4.3256e+02     6.1814      0.408      0.591    27.4559   996.4094 0.0000e+00
      0.446      0.116     9.3231    117.960     37.495  39.336152     3.3422      8.745   320.1432 3.7834e+02     6.2396      0.433      0.627    27.4559   996.4095 0.0000e+00
      0.482      0.119     9.3242    117.970     37.507  39.346446     3.3363      8.748   319.7575 3.6439e+02     6.3052      0.473      0.686    27.4553   996.4099 0.0000e+00
      0.519      0.120     9.3298    118.035     37.507  39.345198     3.3381      8.750   319.0155 3.4809e+02     6.3523      0.512      0.743    27.4536   996.4105 0.0000e+00
      0.552      0.118     9.3329    118.070     37.485  39.321065     3.3468      8.750   318.8292 3.1794e+02     6.3500      0.543      0.788    27.4512   996.4113 0.0000e+00
      0.580      0.113     9.3290    118.016     37.475  39.308579     3.3461      8.748   318.9687 2.9379e+02     6.3439      0.570      0.827    27.4488   996.4121 0.0000e+00
      0.606      0.105     9.3246    117.956     37.489  39.321180     3.3471      8.748   319.3244 2.8131e+02     6.3431      0.594      0.862    27.4464   996.4130 0.0000e+00
      0.631      0.098     9.3290    118.009     37.513  39.346458     3.3587      8.748   319.6879 2.6768e+02     6.3406      0.618      0.897    27.4441   996.4137 0.0000e+00
      0.656      0.093     9.3414    118.165     37.527  39.360288     3.3648      8.748   319.1490 2.5604e+02     6.3131      0.645      0.935    27.4420   996.4144 0.0000e+00
      0.680      0.089     9.3540    118.326     37.528  39.361442     3.3506      8.749   318.4011 2.5093e+02     6.2731      0.667      0.967    27.4394   996.4152 0.0000e+00
      0.702      0.085     9.3621    118.429     37.527  39.360412     3.3172      8.751   318.3026 2.4420e+02     6.2838      0.688      0.998    27.4373   996.4159 0.0000e+00
      0.723      0.081     9.3641    118.455     37.514  39.347831     3.2909      8.754   318.4734 2.3319e+02     6.3110      0.709      1.029    27.4364   996.4163 0.0000e+00
      0.743      0.077     9.3634    118.446     37.503  39.336279     3.2839      8.756   318.7461 2.2769e+02     6.3062      0.729      1.057    27.4366   996.4163 0.0000e+00
      0.762      0.074     9.3628    118.438     37.515  39.347707     3.2847      8.758   318.9328 2.2516e+02     6.1930      0.747      1.084    27.4368   996.4163 0.0000e+00
      0.780      0.072     9.3560    118.351     37.526  39.359040     3.2915      8.759   318.7522 2.1522e+02     5.9913      0.764      1.109    27.4363   996.4166 0.0000e+00
      0.797      0.071     9.3400    118.147     37.514  39.346344     3.2966      8.758   318.4555 2.0738e+02     5.8664      0.782      1.134    27.4363   996.4165 0.0000e+00
      0.815      0.071     9.3230    117.928     37.491  39.321160     3.2944      8.757   318.0981 2.0472e+02     5.8305      0.799      1.159    27.4370   996.4164 0.0000e+00
      0.833      0.072     9.3130    117.796     37.481  39.308464     3.3088      8.756   317.7001 1.9825e+02     5.8198      0.816      1.184    27.4372   996.4165 0.0000e+00
      0.852      0.073     9.3114    117.770     37.494  39.319798     3.3408      8.756   318.4618 1.8815e+02     5.8351      0.835      1.211    27.4370   996.4166 0.0000e+00
      0.871      0.074     9.3133    117.788     37.507  39.331227     3.3608      8.755   319.9946 1.7985e+02     5.8512      0.854      1.238    27.4361   996.4169 0.0000e+00
      0.890      0.075     9.3143    117.796     37.497  39.319684     3.3593      8.755   320.3158 1.7526e+02     5.8504      0.872      1.265    27.4339   996.4176 0.0000e+00
      0.908      0.076     9.3129    117.775     37.486  39.307196     3.3229      8.755   319.5056 1.7002e+02     5.8905      0.890      1.292    27.4313   996.4185 0.0000e+00
      0.927      0.076     9.3080    117.712     37.486  39.307195     3.2679      8.756   318.4583 1.6205e+02     5.9760      0.909      1.318    27.4283   996.4194 0.0000e+00
      0.948      0.076     9.3015    117.629     37.499  39.319668     3.2399      8.757   318.9248 1.5485e+02     6.0329      0.929      1.347    27.4254   996.4203 0.0000e+00
      0.968      0.075     9.2927    117.516     37.510  39.331045     3.2353      8.755   320.8436 1.4870e+02     6.0532      0.950      1.378    27.4231   996.4210 0.0000e+00
      0.987      0.070     9.2841    117.405     37.499  39.317785     3.2475      8.754   321.6108 1.4265e+02     6.0578      0.969      1.406    27.4217   996.4214 0.0000e+00
      1.006      0.060     9.2820    117.377     37.469  39.286308     3.2753      8.754   320.9746 1.3736e+02     6.0565      0.986      1.431    27.4214   996.4216 0.0000e+00
      1.024      0.045     9.2838    117.399     37.452  39.267849     3.2932      8.757   320.0343 1.3302e+02     6.0704      1.005      1.456    27.4213   996.4218 0.0000e+00
      1.040      0.025     9.2841    117.404     37.468  39.285043     3.2997      8.759   320.1360 1.3082e+02     6.0616      1.024      1.483    27.4206   996.4221 0.0000e+00
      1.045      0.002     9.2849    117.414     37.485  39.303765     3.3010      8.762   321.2574 1.3167e+02     6.0154      1.030      1.493    27.4190   996.4225 0.0000e+00
      1.040     -0.019     9.2873    117.444     37.485  39.303773     3.2830      8.764   321.6344 1.3412e+02     5.8394      1.021      1.481    27.4179   996.4228 0.0000e+00
      1.027     -0.034     9.2855    117.423     37.467  39.285147     3.2560      8.767   321.2519 1.3704e+02     5.5389      1.009      1.464    27.4175   996.4228 0.0000e+00
      1.011     -0.040     9.2774    117.321     37.452  39.268992     3.2426      8.769   320.7631 1.4098e+02     5.3973      0.993      1.440    27.4180   996.4226 0.0000e+00
      0.992     -0.036     9.2688    117.216     37.479  39.298897     3.2429      8.770   320.1979 1.4478e+02     5.4060      0.971      1.408    27.4189   996.4223 0.0000e+00
      0.979     -0.025     9.2693    117.223     37.508  39.329326     3.2594      8.770   319.9252 1.4618e+02     5.5132      0.956      1.387    27.4191   996.4221 0.0000e+00
      0.974     -0.011     9.2802    117.362     37.498  39.319502     3.2778      8.769   319.9606 1.4528e+02     5.7105      0.953      1.383    27.4191   996.4221 0.0000e+00
      0.979      0.003     9.2927    117.519     37.486  39.307075     3.2831      8.769   319.9373 1.4313e+02     5.7918      0.959      1.390    27.4200   996.4218 0.0000e+00
      0.987      0.014     9.2997    117.607     37.486  39.306034     3.2882      8.769   319.8157 1.4033e+02     5.8087      0.968      1.404    27.4212   996.4216 0.0000e+00
      0.995      0.024     9.3002    117.611     37.487  39.306905     3.2875      8.767   319.6950 1.3820e+02     5.8487      0.977      1.417    27.4219   996.4215 0.0000e+00
      1.000      0.034     9.2978    117.581     37.498  39.317614     3.2830      8.763   319.2524 1.3695e+02     5.8501      0.981      1.423    27.4223   996.4214 0.0000e+00
      1.004      0.044     9.2993    117.599     37.489  39.308551     3.2867      8.757   318.5945 1.3549e+02     5.8250      0.984      1.427    27.4219   996.4215 0.0000e+00
      1.012      0.056     9.3064    117.687     37.444  39.260809     3.2887      8.752   318.3660 1.3247e+02     5.8072      0.989      1.434    27.4213   996.4217 0.0000e+00
      1.028      0.069     9.3135    117.777     37.432  39.248204     3.3163      8.749   318.3822 1.2709e+02     5.9304      1.004      1.456    27.4206   996.4219 0.0000e+00
      1.053      0.081     9.3151    117.797     37.466  39.283102     3.3777      8.748   318.3600 1.2115e+02     6.1673      1.033      1.499    27.4198   996.4223 0.0000e+00
      1.079      0.089     9.3123    117.760     37.484  39.301880     3.4154      8.749   318.1826 1.1589e+02     6.2786      1.058      1.535    27.4195   996.4225 0.0000e+00
      1.106      0.092     9.3083    117.708     37.468  39.284806     3.4251      8.750   317.8727 1.1081e+02     6.2929      1.083      1.572    27.4195   996.4226 0.0000e+00
      1.133      0.091     9.3091    117.716     37.452  39.267104     3.4436      8.750   317.7110 1.0662e+02     6.3082      1.113      1.615    27.4194   996.4228 0.0000e+00
      1.155      0.089     9.3171    117.815     37.463  39.278275     3.4652      8.749   317.6042 1.0343e+02     6.3325      1.134      1.645    27.4189   996.4230 0.0000e+00
      1.174      0.089     9.3266    117.925     37.420  39.229433     3.4773      8.747   317.6136 1.0020e+02     6.3244      1.150      1.669    27.4185   996.4232 0.0000e+00
      1.192      0.093     9.3362    117.993     37.274  39.057437     3.4860      8.746   317.7382 9.6956e+01     6.2754      1.169      1.696    27.4175   996.4236 0.0000e+00
      1.212      0.098     9.3526    118.036     37.130  38.849131     3.4848      8.746   318.0781 9.3570e+01     6.2640      1.187      1.722    27.4170   996.4238 0.0000e+00
      1.238      0.101     9.3752    118.021     37.068  38.678576     3.5054      8.747   318.7983 8.9320e+01     6.2190      1.211      1.757    27.4159   996.4242 0.0000e+00
      1.271      0.101     9.3961    117.914     37.100  38.582067     3.5704      8.749   319.0471 8.4498e+01     6.1254      1.246      1.808    27.4159   996.4243 0.0000e+00
      1.305      0.096     9.4219    117.924     37.196  38.570733     3.6120      8.752   318.5906 8.0357e+01     6.0832      1.283      1.860    27.4051   996.4274 0.0000e+00
      1.333      0.086     9.4820    118.480     37.172  38.477893     3.6098      8.757   318.4408 7.7552e+01     6.0686      1.309      1.900    27.3343   996.4472 0.0000e+00
      1.352      0.076     9.6144    119.974     36.914  38.157695     3.6306      8.759   319.0424 7.5881e+01     6.0471      1.329      1.928    27.1796   996.4902 0.0000e+00
      1.364      0.069     9.8149    122.229     36.656  37.809536     3.6815      8.758   320.0146 7.4966e+01     6.0530      1.340      1.944    26.9804   996.5452 0.0000e+00
      1.371      0.065    10.0177    124.470     36.575  37.632457     3.7140      8.756   320.7315 7.3785e+01     6.0740      1.342      1.947    26.8143   996.5908 0.0000e+00
      1.383      0.065    10.1770    126.250     36.486  37.476440     3.7286      8.754   321.0849 7.1474e+01     6.0715      1.353      1.962    26.7403   996.6110 0.0000e+00
      1.404      0.069    10.3030    127.605     36.335  37.256012     3.7278      8.750   321.1897 6.8562e+01     6.0559      1.376      1.996    26.7018   996.6215 0.0000e+00
      1.428      0.074    10.3999    128.444     36.318  37.125315     3.7209      8.746   320.9670 6.6142e+01     6.0497      1.403      2.035    26.5777   996.6552 0.0000e+00
      1.449      0.078    10.4323    128.388     36.435  37.102021     3.7235      8.741   320.6287 6.4239e+01     6.0618      1.422      2.063    26.4108   996.7004 0.0000e+00
      1.468      0.077    10.3670    127.160     36.566  37.101092     3.7243      8.736   320.6270 6.2120e+01     6.0718      1.439      2.085    26.3465   996.7178 0.0000e+00
      1.489      0.071    10.1980    124.732     36.692  37.113879     3.7578      8.730   321.0323 6.0040e+01     6.0059      1.461      2.119    26.2993   996.7304 0.0000e+00
      1.509      0.061     9.9274    121.179     36.787  37.129510     3.8332      8.723   321.4854 5.8355e+01     5.8879      1.480      2.147    26.1210   996.7782 0.0000e+00
      1.525      0.050     9.5638    116.667     36.843  37.163014     3.8820      8.717   321.8030 5.7050e+01     5.8569      1.496      2.170    25.8983   996.8376 0.0000e+00
      1.538      0.038     9.1224    111.377     36.908  37.265043     3.8882      8.709   320.8290 5.6470e+01     5.8607      1.510      2.191    25.7191   996.8850 0.0000e+00
      1.544      0.026     8.6527    105.845     36.975  37.411074     3.8912      8.702   318.9149 5.6440e+01     5.7704      1.516      2.199    25.5554   996.9279 0.0000e+00
      1.546      0.016     8.2477    101.133     37.000  37.532351     3.8920      8.695   318.4491 5.6466e+01     5.6502      1.516      2.199    25.4288   996.9610 0.0000e+00
      1.546      0.010     7.9841     98.125     36.904  37.525524     3.8892      8.686   319.4996 5.6489e+01     5.5867      1.517      2.200    25.3974   996.9692 0.0000e+00
      1.546      0.010     7.9015     97.242     36.719  37.392139     3.9003      8.674   320.8615 5.6527e+01     5.5925      1.517      2.200    25.4563   996.9539 0.0000e+00
      1.546      0.015     8.0061     98.509     36.652  37.316134     3.9055      8.661   321.5790 5.6617e+01     5.6220      1.516      2.199    25.5762   996.9226 0.0000e+00
      1.548      0.022     8.2582    101.482     36.691  37.304769     3.8822      8.647   320.0873 5.6164e+01     5.6817      1.515      2.196    25.7159   996.8860 0.0000e+00
      1.556      0.032     8.5827    105.312     36.700  37.254634     3.8532      8.634   317.1086 5.4973e+01     5.7899      1.524      2.210    25.8501   996.8507 0.0000e+00
      1.568      0.041     8.8800    108.827     36.713  37.217658     3.8397      8.622   315.7632 5.3977e+01     5.8492      1.540      2.233    25.9499   996.8242 0.0000e+00
      1.579      0.049     9.0630    111.029     36.749  37.238461     3.8407      8.611   316.4682 5.2857e+01     5.8742      1.547      2.242    25.9213   996.8317 0.0000e+00
      1.594      0.054     9.1037    111.589     36.741  37.252242     3.8733      8.600   317.8877 5.1242e+01     5.8947      1.562      2.265    25.8288   996.8564 0.0000e+00
      1.611      0.062     9.0183    110.605     36.598  37.130424     3.9317      8.585   318.3860 4.9769e+01     5.8676      1.582      2.294    25.7514   996.8768 0.0000e+00
      1.626      0.075     8.8556    108.473     36.431  36.908136     3.9654      8.565   317.8480 4.8641e+01     5.8412      1.596      2.314    25.6571   996.9016 0.0000e+00
      1.640      0.090     8.6764    105.793     36.493  36.786075     3.9856      8.548   318.0937 4.7588e+01     5.8385      1.608      2.331    25.6392   996.9064 0.0000e+00
      1.658      0.104     8.4951    102.905     36.766  36.796825     4.1582      8.535   319.1194 4.5573e+01     5.8995      1.618      2.347    25.6841   996.8947 0.0000e+00
      1.690      0.115     8.2514     99.335     37.066  36.847293     4.4747      8.524   320.1828 4.2360e+01     6.0216      1.653      2.397    25.7517   996.8771 0.0000e+00
      1.734      0.122     7.8183     93.660     37.308  36.888117     4.6488      8.513   320.9712 3.9328e+01     6.0702      1.705      2.471    25.7361   996.8814 0.0000e+00
      1.774      0.124     7.0839     84.549     37.483  36.909292     4.6856      8.502   321.2530 3.7221e+01     6.0284      1.744      2.529    25.4364   996.9599 0.0000e+00
      1.804      0.123     6.0675     72.216     37.602  36.912684     4.9366      8.490   321.0948 3.5657e+01     5.8431      1.771      2.568    25.0202   997.0677 0.0000e+00
      1.830      0.117     4.8985     58.179     37.640  36.865492     5.3951      8.477   320.7783 3.4264e+01     5.5349      1.794      2.603    24.6747   997.1560 0.0000e+00
      1.855      0.111     3.6965     43.829     37.628  36.782886     5.6514      8.464   320.6098 3.2967e+01     5.3834      1.820      2.639    24.4077   997.2234 0.0000e+00
      1.882      0.108     2.5504     30.194     37.649  36.738949     5.7025      8.450   320.8641 3.1542e+01     5.3541      1.844      2.674    24.2129   997.2722 0.0000e+00
      1.911      0.108     1.5278     18.064     37.689  36.714997     5.9961      8.438   321.5310 3.0026e+01     4.7876      1.874      2.718    24.0631   997.3095 0.0000e+00
      1.940      0.108     0.6966      8.227     37.725  36.683615     6.5394      8.427   322.1345 2.8700e+01     3.7118      1.904      2.761    23.9586   997.3354 0.0000e+00
      1.967      0.109     0.1206      1.427     37.789  36.676779     6.8439      8.416   322.3956 2.7428e+01     3.1616      1.928      2.797    23.8704   997.3572 0.0000e+00
      1.995      0.110    -0.2089     -2.453     37.874  36.695714     6.8782      8.403   322.5371 2.6202e+01     3.1490      1.957      2.838    23.7836   997.3787 0.0000e+00
      2.022      0.112    -0.3540     -4.156     37.960  36.722039     6.8755      8.388   322.6409 2.5117e+01     3.1003      1.983      2.877    23.7053   997.3978 0.0000e+00
      2.048      0.115    -0.3830     -4.491     38.038  36.741104     6.8553      8.375   322.7038 2.3963e+01     2.9667      2.006      2.910    23.6151   997.4199 0.0000e+00
      2.077      0.118    -0.3514     -4.115     38.167  36.799196     6.8245      8.364   323.0392 2.2684e+01     2.7782      2.036      2.952    23.5194   997.4432 0.0000e+00
      2.111      0.121    -0.2884     -3.371     38.444  36.980021     6.8055      8.354   323.5132 2.1488e+01     2.6568      2.070      3.002    23.4338   997.4640 0.0000e+00
      2.144      0.122    -0.2077     -2.421     38.872  37.277017     6.7910      8.344   323.6165 2.0443e+01     2.6468      2.103      3.051    23.3641   997.4810 0.0000e+00
      2.176      0.120    -0.1270     -1.476     39.337  37.597109     6.5979      8.335   323.4274 1.9465e+01     2.5581      2.133      3.094    23.2937   997.4982 0.0000e+00
      2.207      0.117    -0.0611     -0.709     39.735  37.866715     6.2384      8.326   323.3785 1.8571e+01     2.3706      2.164      3.139    23.2109   997.5181 0.0000e+00
      2.237      0.114    -0.0105     -0.122     40.159  38.188035     6.0513      8.316   323.4550 1.7835e+01     2.2807      2.195      3.184    23.1095   997.5424 0.0000e+00
      2.264      0.112     0.0300      0.346     40.689  38.625560     6.0527      8.305   323.4058 1.7229e+01     2.2578      2.221      3.221    22.9485   997.5809 0.0000e+00
      2.289      0.111     0.0667      0.768     41.129  38.967121     6.1421      8.294   323.2995 1.6638e+01     2.1913      2.244      3.254    22.7749   997.6221 0.0000e+00
      2.317      0.110     0.1014      1.165     41.409  39.143765     6.2998      8.283   323.4600 1.6006e+01     2.1003      2.270      3.292    22.6316   997.6558 0.0000e+00
      2.347      0.108     0.1319      1.512     41.669  39.301166     6.3813      8.274   323.9706 1.5409e+01     2.0427      2.301      3.338    22.5289   997.6800 0.0000e+00
      2.378      0.106     0.1590      1.819     41.935  39.473539     6.4168      8.265   324.3975 1.4899e+01     2.0190      2.332      3.383    22.4664   997.6949 0.0000e+00
      2.405      0.103     0.1825      2.086     42.186  39.640773     6.7816      8.255   324.1469 1.4490e+01     2.0104      2.359      3.422    22.3755   997.7160 0.0000e+00
      2.430      0.099     0.2017      2.303     42.551  39.926468     7.4453      8.246   323.4356 1.4173e+01     2.0361      2.384      3.457    22.2562   997.7437 0.0000e+00
      2.452      0.095     0.2171      2.476     43.099  40.388449     7.8005      8.238   323.1099 1.3872e+01     2.0355      2.405      3.488    22.1488   997.7685 0.0000e+00
      2.474      0.091     0.2281      2.598     43.653  40.846076     7.8250      8.229   323.3930 1.3567e+01     2.0035      2.426      3.519    22.0566   997.7896 0.0000e+00
      2.497      0.088     0.2350      2.672     44.118  41.206011     7.8628      8.220   323.8473 1.3298e+01     2.0425      2.449      3.551    21.9735   997.8086 0.0000e+00
      2.521      0.087     0.2390      2.713     44.523  41.502458     7.9454      8.210   323.9570 1.3039e+01     2.1126      2.472      3.585    21.9076   997.8238 0.0000e+00
      2.543      0.087     0.2403      2.723     44.891  41.763800     8.0002      8.199   323.6863 1.2783e+01     2.0983      2.495      3.619    21.8567   997.8355 0.0000e+00
      2.564      0.086     0.2400      2.715     45.183  41.953192     8.0053      8.189   323.3276 1.2565e+01     2.0333      2.515      3.647    21.7872   997.8515 0.0000e+00
      2.584      0.085     0.2397      2.706     45.404  42.078047     7.9893      8.181   323.2342 1.2343e+01     2.0153      2.534      3.675    21.6953   997.8724 0.0000e+00
      2.606      0.082     0.2386      2.690     45.594  42.193980     7.9026      8.172   323.3315 1.2083e+01     2.0118      2.555      3.706    21.6026   997.8933 0.0000e+00
      2.631      0.078     0.2363      2.663     45.657  42.212017     7.7545      8.162   323.2985 1.1862e+01     2.0231      2.581      3.742    21.5125   997.9136 0.0000e+00
      2.652      0.076     0.2320      2.612     45.524  42.042123     7.6716      8.151   323.0076 1.1700e+01     2.0870      2.602      3.774    21.4228   997.9336 0.0000e+00
      2.669      0.076     0.2269      2.550     45.467  41.917455     7.6379      8.140   322.4814 1.1554e+01     2.0952      2.618      3.797    21.3244   997.9554 0.0000e+00
      2.684      0.075     0.2235      2.508     45.759  42.101348     7.4518      8.129   322.0989 1.1405e+01     1.9913      2.631      3.817    21.2519   997.9715 0.0000e+00
      2.700      0.075     0.2214      2.479     46.138  42.360735     7.1290      8.120   321.9102 1.1194e+01     1.8477      2.644      3.836    21.2293   997.9765 0.0000e+00
      2.721      0.075     0.2186      2.442     46.330  42.450452     6.9515      8.110   322.4375 1.0930e+01     1.7669      2.668      3.870    21.1827   997.9867 0.0000e+00
      2.745      0.076     0.2146      2.394     46.394  42.424101     6.9180      8.100   323.5699 1.0700e+01     1.7681      2.693      3.907    21.0955   998.0058 0.0000e+00
      2.765      0.076     0.2109      2.349     46.482  42.422957     6.7500      8.091   323.8140 1.0498e+01     1.7970      2.711      3.933    21.0006   998.0267 0.0000e+00
      2.784      0.074     0.2076      2.309     46.860  42.690474     6.4459      8.084   323.0663 1.0303e+01     1.8214      2.729      3.959    20.9010   998.0483 0.0000e+00
      2.801      0.071     0.2047      2.274     47.552  43.245801     6.2842      8.076   322.2733 1.0113e+01     1.8335      2.747      3.983    20.8074   998.0686 0.0000e+00
      2.818      0.067     0.2015      2.234     48.182  43.740345     6.2777      8.068   323.0022 9.9157e+00     1.8450      2.763      4.007    20.7153   998.0884 0.0000e+00
      2.835      0.065     0.1975      2.185     48.453  43.907782     6.2974      8.060   325.0817 9.7167e+00     1.8304      2.780      4.033    20.6266   998.1074 0.0000e+00
      2.852      0.064     0.1941      2.145     48.217  43.619292     6.3235      8.052   326.0787 9.5397e+00     1.7873      2.797      4.057    20.5465   998.1247 0.0000e+00
      2.868      0.065     0.1920      2.119     47.589  42.982402     6.3248      8.045   325.5064 9.3977e+00     1.7832      2.814      4.082    20.4684   998.1415 0.0000e+00
      2.883      0.068     0.1907      2.101     47.194  42.556496     6.3038      8.036   324.4435 9.2655e+00     1.8464      2.828      4.101    20.3867   998.1591 0.0000e+00
      2.897      0.071     0.1894      2.083     47.324  42.596673     6.0962      8.025   324.5848 9.0950e+00     1.9619      2.839      4.118    20.3026   998.1769 0.0000e+00
      2.915      0.071     0.1886      2.071     47.532  42.706188     5.6955      8.014   326.0103 8.8495e+00     2.0649      2.856      4.143    20.2240   998.1933 0.0000e+00
      2.939      0.066     0.1880      2.061     47.497  42.610686     5.4650      8.005   326.7073 8.5790e+00     2.0757      2.882      4.180    20.1547   998.2076 0.0000e+00
      2.963      0.057     0.1866      2.044     47.367  42.457747     5.4242      7.998   326.4728 8.3896e+00     2.0597      2.909      4.219    20.0848   998.2220 0.0000e+00
      2.980      0.045     0.1850      2.027     47.347  42.444274     5.2811      7.992   325.6703 8.3096e+00     2.0679      2.926      4.243    20.0033   998.2391 0.0000e+00
      2.987      0.030     0.1822      1.998     47.441  42.574766     5.0266      7.985   324.9207 8.2892e+00     2.0438      2.932      4.251    19.9132   998.2577 0.0000e+00
      2.988      0.018     0.1768      1.942     47.506  42.702250     4.8785      7.977   325.2387 8.2886e+00     2.0304      2.931      4.250    19.8408   998.2725 0.0000e+00
      2.985      0.009     0.1713      1.884     47.446  42.715925     4.8511      7.968   325.7294 8.3068e+00     2.0366      2.928      4.246    19.7987   998.2810 0.0000e+00
      2.984      0.006     0.1664      1.832     47.342  42.676711     4.8508      7.962   325.5192 8.3143e+00     2.0202      2.925      4.241    19.7984   998.2811 0.0000e+00
      2.985      0.007     0.1615      1.780     47.292  42.672637     4.8838      7.956   325.0207 8.2698e+00     2.0292      2.926      4.243    19.8565   998.2693 0.0000e+00
      2.989      0.014     0.1565      1.726     47.255  42.666731     4.9297      7.949   324.6061 8.2126e+00     2.0472      2.932      4.252    19.9430   998.2517 0.0000e+00
      2.994      0.027     0.1518      1.674     47.125  42.541846     4.9550      7.941   324.4639 8.1880e+00     2.0408      2.936      4.259    20.0177   998.2362 0.0000e+00
      2.996      0.042     0.1481      1.630     46.949  42.305502     4.9556      7.934   324.6785 8.1464e+00     2.0506      2.937      4.260    20.0711   998.2251 0.0000e+00
      3.003      0.056     0.1458      1.600     46.960  42.158189     4.8156      7.927   325.0490 7.9994e+00     2.1983      2.939      4.263    20.1154   998.2159 0.0000e+00
      3.022      0.069     0.1457      1.593     47.180  42.157290     4.5449      7.922   325.4160 7.7549e+00     2.4830      2.959      4.293    20.1496   998.2089 0.0000e+00
      3.049      0.084     0.1470      1.599     47.425  42.167391     4.3969      7.916   324.8141 7.5223e+00     2.6423      2.992      4.339    20.1593   998.2069 0.0000e+00
      3.075      0.097     0.1494      1.619     47.565  42.089565     4.3868      7.910   323.5361 7.3309e+00     2.6489      3.016      4.375    20.0873   998.2220 0.0000e+00
      3.099      0.105     0.1529      1.651     47.640  41.977919     4.4055      7.904   323.2991 7.1332e+00     2.6941      3.038      4.406    19.8958   998.2615 0.0000e+00
      3.124      0.107     0.1553      1.671     47.725  41.896594     4.4330      7.899   324.0145 6.9009e+00     2.7954      3.061      4.439    19.6730   998.3071 0.0000e+00
      3.155      0.107     0.1565      1.679     47.715  41.740981     4.4415      7.894   324.8720 6.6669e+00     2.8906      3.093      4.486    19.4560   998.3512 0.0000e+00
      3.187      0.105     0.1594      1.705     47.663  41.556479     4.4298      7.889   324.4609 6.4973e+00     2.9608      3.129      4.537    19.2256   998.3973 0.0000e+00
      3.212      0.099     0.1630      1.739     47.746  41.506804     4.2832      7.883   322.8297 6.3533e+00     2.8906      3.151      4.569    19.0434   998.4333 0.0000e+00
      3.236      0.087     0.1652      1.759     47.862  41.521151     4.0039      7.877   322.0136 6.1742e+00     2.6637      3.170      4.599    18.8909   998.4633 0.0000e+00
      3.263      0.071     0.1668      1.774     47.928  41.539371     3.8447      7.870   322.3371 6.0120e+00     2.5120      3.201      4.644    18.7295   998.4947 0.0000e+00
      3.283      0.056     0.1677      1.783     48.004  41.600068     3.8317      7.865   322.9552 5.9340e+00     2.4649      3.227      4.679    18.5850   998.5224 0.0000e+00
      3.291      0.048     0.1663      1.769     48.027  41.620136     3.8045      7.861   322.8621 5.9187e+00     2.4554      3.230      4.684    18.4488   998.5483 0.0000e+00
      3.292      0.043     0.1637      1.741     48.021  41.591546     3.7326      7.856   322.0720 5.9134e+00     2.4956      3.227      4.681    18.3502   998.5671 0.0000e+00
      3.294      0.042     0.1625      1.726     48.135  41.635293     3.6818      7.851   321.5756 5.8674e+00     2.5243      3.227      4.681    18.3191   998.5730 0.0000e+00
      3.304      0.046     0.1624      1.722     48.367  41.768067     3.6580      7.847   321.4199 5.7591e+00     2.5075      3.236      4.694    18.3222   998.5725 0.0000e+00
      3.323      0.054     0.1610      1.704     48.776  42.054010     3.6359      7.842   321.5659 5.6432e+00     2.4898      3.259      4.727    18.3349   998.5702 0.0000e+00
      3.343      0.064     0.1581      1.671     49.435  42.552890     3.5620      7.836   322.0506 5.5608e+00     2.5396      3.282      4.759    18.3164   998.5737 0.0000e+00
      3.359      0.070     0.1539      1.624     50.098  43.038015     3.4320      7.831   322.2896 5.4908e+00     2.6180      3.293      4.777    18.2475   998.5868 0.0000e+00
      3.375      0.070     0.1498      1.578     50.501  43.284535     3.3647      7.826   322.0480 5.3828e+00     2.6185      3.308      4.799    18.1716   998.6012 0.0000e+00
      3.394      0.067     0.1479      1.554     50.707  43.374624     3.3457      7.821   321.7955 5.2383e+00     2.5785      3.328      4.827    18.1045   998.6138 0.0000e+00
      3.414      0.067     0.1470      1.544     50.925  43.492219     3.1946      7.817   321.8177 5.1124e+00     2.5930      3.350      4.858    18.0431   998.6256 0.0000e+00
      3.432      0.070     0.1450      1.520     51.179  43.626857     2.9242      7.812   322.1442 5.0294e+00     2.6290      3.369      4.886    17.9578   998.6417 0.0000e+00
      3.445      0.074     0.1434      1.500     51.379  43.669012     2.7718      7.807   322.5599 4.9513e+00     2.6537      3.378      4.900    17.8439   998.6628 0.0000e+00
      3.460      0.078     0.1439      1.500     51.514  43.620773     2.7575      7.802   322.7142 4.8035e+00     2.6624      3.388      4.915    17.7558   998.6790 0.0000e+00
      3.482      0.082     0.1459      1.515     51.624  43.551360     2.8122      7.797   322.8061 4.6173e+00     2.6680      3.414      4.951    17.7021   998.6889 0.0000e+00
      3.508      0.086     0.1484      1.537     51.844  43.591492     2.9217      7.791   323.0676 4.4628e+00     2.7223      3.442      4.993    17.6375   998.7009 0.0000e+00
      3.533      0.089     0.1485      1.534     52.308  43.851838     2.9890      7.785   323.2957 4.3346e+00     2.7617      3.466      5.027    17.5083   998.7242 0.0000e+00
      3.556      0.089     0.1486      1.532     53.042  44.349663     2.9923      7.778   323.4134 4.2193e+00     2.7502      3.488      5.058    17.3327   998.7557 0.0000e+00
      3.579      0.085     0.1509      1.552     53.996  45.038668     2.9263      7.771   323.6301 4.1123e+00     2.6818      3.510      5.091    17.1688   998.7848 0.0000e+00
      3.600      0.079     0.1523      1.562     54.847  45.641950     2.8082      7.766   324.1083 4.0152e+00     2.5573      3.532      5.122    17.0311   998.8089 0.0000e+00
      3.620      0.074     0.1535      1.572     55.618  46.182691     2.7433      7.760   324.6355 3.9199e+00     2.4910      3.550      5.148    16.9103   998.8302 0.0000e+00
      3.639      0.073     0.1557      1.592     56.715  47.004333     2.7393      7.753   324.4970 3.8293e+00     2.5027      3.569      5.176    16.7981   998.8498 0.0000e+00
      3.655      0.078     0.1574      1.606     57.678  47.701518     2.7176      7.744   323.8971 3.7716e+00     2.4696      3.587      5.201    16.7046   998.8663 0.0000e+00
      3.667      0.086     0.1592      1.620     58.212  48.007456     2.6630      7.736   323.7491 3.7211e+00     2.3526      3.594      5.213    16.6049   998.8835 0.0000e+00
      3.685      0.096     0.1601      1.625     58.987  48.480435     2.6243      7.726   324.0843 3.6213e+00     2.2674      3.608      5.233    16.5051   998.9005 0.0000e+00
      3.715      0.105     0.1570      1.589     59.959  49.101287     2.6222      7.717   324.5947 3.4843e+00     2.2591      3.641      5.281    16.4406   998.9120 0.0000e+00
      3.750      0.112     0.1536      1.550     60.625  49.480258     2.6465      7.709   324.5855 3.3555e+00     2.2855      3.679      5.336    16.3609   998.9259 0.0000e+00
      3.785      0.115     0.1530      1.541     61.045  49.696138     2.6752      7.701   323.9733 3.2506e+00     2.3246      3.713      5.385    16.2391   998.9463 0.0000e+00
      3.817      0.113     0.1528      1.536     61.294  49.805863     2.6832      7.692   323.9042 3.1618e+00     2.3058      3.744      5.431    16.0943   998.9705 0.0000e+00
      3.844      0.107     0.1535      1.540     61.478  49.854112     2.6825      7.683   324.6100 3.0922e+00     2.2548      3.772      5.471    15.9419   998.9958 0.0000e+00
      3.867      0.100     0.1542      1.545     61.762  49.961812     2.6846      7.675   325.1076 3.0248e+00     2.2643      3.794      5.502    15.7907   999.0204 0.0000e+00
      3.890      0.094     0.1545      1.544     62.078  50.091642     2.6471      7.666   324.8436 2.9372e+00     2.3551      3.815      5.532    15.6858   999.0373 0.0000e+00
      3.914      0.089     0.1565      1.560     62.381  50.216918     2.5674      7.657   324.3437 2.8438e+00     2.4683      3.839      5.567    15.6326   999.0460 0.0000e+00
      3.937      0.085     0.1570      1.562     62.661  50.333073     2.5189      7.650   324.2266 2.7674e+00     2.4856      3.862      5.601    15.5503   999.0591 0.0000e+00
      3.959      0.081     0.1555      1.545     62.884  50.416130     2.5032      7.643   324.2873 2.7216e+00     2.4665      3.883      5.632    15.4435   999.0761 0.0000e+00
      3.980      0.076     0.1540      1.528     63.035  50.458828     2.4647      7.637   324.9057 2.6934e+00     2.4331      3.905      5.664    15.3412   999.0922 0.0000e+00
      3.999      0.071     0.1510      1.496     63.115  50.468129     2.4086      7.631   325.9388 2.6563e+00     2.3444      3.923      5.690    15.2434   999.1074 0.0000e+00
      4.016      0.068     0.1488      1.474     63.302  50.592041     2.3791      7.623   325.3358 2.6076e+00     2.2792      3.938      5.711    15.1559   999.1209 0.0000e+00
      4.031      0.069     0.1487      1.473     63.760  50.940707     2.3776      7.615   323.7234 2.5641e+00     2.2352      3.954      5.735    15.0783   999.1329 0.0000e+00
      4.044      0.073     0.1465      1.450     63.756  50.872644     2.3906      7.606   324.8552 2.5221e+00     2.1717      3.967      5.752    15.0148   999.1427 0.0000e+00
      4.058      0.078     0.1435      1.417     62.942  50.086527     2.4150      7.598   328.0938 2.4659e+00     2.1021      3.976      5.766    14.9684   999.1498 0.0000e+00
      4.081      0.083     0.1428      1.405     62.499  49.565922     2.4379      7.591   328.7238 2.3946e+00     2.0821      3.999      5.801    14.9490   999.1527 0.0000e+00
      4.109      0.087     0.1420      1.395     62.893  49.722801     2.4506      7.585   326.9657 2.3236e+00     2.0933      4.030      5.847    14.9589   999.1516 0.0000e+00
      4.135      0.089     0.1408      1.380     63.515  50.077683     2.4295      7.579   326.0229 2.2575e+00     2.0737      4.056      5.883    14.9200   999.1578 0.0000e+00
      4.158      0.089     0.1408      1.377     64.033  50.363224     2.3906      7.573   327.1335 2.1913e+00     2.0416      4.078      5.914    14.7883   999.1769 0.0000e+00
      4.178      0.087     0.1406      1.372     64.440  50.570923     2.3801      7.568   329.2952 2.1356e+00     2.0325      4.098      5.943    14.6433   999.1982 0.0000e+00
      4.199      0.084     0.1407      1.370     64.796  50.746803     2.3889      7.563   330.0482 2.0828e+00     2.0299      4.117      5.972    14.5212   999.2164 0.0000e+00
      4.220      0.082     0.1409      1.370     65.278  51.028725     2.4010      7.558   329.1827 2.0203e+00     1.9440      4.138      6.002    14.4146   999.2321 0.0000e+00
      4.241      0.081     0.1404      1.363     65.919  51.438713     2.4227      7.552   328.5527 1.9716e+00     1.8137      4.158      6.032    14.3213   999.2457 0.0000e+00
      4.262      0.080     0.1403      1.360     66.454  51.765565     2.4435      7.546   329.0547 1.9373e+00     1.7656      4.180      6.063    14.2333   999.2585 0.0000e+00
      4.283      0.077     0.1407      1.362     66.864  51.995059     2.4438      7.541   329.4887 1.8847e+00     1.7886      4.200      6.092    14.1533   999.2700 0.0000e+00
      4.302      0.075     0.1411      1.364     67.213  52.180677     2.4353      7.536   329.2394 1.8190e+00     1.8290      4.219      6.119    14.0813   999.2803 0.0000e+00
      4.321      0.072     0.1412      1.364     67.383  52.231112     2.4193      7.532   328.7948 1.7757e+00     1.8284      4.237      6.146    14.0144   999.2900 0.0000e+00
      4.338      0.070     0.1417      1.365     67.311  52.096587     2.3972      7.527   327.8982 1.7597e+00     1.7811      4.255      6.171    13.9450   999.2998 0.0000e+00
      4.355      0.070     0.1418      1.365     66.893  51.697469     2.3935      7.522   327.0030 1.7476e+00     1.7490      4.271      6.194    13.8762   999.3095 0.0000e+00
      4.372      0.071     0.1411      1.356     66.125  51.026082     2.3919      7.516   327.0048 1.7352e+00     1.7678      4.288      6.219    13.8143   999.3182 0.0000e+00
      4.389      0.072     0.1415      1.359     65.330  50.330881     2.3865      7.510   327.3174 1.7190e+00     1.9099      4.304      6.243    13.7523   999.3267 0.0000e+00
      4.407      0.075     0.1407      1.349     64.622  49.707186     2.3891      7.504   326.7390 1.6936e+00     2.1566      4.321      6.267    13.6940   999.3347 0.0000e+00
      4.427      0.077     0.1373      1.315     63.722  48.947394     2.3889      7.498   325.6033 1.6683e+00     2.2927      4.340      6.295    13.6392   999.3421 0.0000e+00
      4.448      0.079     0.1344      1.286     62.485  47.940242     2.3841      7.493   325.2015 1.6376e+00     2.2772      4.362      6.327    13.5817   999.3496 0.0000e+00
      4.469      0.080     0.1321      1.263     60.415  46.294343     2.3924      7.488   325.4080 1.6051e+00     2.1983      4.383      6.357    13.5163   999.3580 0.0000e+00
      4.491      0.080     0.1308      1.248     57.651  44.097722     2.4195      7.484   325.5192 1.5846e+00     2.0926      4.404      6.387    13.4525   999.3665 0.0000e+00
      4.511      0.079     0.1309      1.247     55.568  42.399992     2.4428      7.481   325.2561 1.5707e+00     2.0482      4.424      6.417    13.4003   999.3731 0.0000e+00
      4.531      0.078     0.1305      1.240     54.633  41.577983     2.4488      7.479   324.8076 1.5514e+00     2.0547      4.444      6.445    13.3559   999.3787 0.0000e+00
      4.550      0.076     0.1292      1.225     54.428  41.333377     2.4310      7.478   324.7428 1.5231e+00     2.0406      4.462      6.471    13.3171   999.3832 0.0000e+00
      4.569      0.071     0.1297      1.229     54.351  41.220125     2.4010      7.477   324.9878 1.4943e+00     2.0076      4.479      6.497    13.2509   999.3906 0.0000e+00
      4.589      0.066     0.1305      1.236     53.965  40.906982     2.3893      7.477   325.2752 1.4703e+00     2.0167      4.500      6.526    13.1476   999.4033 0.0000e+00
      4.608      0.065     0.1299      1.230     53.480  40.531125     2.3940      7.477   325.5512 1.4559e+00     2.0528      4.522      6.559    13.0418   999.4167 0.0000e+00
      4.621      0.067     0.1298      1.229     52.598  39.850052     2.3800      7.478   325.8293 1.4592e+00     2.0831      4.534      6.577    12.9566   999.4275 0.0000e+00
      4.630      0.070     0.1287      1.217     51.128  38.703170     2.3402      7.479   326.0559 1.4610e+00     2.1531      4.536      6.580    12.9032   999.4344 0.0000e+00
      4.646      0.073     0.1267      1.196     50.068  37.837200     2.3206      7.482   326.0548 1.4353e+00     2.2442      4.551      6.602    12.8950   999.4353 0.0000e+00
      4.670      0.077     0.1266      1.194     49.728  37.505246     2.3247      7.485   325.6439 1.3940e+00     2.3001      4.580      6.643    12.8934   999.4353 0.0000e+00
      4.696      0.081     0.1317      1.240     49.611  37.355549     2.2946      7.489   324.8736 1.3498e+00     2.4025      4.607      6.681    12.8822   999.4368 0.0000e+00
      4.719      0.082     0.1481      1.393     49.596  37.296702     2.2347      7.493   324.3980 1.3225e+00     2.5983      4.628      6.712    12.8623   999.4386 0.0000e+00
      4.739      0.081     0.1821      1.711     49.739  37.364965     2.1986      7.495   324.5401 1.3222e+00     2.7010      4.649      6.742    12.7855   999.4479 0.0000e+00
      4.758      0.076     0.2400      2.254     49.923  37.482623     2.1957      7.498   324.7850 1.3112e+00     2.6935      4.667      6.769    12.6990   999.4587 0.0000e+00
      4.775      0.072     0.3272      3.074     49.877  37.449723     2.2086      7.500   324.9496 1.2834e+00     2.7370      4.682      6.792    12.6411   999.4658 0.0000e+00
      4.793      0.067     0.4464      4.194     49.740  37.348043     2.1645      7.500   324.8958 1.2558e+00     3.3579      4.700      6.818    12.5957   999.4714 0.0000e+00
      4.812      0.059     0.5970      5.607     49.819  37.395812     2.0611      7.500   323.7902 1.2318e+00     4.4983      4.720      6.846    12.5529   999.4767 0.0000e+00
      4.829      0.047     0.7670      7.202     50.169  37.646413     2.0152      7.499   322.3363 1.2169e+00     5.0881      4.738      6.871    12.5243   999.4804 0.0000e+00
      4.843      0.032     0.9339      8.769     50.512  37.902392     2.0262      7.497   322.0305 1.2105e+00     5.1152      4.751      6.891    12.5420   999.4783 0.0000e+00
      4.851      0.018     1.0822     10.163     50.486  37.888216     2.0128      7.496   322.6739 1.2099e+00     4.9563      4.761      6.905    12.5485   999.4775 0.0000e+00
      4.851      0.008     1.2061     11.328     50.267  37.728940     1.9742      7.496   323.6615 1.2172e+00     4.6418      4.761      6.905    12.5257   999.4801 0.0000e+00
      4.842      0.006     1.3014     12.223     50.128  37.627053     1.9495      7.496   323.5609 1.2350e+00     4.4911      4.749      6.886    12.5132   999.4817 0.0000e+00
      4.834      0.011     1.3638     12.809     49.931  37.481531     1.9480      7.495   322.3182 1.2469e+00     4.4776      4.736      6.868    12.5114   999.4822 0.0000e+00
      4.836      0.024     1.3893     13.044     49.710  37.302469     1.9737      7.494   321.8859 1.2446e+00     4.4146      4.741      6.876    12.5219   999.4808 0.0000e+00
      4.846      0.041     1.3829     12.973     49.678  37.239377     2.0095      7.493   322.4654 1.2361e+00     4.3190      4.752      6.892    12.5277   999.4800 0.0000e+00
      4.860      0.056     1.3586     12.733     49.802  37.289944     2.0158      7.491   323.2164 1.2155e+00     4.2720      4.763      6.907    12.5249   999.4805 0.0000e+00
      4.881      0.063     1.3284     12.443     49.988  37.405995     1.9978      7.491   322.9643 1.1889e+00     4.3706      4.784      6.938    12.5353   999.4792 0.0000e+00
      4.907      0.062     1.3007     12.185     50.197  37.563400     1.9219      7.490   321.2236 1.1661e+00     5.4451      4.815      6.984    12.5310   999.4798 0.0000e+00
      4.930      0.053     1.2832     12.027     50.307  37.669664     1.7923      7.487   319.4633 1.1484e+00     7.3991      4.839      7.018    12.4782   999.4863 0.0000e+00
      4.941      0.038     1.2830     12.035     50.354  37.738687     1.7226      7.485   318.8024 1.1454e+00     8.4639      4.849      7.033    12.4259   999.4926 0.0000e+00
      4.944      0.018     1.3034     12.235     50.598  37.953639     1.7031      7.485   318.7394 1.1395e+00     8.5860      4.848      7.033    12.4041   999.4953 0.0000e+00
      4.944     -0.001     1.3377     12.568     51.008  38.300822     1.6609      7.483   318.9597 1.1285e+00     9.0073      4.849      7.032    12.4019   999.4957 0.0000e+00
      4.943     -0.012     1.3720     12.909     51.114  38.445110     1.6106      7.481   319.9175 1.1509e+00     9.7554      4.851      7.036    12.4333   999.4920 0.0000e+00
      4.935     -0.010     1.3979     13.171     50.667  38.174769     1.5813      7.479   320.8553 1.1876e+00    10.1264      4.842      7.023    12.4745   999.4869 0.0000e+00
      4.922      0.004     1.4096     13.286     50.099  37.761849     1.5748      7.477   320.6622 1.2026e+00    10.1504      4.825      6.997    12.5000   999.4838 0.0000e+00
      4.913      0.029     1.3996     13.178     49.748  37.451739     1.5846      7.475   320.0778 1.1986e+00    10.1774      4.812      6.980    12.5283   999.4806 0.0000e+00
      4.919      0.060     1.3670     12.848     49.541  37.218238     1.6302      7.473   319.8118 1.1726e+00    10.3871      4.817      6.987    12.5989   999.4723 0.0000e+00
      4.943      0.092     1.3173     12.355     49.503  37.096726     1.7011      7.471   319.6840 1.1209e+00    10.7849      4.842      7.023    12.6942   999.4604 0.0000e+00
      4.981      0.117     1.2601     11.795     49.574  37.061548     1.7304      7.470   320.3391 1.0607e+00    11.0218      4.882      7.082    12.7096   999.4585 0.0000e+00
      5.025      0.130     1.2113     11.320     49.649  37.046713     1.7070      7.469   321.4514 1.0102e+00    11.1211      4.929      7.148    12.6457   999.4664 0.0000e+00
      5.068      0.127     1.1894     11.103     49.709  37.044234     1.5573      7.467   321.6041 9.5873e-01    11.7887      4.973      7.211    12.5670   999.4761 0.0000e+00
      5.105      0.115     1.2039     11.233     49.725  37.031514     1.2986      7.465   321.0661 9.1473e-01    13.0316      5.009      7.265    12.4654   999.4885 0.0000e+00
      5.132      0.101     1.2569     11.725     49.720  37.019847     1.1631      7.465   320.5391 9.0053e-01    13.7266      5.037      7.306    12.3681   999.5003 0.0000e+00
      5.147      0.091     1.3499     12.591     49.736  37.030113     1.1596      7.464   321.0830 8.9675e-01    13.7696      5.051      7.327    12.2987   999.5086 0.0000e+00
      5.157      0.085     1.4716     13.725     49.742  37.028683     1.1774      7.461   322.5659 8.7134e-01    13.6501      5.053      7.329    12.2495   999.5145 0.0000e+00
      5.175      0.084     1.6014     14.931     49.728  37.002551     1.1965      7.459   323.0679 8.2750e-01    13.4287      5.070      7.353    12.2274   999.5171 0.0000e+00
      5.202      0.086     1.7279     16.101     49.713  36.968039     1.2077      7.457   322.7640 7.9220e-01    13.3215      5.102      7.401    12.2239   999.5176 0.0000e+00
      5.232      0.089     1.8423     17.157     49.693  36.928759     1.2267      7.456   322.4200 7.6141e-01    13.3697      5.133      7.445    12.2250   999.5177 0.0000e+00
      5.258      0.090     1.9348     18.011     49.690  36.908446     1.2518      7.455   322.0053 7.2071e-01    13.5524      5.157      7.480    12.2226   999.5182 0.0000e+00
      5.280      0.088     2.0064     18.672     49.713  36.912844     1.2685      7.452   322.3107 6.8383e-01    13.8260      5.179      7.512    12.2061   999.5201 0.0000e+00
      5.298      0.085     2.0630     19.196     49.731  36.918444     1.2734      7.450   323.3585 6.5838e-01    13.9910      5.197      7.536    12.1776   999.5235 0.0000e+00
      5.315      0.082     2.1073     19.604     49.733  36.912674     1.2757      7.448   323.9194 6.2525e-01    14.0395      5.211      7.558    12.1518   999.5266 0.0000e+00
      5.336      0.080     2.1444     19.947     49.733  36.906539     1.2276      7.445   323.8449 5.7974e-01    14.1503      5.232      7.589    12.1332   999.5288 0.0000e+00
      5.361      0.078     2.1794     20.271     49.739  36.907736     1.1171      7.443   323.7478 5.4592e-01    14.3481      5.258      7.626    12.1222   999.5302 0.0000e+00
      5.383      0.076     2.2144     20.597     49.764  36.927141     1.0496      7.442   323.7780 5.2656e-01    14.4320      5.280      7.659    12.1152   999.5312 0.0000e+00
      5.402      0.075     2.2478     20.909     49.791  36.950742     1.0351      7.439   323.8651 5.0698e-01    14.4101      5.298      7.685    12.1080   999.5320 0.0000e+00
      5.419      0.074     2.2788     21.198     49.774  36.939191     1.0197      7.437   324.0276 4.9402e-01    14.4112      5.314      7.708    12.0999   999.5331 0.0000e+00
      5.434      0.075     2.3096     21.481     49.749  36.914436     1.0198      7.435   324.1937 4.8287e-01    14.4782      5.329      7.729    12.0956   999.5337 0.0000e+00
      5.450      0.079     2.3363     21.726     49.750  36.905323     1.0363      7.433   324.2392 4.5272e-01    14.5975      5.344      7.751    12.0974   999.5335 0.0000e+00
      5.470      0.084     2.3547     21.891     49.749  36.892464     1.0458      7.431   324.4049 4.1745e-01    14.6406      5.363      7.778    12.1032   999.5330 0.0000e+00
      5.494      0.091     2.3689     22.016     49.759  36.885894     1.0823      7.428   324.9928 3.9069e-01    14.6393      5.387      7.813    12.1070   999.5326 0.0000e+00
      5.521      0.099     2.3835     22.142     49.786  36.889352     1.5034      7.425   325.5826 3.6780e-01    14.6806      5.414      7.854    12.0996   999.5336 0.0000e+00
      5.547      0.104     2.3986     22.275     49.780  36.870783     2.2795      7.422   325.6852 3.5383e-01    14.7140      5.440      7.890    12.0872   999.5351 0.0000e+00
      5.573      0.104     2.4178     22.450     49.766  36.851789     2.6984      7.419   325.6316 3.3087e-01    14.7154      5.463      7.923    12.0774   999.5364 0.0000e+00
      5.602      0.101     2.4441     22.690     49.771  36.850116     2.6919      7.415   325.4513 2.9112e-01    14.6966      5.492      7.965    12.0631   999.5382 0.0000e+00
      5.633      0.098     2.4764     22.989     49.775  36.850541     2.2448      7.412   325.1394 2.6033e-01    14.6515      5.527      8.017    12.0437   999.5406 0.0000e+00
      5.658      0.094     2.5134     23.332     49.782  36.856925     1.4191      7.410   325.8177 2.4576e-01    14.6283      5.553      8.053    12.0293   999.5423 0.0000e+00
      5.674      0.087     2.5515     23.689     49.785  36.863839     0.9711      7.409   327.1998 2.3337e-01    14.6783      5.560      8.065    12.0214   999.5433 0.0000e+00
      5.694      0.082     2.5864     24.017     49.787  36.870664     0.9290      7.407   327.5688 2.1316e-01    14.7313      5.579      8.093    12.0160   999.5440 0.0000e+00
      5.720      0.083     2.6138     24.274     49.789  36.875971     0.9444      7.404   326.9223 1.9688e-01    14.7128      5.614      8.143    12.0127   999.5445 0.0000e+00
      5.739      0.091     2.6318     24.440     49.774  36.864534     1.0010      7.402   326.0944 1.9086e-01    14.6836      5.632      8.168    12.0145   999.5444 0.0000e+00
      5.752      0.101     2.6404     24.519     49.770  36.859333     1.0411      7.400   326.3349 1.8101e-01    14.7063      5.635      8.173    12.0198   999.5438 0.0000e+00
      5.777      0.108     2.6442     24.551     49.798  36.876555     1.0484      7.398   327.6799 1.6398e-01    14.7244      5.658      8.206    12.0253   999.5432 0.0000e+00
      5.815      0.112     2.6463     24.570     49.809  36.882336     1.0283      7.396   328.2453 1.4803e-01    14.7391      5.704      8.274    12.0300   999.5430 0.0000e+00
      5.852      0.117     2.6441     24.549     49.792  36.865744     0.9887      7.394   327.6648 1.3702e-01    14.8191      5.742      8.328    12.0304   999.5431 0.0000e+00
      5.883      0.119     2.6381     24.490     49.798  36.866368     0.9766      7.391   326.8558 1.3287e-01    14.9041      5.770      8.370    12.0265   999.5437 0.0000e+00
      5.911      0.117     2.6326     24.437     49.835  36.889876     0.9870      7.389   326.3791 1.3177e-01    14.9144      5.798      8.409    12.0233   999.5442 0.0000e+00
      5.936      0.112     2.6294     24.407     49.846  36.896062     0.9850      7.386   326.2901 1.2746e-01    14.8787      5.820      8.442    12.0216   999.5445 0.0000e+00
      5.963      0.108     2.6263     24.377     49.821  36.877692     0.9775      7.383   326.4678 1.2423e-01    14.8653      5.846      8.480    12.0172   999.5451 0.0000e+00
      5.993      0.106     2.6223     24.339     49.795  36.858191     0.9750      7.381   326.7205 1.2389e-01    14.8835      5.879      8.526    12.0122   999.5458 0.0000e+00
      6.021      0.104     2.6173     24.294     49.784  36.850699     0.9721      7.381   326.8501 1.2373e-01    14.9030      5.906      8.567    12.0088   999.5464 0.0000e+00
      6.047      0.100     2.6128     24.253     49.782  36.850585     0.9678      7.379   326.8303 1.2371e-01    14.9044      5.930      8.601    12.0065   999.5468 0.0000e+00
      6.073      0.093     2.6117     24.243     49.789  36.856808     0.9399      7.375   326.2242 1.2375e-01    14.8340      5.956      8.638    12.0073   999.5468 0.0000e+00
      6.098      0.083     2.6136     24.260     49.798  36.862469     0.8867      7.373   325.4582 1.2374e-01    14.7408      5.980      8.674    12.0073   999.5469 0.0000e+00
      6.120      0.074     2.6153     24.276     49.791  36.855554     0.8621      7.371   325.3987 1.2377e-01    14.6947      6.003      8.707    12.0071   999.5470 0.0000e+00
      6.136      0.067     2.6156     24.277     49.766  36.836673     0.8671      7.368   325.5041 1.2380e-01    14.6701      6.019      8.729    12.0095   999.5468 0.0000e+00
      6.148      0.062     2.6153     24.274     49.750  36.824612     0.8611      7.366   325.6143 1.2368e-01    14.7058      6.030      8.745    12.0105   999.5467 0.0000e+00
      6.161      0.059     2.6146     24.268     49.767  36.836673     0.8421      7.364   325.8701 1.2356e-01    14.7986      6.042      8.763    12.0089   999.5469 0.0000e+00
      6.175      0.058     2.6140     24.262     49.793  36.855544     0.8356      7.362   325.2420 1.2356e-01    14.8745      6.054      8.782    12.0074   999.5472 0.0000e+00
      6.190      0.059     2.6141     24.264     49.799  36.862354     0.8437      7.360   323.9568 1.2367e-01    14.9024      6.069      8.803    12.0068   999.5473 0.0000e+00
      6.206      0.060     2.6142     24.268     49.783  36.855547     0.8538      7.358   323.5811 1.2379e-01    14.8408      6.086      8.827    12.0066   999.5474 0.0000e+00
      6.223      0.063     2.6144     24.274     49.746  36.836712     0.8623      7.356   323.7957 1.2379e-01    14.7195      6.103      8.852    12.0062   999.5476 0.0000e+00
      6.238      0.066     2.6151     24.286     49.719  36.825067     0.8596      7.356   324.0565 1.2370e-01    14.6482      6.118      8.875    12.0055   999.5477 0.0000e+00
      6.253      0.070     2.6163     24.298     49.739  36.841707     0.8564      7.355   323.9817 1.2364e-01    14.6347      6.132      8.894    12.0080   999.5475 0.0000e+00
      6.270      0.074     2.6171     24.303     49.754  36.847473     0.8494      7.352   323.1489 1.2367e-01    14.6867      6.147      8.915    12.0121   999.5472 0.0000e+00
      6.290      0.077     2.6176     24.304     49.740  36.831307     0.8259      7.348   322.6775 1.2368e-01    14.8179      6.167      8.944    12.0203   999.5462 0.0000e+00
      6.313      0.078     2.6168     24.295     49.751  36.836662     0.8071      7.347   322.8420 1.2368e-01    14.9101      6.192      8.979    12.0342   999.5448 0.0000e+00
      6.336      0.078     2.6150     24.277     49.768  36.848742     0.8044      7.347   323.3309 1.2368e-01    14.9170      6.214      9.012    12.0356   999.5447 0.0000e+00
      6.357      0.076     2.6146     24.272     49.773  36.850407     0.8105      7.344   323.9425 1.2365e-01    14.9019      6.235      9.042    12.0253   999.5459 0.0000e+00
      6.375      0.073     2.6178     24.300     49.787  36.856793     0.8982      7.341   324.0426 1.2365e-01    14.8912      6.253      9.069    12.0193   999.5468 0.0000e+00
      6.391      0.070     2.6231     24.348     49.800  36.862469     1.0666      7.340   323.8524 1.2367e-01    14.9182      6.268      9.091    12.0179   999.5470 0.0000e+00
      6.407      0.068     2.6258     24.372     49.795  36.855555     1.1564      7.340   323.8795 1.2372e-01    14.9338      6.284      9.113    12.0177   999.5471 0.0000e+00
      6.424      0.068     2.6273     24.384     49.773  36.836674     1.1599      7.338   324.1130 1.2375e-01    14.9158      6.299      9.136    12.0159   999.5474 0.0000e+00
      6.442      0.068     2.6270     24.380     49.759  36.824614     1.1349      7.333   324.4376 1.2373e-01    14.9304      6.317      9.162    12.0118   999.5479 0.0000e+00
      6.461      0.069     2.6246     24.357     49.776  36.836676     1.0889      7.328   324.7936 1.2371e-01    14.9460      6.337      9.190    12.0073   999.5486 0.0000e+00
      6.478      0.072     2.6259     24.369     49.802  36.855556     1.0628      7.328   325.3196 1.2375e-01    14.9409      6.353      9.215    12.0039   999.5490 0.0000e+00
      6.494      0.075     2.6291     24.398     49.812  36.862471     1.0542      7.328   325.8932 1.2379e-01    14.9009      6.369      9.237    12.0018   999.5493 0.0000e+00
      6.513      0.079     2.6317     24.422     49.805  36.856809     1.0617      7.327   326.0500 1.2378e-01    14.8562      6.385      9.261    12.0002   999.5496 0.0000e+00
      6.533      0.082     2.6327     24.431     49.797  36.850575     1.0932      7.324   326.0110 1.2376e-01    14.8592      6.405      9.290    11.9991   999.5498 0.0000e+00
      6.557      0.084     2.6326     24.429     49.797  36.850566     1.1141      7.321   326.1110 1.2372e-01    14.8709      6.430      9.326    11.9985   999.5500 0.0000e+00
      6.581      0.085     2.6341     24.443     49.805  36.856705     1.1064      7.320   326.2256 1.2369e-01    14.8994      6.454      9.361    11.9985   999.5501 0.0000e+00
      6.604      0.084     2.6341     24.444     49.812  36.861326     1.0613      7.319   326.2783 1.2368e-01    15.1387      6.477      9.394    11.9985   999.5502 0.0000e+00
      6.625      0.083     2.6302     24.407     49.788  36.842956     0.9845      7.317   326.2318 1.2367e-01    15.5689      6.498      9.425    11.9981   999.5504 0.0000e+00
      6.645      0.080     2.6247     24.357     49.764  36.825021     0.9322      7.315   326.1798 1.2367e-01    15.8407      6.516      9.451    11.9980   999.5505 0.0000e+00
      6.664      0.078     2.6232     24.342     49.777  36.834897     0.9232      7.314   326.2521 1.2369e-01    15.8677      6.534      9.477    11.9980   999.5506 0.0000e+00
      6.684      0.076     2.6272     24.380     49.778  36.835417     0.9106      7.314   326.4178 1.2371e-01    15.6006      6.555      9.507    11.9978   999.5507 0.0000e+00
      6.704      0.074     2.6312     24.417     49.772  36.831312     0.8753      7.313   326.2048 1.2373e-01    15.1349      6.574      9.535    11.9974   999.5508 0.0000e+00
      6.723      0.072     2.6320     24.424     49.795  36.848727     0.8515      7.309   325.4829 1.2373e-01    14.8913      6.593      9.563    11.9970   999.5509 0.0000e+00
      6.742      0.072     2.6328     24.432     49.804  36.855561     0.8572      7.306   325.0030 1.2372e-01    14.8828      6.612      9.590    11.9972   999.5510 0.0000e+00
      6.758      0.073     2.6363     24.465     49.797  36.850463     0.8750      7.305   324.9626 1.2374e-01    14.9014      6.627      9.613    11.9972   999.5511 0.0000e+00
      6.773      0.074     2.6403     24.503     49.796  36.850568     0.8754      7.303   325.0809 1.2378e-01    14.9522      6.641      9.632    11.9971   999.5511 0.0000e+00
      6.792      0.076     2.6387     24.489     49.802  36.856820     0.8628      7.301   325.1416 1.2373e-01    15.0384      6.660      9.658    11.9970   999.5513 0.0000e+00
      6.814      0.079     2.6334     24.440     49.808  36.862586     0.8605      7.298   324.8371 1.2365e-01    15.0915      6.683      9.692    11.9970   999.5514 0.0000e+00
      6.836      0.083     2.6312     24.420     49.799  36.856806     0.8738      7.298   324.3240 1.2370e-01    15.1021      6.705      9.725    11.9976   999.5514 0.0000e+00
      6.857      0.085     2.6297     24.406     49.790  36.850411     0.9369      7.299   324.0136 1.2375e-01    15.0361      6.725      9.753    11.9990   999.5513 0.0000e+00
      6.878      0.085     2.6264     24.376     49.788  36.848746     1.0340      7.297   323.9235 1.2371e-01    14.9161      6.745      9.782    12.0009   999.5512 0.0000e+00
      6.901      0.086     2.6249     24.361     49.772  36.836676     1.0848      7.292   323.9235 1.2370e-01    14.8640      6.767      9.814    12.0021   999.5512 0.0000e+00
      6.923      0.088     2.6237     24.350     49.764  36.831426     1.0919      7.289   324.3576 1.2372e-01    14.8647      6.790      9.848    12.0029   999.5512 0.0000e+00
      6.945      0.090     2.6217     24.332     49.786  36.848736     1.0685      7.287   325.0417 1.2370e-01    14.9239      6.810      9.877    12.0030   999.5513 0.0000e+00
      6.967      0.091     2.6217     24.333     49.793  36.855551     1.0183      7.286   325.1404 1.2370e-01    15.0560      6.831      9.907    12.0027   999.5514 0.0000e+00
      6.992      0.092     2.6226     24.341     49.786  36.850349     0.9868      7.284   324.6041 1.2373e-01    15.1513      6.857      9.945    12.0029   999.5515 0.0000e+00
      7.017      0.093     2.6226     24.341     49.788  36.849309     0.9751      7.283   323.9776 1.2373e-01    15.1588      6.882      9.982    12.0024   999.5517 0.0000e+00
      7.041      0.095     2.6232     24.345     49.785  36.842971     0.9543      7.282   324.6213 1.2369e-01    15.0811      6.905     10.015    12.0032   999.5516 0.0000e+00
      7.063      0.096     2.6252     24.361     49.780  36.837187     0.9258      7.280   326.2780 1.2364e-01    14.9661      6.926     10.045    12.0064   999.5514 0.0000e+00
      7.087      0.096     2.6252     24.361     49.789  36.842854     0.9086      7.279   326.8874 1.2361e-01    14.8821      6.949     10.078    12.0071   999.5515 0.0000e+00
      7.113      0.096     2.6230     24.340     49.795  36.848008     0.9018      7.277   326.3103 1.2363e-01    14.8522      6.976     10.117    12.0043   999.5520 0.0000e+00
      7.140      0.097     2.6195     24.308     49.778  36.836033     0.9226      7.275   325.4091 1.2365e-01    14.9319      7.003     10.157    11.9996   999.5526 0.0000e+00
      7.165      0.097     2.6141     24.258     49.763  36.825011     0.9686      7.272   324.8533 1.2365e-01    15.0923      7.028     10.193    11.9964   999.5531 0.0000e+00
      7.187      0.096     2.6090     24.209     49.789  36.841697     0.9898      7.270   325.3543 1.2368e-01    15.1854      7.048     10.223    11.9959   999.5532 0.0000e+00
      7.211      0.093     2.6005     24.129     49.799  36.847356     0.9881      7.268   326.6488 1.2370e-01    15.1724      7.070     10.255    11.9968   999.5532 0.0000e+00
      7.236      0.091     2.5864     23.999     49.776  36.829944     0.9836      7.267   327.5132 1.2368e-01    15.1325      7.097     10.293    11.9987   999.5531 0.0000e+00
      7.260      0.089     2.5719     23.864     49.764  36.821602     1.0470      7.266   327.6315 1.2364e-01    15.1292      7.122     10.329    11.9985   999.5533 0.0000e+00
      7.281      0.087     2.5593     23.747     49.749  36.809966     1.1915      7.265   327.1335 1.2360e-01    15.1643      7.141     10.357    11.9953   999.5538 0.0000e+00
      7.302      0.085     2.5475     23.637     49.758  36.816209     1.2741      7.263   326.4812 1.2362e-01    15.1633      7.161     10.386    11.9925   999.5541 0.0000e+00
      7.324      0.084     2.5359     23.529     49.782  36.833611     1.2749      7.261   326.6285 1.2364e-01    15.1176      7.182     10.417    11.9923   999.5542 0.0000e+00
      7.344      0.085     2.5276     23.453     49.777  36.829940     1.2012      7.260   327.1077 1.2360e-01    15.1031      7.203     10.447    11.9934   999.5542 0.0000e+00
      7.364      0.087     2.5264     23.441     49.783  36.835295     1.0680      7.258   327.1130 1.2360e-01    15.1199      7.222     10.474    11.9933   999.5543 0.0000e+00
      7.386      0.089     2.5295     23.470     49.783  36.834889     0.9992      7.256   327.0368 1.2370e-01    15.1565      7.243     10.504    11.9924   999.5546 0.0000e+00
      7.410      0.090     2.5335     23.507     49.771  36.825022     0.9849      7.255   327.1331 1.2375e-01    15.1520      7.266     10.538    11.9916   999.5548 0.0000e+00
      7.435      0.091     2.5380     23.547     49.797  36.842950     0.9811      7.254   326.3844 1.2372e-01    15.0326      7.291     10.575    11.9920   999.5548 0.0000e+00
      7.459      0.092     2.5433     23.597     49.822  36.861215     0.9967      7.251   325.0391 1.2368e-01    14.8929      7.314     10.610    11.9932   999.5548 0.0000e+00
      7.482      0.092     2.5488     23.648     49.814  36.855436     1.0094      7.249   324.6327 1.2364e-01    14.8398      7.337     10.642    11.9925   999.5550 0.0000e+00
      7.503      0.092     2.5524     23.682     49.788  36.836555     1.0138      7.248   325.0846 1.2357e-01    14.8817      7.358     10.672    11.9911   999.5552 0.0000e+00
      7.527      0.090     2.5530     23.688     49.768  36.823358     0.9892      7.247   325.7702 1.2357e-01    14.9404      7.379     10.703    11.9905   999.5554 0.0000e+00
      7.552      0.087     2.5516     23.676     49.765  36.822819     0.9367      7.246   326.2114 1.2367e-01    14.9273      7.405     10.741    11.9903   999.5556 0.0000e+00
      7.577      0.085     2.5487     23.650     49.773  36.830044     0.9074      7.244   325.2571 1.2377e-01    14.8871      7.432     10.779    11.9902   999.5557 0.0000e+00
      7.598      0.081     2.5461     23.625     49.796  36.847243     0.9120      7.242   323.3522 1.2372e-01    14.8810      7.453     10.810    11.9908   999.5558 0.0000e+00
      7.614      0.075     2.5482     23.644     49.790  36.840333     0.9233      7.240   322.6252 1.2359e-01    14.8862      7.467     10.830    11.9921   999.5556 0.0000e+00
      7.633      0.067     2.5534     23.691     49.751  36.809969     0.9238      7.239   323.2629 1.2359e-01    14.8838      7.483     10.853    11.9938   999.5556 0.0000e+00
      7.654      0.060     2.5566     23.721     49.734  36.797496     0.9170      7.237   324.0938 1.2367e-01    14.8850      7.507     10.889    11.9960   999.5554 0.0000e+00
      7.670      0.051     2.5595     23.749     49.758  36.816467     0.9109      7.235   324.0675 1.2370e-01    14.9013      7.526     10.915    11.9960   999.5555 0.0000e+00
      7.678      0.030     2.5631     23.785     49.797  36.848924     0.8670      7.232   323.2892 1.2373e-01    14.9167      7.529     10.920    11.9931   999.5558 0.0000e+00
      7.687     -0.010     2.5641     23.798     49.821  36.872558     0.7852      7.230   322.8572 1.2373e-01    14.9069      7.535     10.929    11.9912   999.5560 0.0000e+00
      7.698     -0.065     2.5630     23.795     49.854  36.911809     0.7366      7.229   322.9732 1.2369e-01    14.8809      7.553     10.955    11.9904   999.5562 0.0000e+00
      7.697     -0.120     2.5601     23.782     49.860  36.942664     0.7307      7.227   323.3162 1.2369e-01    14.8643      7.563     10.969    11.9913   999.5562 0.0000e+00
      7.657     -0.160     2.5536     23.738     49.800  36.928282     0.7398      7.225   323.7344 1.2370e-01    14.8699      7.526     10.916    11.9957   999.5555 0.0000e+00
      7.576     -0.173     2.5502     23.719     49.771  36.928381     0.7594      7.223   324.3300 1.2369e-01    14.8837      7.432     10.781    11.9999   999.5546 0.0000e+00
      7.485     -0.156     2.5522     23.741     49.784  36.943883     0.7859      7.222   324.5809 1.2365e-01    14.9006      7.329     10.630    12.0109   999.5529 0.0000e+00
      7.421     -0.110     2.5544     23.756     49.769  36.925296     0.7999      7.220   324.0150 1.2363e-01    14.9095      7.260     10.529    12.0409   999.5491 0.0000e+00
      7.403     -0.047     2.5584     23.786     49.743  36.894057     0.7905      7.219   323.3382 1.2366e-01    14.8925      7.244     10.506    12.0774   999.5448 0.0000e+00
      7.426      0.016     2.5644     23.836     49.743  36.883546     0.8115      7.218   323.0237 1.2366e-01    14.9250      7.275     10.552    12.1019   999.5421 0.0000e+00
      7.471      0.065     2.5679     23.865     49.810  36.925149     0.8792      7.216   323.7395 1.2364e-01    15.0409      7.329     10.631    12.1071   999.5418 0.0000e+00
      7.510      0.093     2.5684     23.866     49.857  36.952729     0.9243      7.216   325.1954 1.2364e-01    15.1461      7.374     10.695    12.0946   999.5435 0.0000e+00
      7.531      0.105     2.5683     23.860     49.798  36.899631     0.9325      7.215   325.7425 1.2365e-01    15.1810      7.389     10.718    12.0800   999.5453 0.0000e+00
      7.542      0.110     2.5672     23.843     49.754  36.854416     0.9606      7.215   325.6224 1.2367e-01    15.1685      7.394     10.724    12.0705   999.5463 0.0000e+00
      7.557      0.117     2.5647     23.813     49.766  36.850349     1.0130      7.215   325.2051 1.2371e-01    15.1581      7.406     10.741    12.0629   999.5472 0.0000e+00
      7.586      0.126     2.5611     23.774     49.781  36.850435     1.0374      7.213   324.4833 1.2373e-01    15.1536      7.432     10.781    12.0564   999.5482 0.0000e+00
      7.631      0.133     2.5572     23.733     49.798  36.855448     1.0387      7.210   324.9827 1.2370e-01    15.1479      7.480     10.849    12.0477   999.5494 0.0000e+00
      7.683      0.135     2.5537     23.700     49.791  36.847482     0.9937      7.208   326.5972 1.2360e-01    15.0887      7.539     10.934    12.0341   999.5512 0.0000e+00
      7.727      0.129     2.5502     23.667     49.751  36.817584     0.9009      7.205   327.3126 1.2356e-01    14.9621      7.584     11.000    12.0187   999.5532 0.0000e+00
      7.755      0.115     2.5466     23.634     49.741  36.811332     0.8616      7.203   326.9209 1.2366e-01    14.8955      7.608     11.035    12.0081   999.5545 0.0000e+00
      7.772      0.099     2.5438     23.608     49.773  36.835368     0.8746      7.203   326.4215 1.2371e-01    14.9061      7.620     11.053    12.0010   999.5553 0.0000e+00
      7.789      0.085     2.5416     23.588     49.798  36.854306     0.8583      7.202   326.3509 1.2362e-01    14.9598      7.636     11.075    11.9974   999.5558 0.0000e+00
      7.809      0.078     2.5386     23.559     49.792  36.849875     0.8116      7.200   326.6695 1.2357e-01    15.0525      7.658     11.106    11.9990   999.5558 0.0000e+00
      7.830      0.077     2.5347     23.524     49.786  36.845266     0.7861      7.198   327.0045 1.2362e-01    15.1093      7.680     11.138    12.0003   999.5557 0.0000e+00
      7.850      0.077     2.5326     23.504     49.806  36.862058     0.7936      7.197   327.2174 1.2368e-01    15.0890      7.699     11.166    12.0011   999.5557 0.0000e+00
      7.869      0.077     2.5321     23.500     49.805  36.862473     0.8065      7.196   327.3504 1.2366e-01    15.0700      7.716     11.192    12.0017   999.5558 0.0000e+00
      7.889      0.077     2.5323     23.503     49.787  36.850289     0.8128      7.195   327.4088 1.2365e-01    15.1082      7.737     11.221    12.0004   999.5560 0.0000e+00
      7.908      0.079     2.5325     23.506     49.774  36.841689     0.8268      7.194   326.8906 1.2366e-01    15.1248      7.757     11.250    12.0007   999.5560 0.0000e+00
      7.926      0.082     2.5323     23.503     49.750  36.821975     0.8452      7.192   326.0748 1.2365e-01    15.1072      7.773     11.273    12.0026   999.5559 0.0000e+00
      7.946      0.085     2.5320     23.497     49.730  36.802348     0.8527      7.192   326.0636 1.2368e-01    15.1252      7.791     11.299    12.0039   999.5558 0.0000e+00
      7.969      0.087     2.5312     23.487     49.728  36.794808     0.8569      7.190   326.4108 1.2376e-01    15.1451      7.814     11.333    12.0046   999.5559 0.0000e+00
      7.995      0.089     2.5311     23.483     49.733  36.794278     0.8614      7.188   326.6592 1.2378e-01    15.1190      7.841     11.372    12.0071   999.5557 0.0000e+00
      8.020      0.089     2.5299     23.471     49.739  36.795933     0.8551      7.187   327.0020 1.2371e-01    15.1047      7.867     11.409    12.0065   999.5558 0.0000e+00
      8.042      0.088     2.5252     23.426     49.768  36.814814     0.8497      7.186   326.5976 1.2367e-01    15.1022      7.887     11.439    11.9992   999.5568 0.0000e+00
      8.062      0.087     2.5197     23.375     49.793  36.832125     0.8831      7.184   325.5559 1.2370e-01    15.0247      7.906     11.467    11.9923   999.5576 0.0000e+00
      8.083      0.087     2.5161     23.340     49.770  36.814819     0.9465      7.183   325.2481 1.2371e-01    14.9212      7.927     11.497    11.9883   999.5582 0.0000e+00
      8.105      0.088     2.5133     23.314     49.745  36.795996     0.9830      7.182   325.7156 1.2371e-01    14.8991      7.948     11.528    11.9859   999.5586 0.0000e+00
      8.128      0.090     2.5103     23.286     49.744  36.794966     0.9781      7.181   326.2177 1.2368e-01    14.9546      7.970     11.559    11.9838   999.5589 0.0000e+00
      8.151      0.092     2.5073     23.258     49.755  36.802354     0.9401      7.179   326.2430 1.2365e-01    15.0681      7.994     11.594    11.9821   999.5592 0.0000e+00
      8.176      0.094     2.5024     23.213     49.781  36.821845     0.8870      7.177   325.8488 1.2365e-01    15.1561      8.018     11.629    11.9815   999.5594 0.0000e+00
      8.201      0.094     2.4978     23.170     49.806  36.840214     0.8656      7.175   325.7528 1.2366e-01    15.1349      8.043     11.665    11.9810   999.5596 0.0000e+00
      8.225      0.093     2.4951     23.146     49.797  36.834029     0.8717      7.174   326.1147 1.2366e-01    15.1062      8.067     11.700    11.9811   999.5597 0.0000e+00
      8.249      0.092     2.4911     23.109     49.765  36.810532     0.9006      7.174   326.5256 1.2364e-01    15.1362      8.089     11.732    11.9810   999.5598 0.0000e+00
      8.272      0.090     2.4866     23.067     49.764  36.810012     0.9546      7.173   326.7635 1.2361e-01    15.1698      8.113     11.767    11.9807   999.5600 0.0000e+00
      8.295      0.087     2.4831     23.034     49.788  36.827739     0.9786      7.171   326.8391 1.2364e-01    15.1852      8.135     11.799    11.9807   999.5601 0.0000e+00
      8.317      0.083     2.4814     23.018     49.797  36.834446     0.9734      7.170   326.9232 1.2369e-01    15.1913      8.156     11.830    11.9812   999.5602 0.0000e+00
      8.338      0.081     2.4810     23.015     49.788  36.827621     0.9780      7.169   327.0928 1.2369e-01    15.1787      8.176     11.859    11.9819   999.5601 0.0000e+00
      8.358      0.079     2.4813     23.018     49.763  36.808701     0.9829      7.167   327.1687 1.2364e-01    15.2607      8.196     11.889    11.9818   999.5602 0.0000e+00
      8.377      0.079     2.4838     23.041     49.745  36.796110     0.9894      7.165   327.2384 1.2364e-01    15.4618      8.215     11.914    11.9815   999.5604 0.0000e+00
      8.396      0.078     2.4863     23.065     49.752  36.802344     0.9964      7.163   327.3341 1.2371e-01    15.5794      8.232     11.940    11.9815   999.5605 0.0000e+00
      8.416      0.077     2.4872     23.074     49.775  36.820595     0.9880      7.162   327.2068 1.2375e-01    15.6010      8.253     11.971    11.9814   999.5606 0.0000e+00
      8.437      0.076     2.4874     23.075     49.782  36.826357     0.9316      7.161   327.0754 1.2365e-01    15.4932      8.275     12.002    11.9812   999.5607 0.0000e+00
      8.456      0.075     2.4879     23.080     49.759  36.808534     0.8437      7.159   327.2943 1.2356e-01    15.2597      8.294     12.029    11.9816   999.5607 0.0000e+00
      8.475      0.072     2.4870     23.071     49.742  36.795529     0.8100      7.157   327.7026 1.2356e-01    15.1364      8.312     12.055    11.9829   999.5607 0.0000e+00
      8.493      0.069     2.4840     23.044     49.740  36.796059     0.8098      7.156   327.8825 1.2358e-01    15.1168      8.329     12.081    11.9850   999.5605 0.0000e+00
      8.511      0.065     2.4814     23.022     49.761  36.814940     0.7975      7.155   327.5763 1.2365e-01    15.0229      8.346     12.105    11.9852   999.5606 0.0000e+00
      8.527      0.064     2.4792     23.002     49.784  36.833396     0.7919      7.155   327.0980 1.2371e-01    14.8854      8.363     12.130    11.9835   999.5608 0.0000e+00
      8.542      0.064     2.4781     22.992     49.778  36.828782     0.7945      7.154   326.9175 1.2368e-01    14.8640      8.378     12.151    11.9828   999.5610 0.0000e+00
      8.557      0.066     2.4786     22.997     49.772  36.822635     0.8026      7.153   326.8561 1.2365e-01    14.9287      8.390     12.170    11.9852   999.5608 0.0000e+00
      8.572      0.069     2.4799     23.007     49.774  36.822541     0.8376      7.150   326.9582 1.2367e-01    14.9461      8.404     12.189    11.9890   999.5604 0.0000e+00
      8.590      0.074     2.4810     23.017     49.782  36.827642     0.8883      7.149   327.2062 1.2369e-01    14.9111      8.423     12.217    11.9908   999.5603 0.0000e+00
      8.610      0.079     2.4832     23.037     49.774  36.820827     0.9045      7.149   327.1015 1.2369e-01    14.8659      8.444     12.247    11.9907   999.5604 0.0000e+00
      8.632      0.082     2.4870     23.072     49.753  36.803619     0.9028      7.147   326.8099 1.2371e-01    14.8580      8.465     12.276    11.9883   999.5608 0.0000e+00
      8.656      0.082     2.4909     23.107     49.763  36.810014     0.9023      7.145   326.6057 1.2371e-01    14.8812      8.488     12.310    11.9866   999.5611 0.0000e+00
      8.680      0.080     2.4945     23.140     49.798  36.834665     0.8821      7.144   326.4401 1.2368e-01    14.8842      8.513     12.347    11.9863   999.5613 0.0000e+00
      8.700      0.076     2.4957     23.150     49.817  36.847765     0.8573      7.143   326.3562 1.2368e-01    14.8622      8.534     12.378    11.9851   999.5615 0.0000e+00
      8.717      0.071     2.4934     23.128     49.809  36.841465     0.8457      7.142   326.8812 1.2373e-01    14.8437      8.548     12.398    11.9837   999.5617 0.0000e+00
      8.733      0.066     2.4884     23.082     49.784  36.821960     0.8448      7.141   327.7978 1.2380e-01    14.8580      8.563     12.420    11.9822   999.5619 0.0000e+00
      8.750      0.062     2.4820     23.023     49.758  36.802356     0.8639      7.139   328.0609 1.2381e-01    14.9359      8.581     12.446    11.9810   999.5622 0.0000e+00
      8.765      0.061     2.4768     22.975     49.748  36.794855     0.8951      7.137   327.7396 1.2375e-01    15.0647      8.597     12.468    11.9801   999.5624 0.0000e+00
      8.778      0.062     2.4731     22.940     49.748  36.794740     0.9091      7.136   327.4400 1.2374e-01    15.1372      8.607     12.483    11.9794   999.5625 0.0000e+00
      8.792      0.065     2.4710     22.920     49.756  36.800972     0.9122      7.135   328.3967 1.2376e-01    15.1245      8.620     12.502    11.9791   999.5626 0.0000e+00
      8.809      0.068     2.4701     22.912     49.764  36.806737     0.9328      7.134   330.3587 1.2375e-01    15.1071      8.638     12.529    11.9786   999.5627 0.0000e+00
      8.828      0.070     2.4697     22.908     49.756  36.800967     0.9672      7.132   331.4596 1.2374e-01    15.1236      8.656     12.555    11.9784   999.5628 0.0000e+00
      8.848      0.070     2.4712     22.922     49.747  36.794677     0.9815      7.130   331.8982 1.2369e-01    15.1279      8.676     12.584    11.9784   999.5629 0.0000e+00
      8.868      0.069     2.4749     22.956     49.746  36.794157     0.9755      7.129   331.7904 1.2364e-01    15.0931      8.698     12.616    11.9784   999.5630 0.0000e+00
      8.886      0.064     2.4782     22.987     49.747  36.794687     0.9467      7.128   330.9308 1.2367e-01    15.0313      8.717     12.642    11.9788   999.5631 0.0000e+00
      8.900      0.054     2.4791     22.996     49.755  36.801081     0.8945      7.126   330.7110 1.2370e-01    14.9372      8.729     12.660    11.9790   999.5631 0.0000e+00
      8.914      0.041     2.4782     22.988     49.764  36.807996     0.8641      7.124   331.9728 1.2369e-01    14.8729      8.741     12.676    11.9791   999.5631 0.0000e+00
      8.928      0.033     2.4768     22.976     49.771  36.814816     0.8560      7.122   334.3128 1.2371e-01    14.8776      8.757     12.702    11.9792   999.5632 0.0000e+00
      8.937      0.034     2.4761     22.970     49.776  36.820067     0.8660      7.122   336.5480 1.2377e-01    14.8959      8.771     12.721    11.9790   999.5633 0.0000e+00
      8.932      0.043     2.4749     22.959     49.759  36.808006     0.8982      7.122   337.2295 1.2380e-01    14.8965      8.761     12.707    11.9792   999.5632 0.0000e+00
      8.927      0.050     2.4712     22.924     49.744  36.795937     0.9160      7.122   336.3582 1.2380e-01    14.8847      8.744     12.682    11.9791   999.5631 0.0000e+00
      8.943      0.051     2.4667     22.882     49.752  36.801093     0.9161      7.119   334.8758 1.2376e-01    14.8850      8.760     12.705    11.9807   999.5630 0.0000e+00
      8.979      0.048     2.4643     22.860     49.757  36.806873     0.8910      7.117   334.5344 1.2371e-01    14.8996      8.808     12.775    11.9839   999.5629 0.0000e+00
      9.011      0.046     2.4644     22.863     49.747  36.802347     0.8380      7.117   336.4459 1.2368e-01    14.8974      8.847     12.832    11.9840   999.5631 0.0000e+00
      9.018      0.044     2.4642     22.864     49.752  36.809847     0.8055      7.117   339.0598 1.2370e-01    14.8910      8.851     12.837    11.9818   999.5633 0.0000e+00
      9.007      0.041     2.4632     22.855     49.783  36.834083     0.8003      7.116   340.8429 1.2372e-01    14.8881      8.831     12.808    11.9811   999.5633 0.0000e+00
      9.000      0.041     2.4649     22.870     49.794  36.841480     0.8017      7.115   339.5928 1.2370e-01    14.8625      8.819     12.791    11.9827   999.5631 0.0000e+00
      9.010      0.049     2.4679     22.897     49.789  36.835810     0.8220      7.114   336.0766 1.2374e-01    14.8439      8.830     12.807    11.9868   999.5627 0.0000e+00
      9.034      0.064     2.4694     22.910     49.783  36.829001     0.8632      7.113   334.4659 1.2380e-01    14.8595      8.859     12.848    11.9917   999.5623 0.0000e+00
      9.063      0.081     2.4709     22.923     49.777  36.822626     0.8926      7.111   334.1420 1.2375e-01    14.8872      8.889     12.893    11.9935   999.5622 0.0000e+00
      9.088      0.091     2.4729     22.940     49.779  36.822203     0.8994      7.111   334.3979 1.2375e-01    14.9162      8.914     12.928    11.9911   999.5626 0.0000e+00
      9.110      0.094     2.4732     22.942     49.783  36.823877     0.8853      7.111   335.6665 1.2378e-01    15.0140      8.933     12.956    11.9884   999.5630 0.0000e+00
      9.131      0.091     2.4716     22.927     49.809  36.842862     0.8618      7.110   334.3371 1.2373e-01    15.2171      8.954     12.987    11.9868   999.5633 0.0000e+00
      9.154      0.085     2.4704     22.916     49.833  36.861327     0.8570      7.108   330.4554 1.2366e-01    15.3410      8.977     13.020    11.9849   999.5636 0.0000e+00
      9.179      0.076     2.4704     22.916     49.826  36.856705     0.8626      7.108   328.5692 1.2362e-01    15.3310      9.000     13.054    11.9828   999.5639 0.0000e+00
      9.202      0.065     2.4713     22.926     49.816  36.850462     0.8777      7.107   329.2555 1.2361e-01    15.2931      9.026     13.092    11.9814   999.5642 0.0000e+00
      9.220      0.051     2.4722     22.935     49.812  36.849317     0.9087      7.105   330.5803 1.2366e-01    15.2106      9.046     13.120    11.9806   999.5644 0.0000e+00
      9.230      0.036     2.4727     22.940     49.803  36.842867     0.9255      7.103   331.0791 1.2373e-01    15.1206      9.053     13.130    11.9815   999.5644 0.0000e+00
      9.233      0.023     2.4732     22.945     49.795  36.835948     0.9163      7.100   330.3816 1.2372e-01    15.0900      9.054     13.132    11.9826   999.5642 0.0000e+00
      9.234      0.013     2.4735     22.947     49.785  36.829128     0.8669      7.098   329.4607 1.2367e-01    15.0699      9.055     13.133    11.9833   999.5642 0.0000e+00
      9.234      0.007     2.4733     22.945     49.776  36.823886     0.7879      7.096   328.7212 1.2371e-01    15.0081      9.055     13.133    11.9858   999.5639 0.0000e+00
      9.234      0.006     2.4709     22.925     49.791  36.836051     0.7413      7.094   328.0653 1.2374e-01    14.9330      9.055     13.133    11.9864   999.5638 0.0000e+00
      9.236      0.006     2.4657     22.877     49.806  36.849265     0.7366      7.093   327.8973 1.2374e-01    14.8828      9.056     13.135    11.9849   999.5640 0.0000e+00
      9.239      0.007     2.4621     22.843     49.815  36.856709     0.7830      7.091   329.6143 1.2377e-01    14.8923      9.060     13.140    11.9847   999.5640 0.0000e+00
      9.241      0.007     2.4612     22.836     49.822  36.862575     0.8686      7.089   332.1352 1.2378e-01    14.9170      9.062     13.144    11.9858   999.5639 0.0000e+00
      9.243      0.006     2.4598     22.824     49.812  36.856715     0.9139      7.088   332.8230 1.2373e-01    14.8874      9.064     13.148    11.9881   999.5637 0.0000e+00
      9.244      0.005     2.4573     22.803     49.798  36.849327     0.9143      7.086   332.2516 1.2372e-01    14.8610      9.066     13.149    11.9900   999.5634 0.0000e+00
      9.244      0.003     2.4560     22.793     49.775  36.836737     0.9079      7.085   331.3347 1.2373e-01    14.8601      9.065     13.148    11.9902   999.5634 0.0000e+00
      9.245      0.001     2.4604     22.836     49.763  36.831438     0.8978      7.083   332.4913 1.2370e-01    14.8762      9.066     13.150    11.9908   999.5634 0.0000e+00
      9.245      0.001     2.4677     22.905     49.782  36.848745     0.8790      7.082   335.3954 1.2366e-01    14.9248      9.067     13.150    11.9918   999.5632 0.0000e+00
      9.245      0.001     2.4685     22.914     49.787  36.855564     0.8625      7.081   335.9044 1.2369e-01    14.9235      9.066     13.150    11.9945   999.5629 0.0000e+00
      9.245      0.001     2.4647     22.881     49.775  36.850419     0.8622      7.080   334.7736 1.2372e-01    14.8938      9.066     13.150    12.0005   999.5622 0.0000e+00
      9.245      0.000     2.4636     22.873     49.770  36.850011     0.9192      7.078   333.1671 1.2367e-01    14.8933      9.066     13.149    12.0047   999.5617 0.0000e+00
      9.246 1.8630e-08     2.4669     22.904     49.765  36.850635     1.0320      7.076   331.4508 1.2367e-01    14.8847      9.067     13.151    12.0074   999.5615 0.0000e+00
      9.246 2.0494e-07     2.4731     22.963     49.772  36.857966     1.0988      7.075   332.2619 1.2374e-01    14.8876      9.067     13.151    12.0103   999.5611 0.0000e+00
      9.245 2.0494e-07     2.4742     22.973     49.796  36.875182     1.1022      7.074   335.1453 1.2378e-01    14.8958      9.067     13.150    12.0135   999.5608 0.0000e+00
      9.245 1.8631e-08     2.4667     22.904     49.788  36.868362     1.0652      7.072   336.8874 1.2377e-01    14.8850      9.066     13.149    12.0177   999.5603 0.0000e+00
      9.245 1.6937e-09     2.4622     22.862     49.747  36.838985     1.0066      7.070   337.0639 1.2375e-01    14.8881      9.067     13.150    12.0220   999.5598 0.0000e+00
      9.245 1.5385e-10     2.4669     22.906     49.743  36.837362     0.9829      7.068   336.9351 1.2374e-01    14.9009      9.066     13.150    12.0246   999.5595 0.0000e+00
      9.245 1.2725e-11     2.4710     22.945     49.758  36.848747     0.9778      7.067   336.5347 1.2375e-01    14.9085      9.066     13.150    12.0228   999.5597 0.0000e+00
      9.245      0.000     2.4710     22.944     49.760  36.849689     0.9709      7.066   336.1814 1.2373e-01    14.9145      9.066     13.150    12.0214   999.5599 0.0000e+00
      9.245 -9.990e-29 -9.990e-29 -9.990e-29 -9.990e-29 -9.990e-29 -9.990e-29 -9.990e-29 -9.990e-29 1.2368e-01 -9.990e-29      9.067     13.150    12.0237   999.5596 0.0000e+00
      9.246 -9.990e-29 -9.990e-29 -9.990e-29 -9.990e-29 -9.990e-29 -9.990e-29 -9.990e-29 -9.990e-29 1.2368e-01 -9.990e-29      9.067     13.151    12.0258   999.5594 0.0000e+00
      9.246 -9.990e-29 -9.990e-29 -9.990e-29 -9.990e-29 -9.990e-29 -9.990e-29 -9.990e-29 -9.990e-29 1.2374e-01 -9.990e-29      9.067     13.151    12.0253   999.5594 0.0000e+00
      9.246 -9.990e-29 -9.990e-29 -9.990e-29 -9.990e-29 -9.990e-29 -9.990e-29 -9.990e-29 -9.990e-29 1.2378e-01 -9.990e-29      9.067     13.151    12.0242   999.5596 0.0000e+00
