* Sea-Bird SBE19plus  Data File:
* FileName = C:\R\Reservoirs\Data\DataNotYetUploadedToEDI\Raw_CTD\RawDownloads\081924_fcr50_S7809_0003.hex
* Software version 2.8.0.119
* Temperature SN = 7809
* Conductivity SN = 7809
* System UpLoad Time = Aug 20 2024 14:05:29
* <ApplicationData>
* <Seaterm232>
* <SoftwareVersion>2.8.0.119</SoftwareVersion>
* <BuildDate>07-Nov-2018</BuildDate>
* </Seaterm232>
* </ApplicationData>
* <InstrumentState>
* <HardwareData DeviceType='SBE19plus' SerialNumber='01907809'>
*
*    <Manufacturer>Sea-Bird Electronics, Inc.</Manufacturer>
*
*    <FirmwareVersion>3.1.8</FirmwareVersion>
*
*    <FirmwareDate>Mar  9 2016 16:22:29</FirmwareDate>
*
*    <CommandSetVersion>1.4</CommandSetVersion>
*
*    <PCBAssembly PCBSerialNum='120721' AssemblyNum='41054J'/>
*
*    <PCBAssembly PCBSerialNum='120715' AssemblyNum='41967A'/>
*
*    <PCBAssembly PCBSerialNum='116699' AssemblyNum='41606'/>
*
*    <PCBAssembly PCBSerialNum='120719' AssemblyNum='41059D'/>
*
*    <MfgDate>28-Apr-2017</MfgDate>
*
*    <InternalSensors>
*
*       <Sensor id='Main Temperature'>
*
*          <type>temperature0</type>
*
*          <SerialNumber>01907809</SerialNumber>
*
*       </Sensor>
*
*       <Sensor id='Main Conductivity'>
*
*          <type>conductivity-0</type>
*
*          <SerialNumber>01907809</SerialNumber>
*
*       </Sensor>
*
*       <Sensor id='Main Pressure'>
*
*          <type>strain-0</type>
*
*          <SerialNumber>10586018</SerialNumber>
*
*       </Sensor>
*
*    </InternalSensors>
*
*    <ExternalSensors>
*
*       <Sensor id='volt 0'>
*
*          <type>pH</type>
*
*          <SerialNumber>27-0363</SerialNumber>
*
*       </Sensor>
*
*       <Sensor id='volt 1'>
*
*          <type>ORP</type>
*
*          <SerialNumber>27-0363</SerialNumber>
*
*       </Sensor>
*
*       <Sensor id='volt 2'>
*
*          <type>OXY</type>
*
*          <SerialNumber>43-0434</SerialNumber>
*
*       </Sensor>
*
*       <Sensor id='volt 3'>
*
*          <type>PAR</type>
*
*          <SerialNumber>1122</SerialNumber>
*
*       </Sensor>
*
*       <Sensor id='volt 4'>
*
*          <type>ECO AFL/FL</type>
*
*          <SerialNumber>FLNTURT-2496</SerialNumber>
*
*       </Sensor>
*
*       <Sensor id='volt 5'>
*
*          <type>ECO-NTU</type>
*
*          <SerialNumber>FLNTURT-2496</SerialNumber>
*
*       </Sensor>
*
*       <Sensor id='serial'>
*
*          <type>not assigned</type>
*
*          <SerialNumber>not assigned</SerialNumber>
*
*       </Sensor>
*
*    </ExternalSensors>
*
* </HardwareData>
* <StatusData DeviceType='SBE19plus' SerialNumber='01907809'>
*
*    <DateTime>2024-08-20T14:03:12</DateTime>
*
*    <LoggingState>not logging</LoggingState>
*
*    <EventSummary numEvents='0'/>
*
*    <Power>
*
*       <vMain>12.4</vMain>
*
*       <vLith>8.3</vLith>
*
*       <iMain>63.1</iMain>
*
*       <iPump>55.3</iPump>
*
*       <iExt01>20.9</iExt01>
*
*       <iExt2345>39.8</iExt2345>
*
*    </Power>
*
*    <MemorySummary>
*
*       <Bytes>194235</Bytes>
*
*       <Samples>8445</Samples>
*
*       <SamplesFree>2852343</SamplesFree>
*
*       <SampleLength>23</SampleLength>
*
*       <Profiles>7</Profiles>
*
*    </MemorySummary>
*
* </StatusData>
* <ConfigurationData DeviceType='SBE19plus' SerialNumber='01907809'>
*
*    <ProfileMode>
*
*       <ScansToAverage>1</ScansToAverage>
*
*       <MinimumCondFreq>0</MinimumCondFreq>
*
*       <PumpDelay>45</PumpDelay>
*
*       <AutoRun>no</AutoRun>
*
*       <IgnoreSwitch>no</IgnoreSwitch>
*
*    </ProfileMode>
*
*    <Battery>
*
*       <Type>alkaline</Type>
*
*       <CutOff>7.5</CutOff>
*
*    </Battery>
*
*    <DataChannels>
*
*       <ExtVolt0>yes</ExtVolt0>
*
*       <ExtVolt1>yes</ExtVolt1>
*
*       <ExtVolt2>yes</ExtVolt2>
*
*       <ExtVolt3>yes</ExtVolt3>
*
*       <ExtVolt4>yes</ExtVolt4>
*
*       <ExtVolt5>yes</ExtVolt5>
*
*       <SBE38>no</SBE38>
*
*       <WETLABS>no</WETLABS>
*
*       <OPTODE>no</OPTODE>
*
*       <SBE63>no</SBE63>
*
*       <SeaFET>no</SeaFET>
*
*       <GTD>no</GTD>
*
*    </DataChannels>
*
*    <EchoCharacters>yes</EchoCharacters>
*
*    <OutputExecutedTag>yes</OutputExecutedTag>
*
*    <OutputFormat>raw HEX</OutputFormat>
*
* </ConfigurationData>
* <CalibrationCoefficients DeviceType='SBE19plus' SerialNumber='01907809'>
*
*    <Calibration format='TEMP1' id='Main Temperature'>
*
*       <SerialNum>01907809</SerialNum>
*
*       <CalDate>31-Jan-23</CalDate>
*
*       <TA0>1.218232e-03</TA0>
*
*       <TA1>2.815090e-04</TA1>
*
*       <TA2>-1.578887e-06</TA2>
*
*       <TA3>1.972343e-07</TA3>
*
*       <TOFFSET>0.000000e+00</TOFFSET>
*
*    </Calibration>
*
*    <Calibration format='WBCOND0' id='Main Conductivity'>
*
*       <SerialNum>01907809</SerialNum>
*
*       <CalDate>31-Jan-23</CalDate>
*
*       <G>-1.005652e+00</G>
*
*       <H>1.267963e-01</H>
*
*       <I>-1.561708e-04</I>
*
*       <J>2.645944e-05</J>
*
*       <CPCOR>-9.570000e-08</CPCOR>
*
*       <CTCOR>3.250000e-06</CTCOR>
*
*       <CSLOPE>1.000000e+00</CSLOPE>
*
*    </Calibration>
*
*    <Calibration format='STRAIN0' id='Main Pressure'>
*
*       <SerialNum>10586018</SerialNum>
*
*       <CalDate>20-Jan-23</CalDate>
*
*       <PA0>4.416439e-02</PA0>
*
*       <PA1>4.850502e-04</PA1>
*
*       <PA2>-3.090426e-12</PA2>
*
*       <PTCA0>5.254757e+05</PTCA0>
*
*       <PTCA1>1.050255e+01</PTCA1>
*
*       <PTCA2>-2.922435e-01</PTCA2>
*
*       <PTCB0>2.516687e+01</PTCB0>
*
*       <PTCB1>3.750000e-04</PTCB1>
*
*       <PTCB2>0.000000e+00</PTCB2>
*
*       <PTEMPA0>-5.470820e+01</PTEMPA0>
*
*       <PTEMPA1>5.485421e+01</PTEMPA1>
*
*       <PTEMPA2>-3.446578e-01</PTEMPA2>
*
*       <POFFSET>8.500000e-01</POFFSET>
*
*       <PRANGE>1.600000e+02</PRANGE>
*
*    </Calibration>
*
*    <Calibration format='VOLT0' id='Volt 0'>
*
*       <OFFSET>-4.920000e-02</OFFSET>
*
*       <SLOPE>1.248122e+00</SLOPE>
*
*    </Calibration>
*
*    <Calibration format='VOLT0' id='Volt 1'>
*
*       <OFFSET>-4.784000e-02</OFFSET>
*
*       <SLOPE>1.248871e+00</SLOPE>
*
*    </Calibration>
*
*    <Calibration format='VOLT0' id='Volt 2'>
*
*       <OFFSET>-4.864632e-02</OFFSET>
*
*       <SLOPE>1.248714e+00</SLOPE>
*
*    </Calibration>
*
*    <Calibration format='VOLT0' id='Volt 3'>
*
*       <OFFSET>-4.743790e-02</OFFSET>
*
*       <SLOPE>1.248571e+00</SLOPE>
*
*    </Calibration>
*
*    <Calibration format='VOLT0' id='Volt 4'>
*
*       <OFFSET>-4.671263e-02</OFFSET>
*
*       <SLOPE>1.248951e+00</SLOPE>
*
*    </Calibration>
*
*    <Calibration format='VOLT0' id='Volt 5'>
*
*       <OFFSET>-4.871053e-02</OFFSET>
*
*       <SLOPE>1.249136e+00</SLOPE>
*
*    </Calibration>
*
*    <Calibration format='FREQ0' id='external frequency channel'>
*
*       <EXTFREQSF>1.000014e+00</EXTFREQSF>
*
*    </Calibration>
*
* </CalibrationCoefficients>
* <EventCounters DeviceType='SBE19plus' SerialNumber='01907809'>
*
*    <EventSummary numEvents='0'/>
*
* </EventCounters></InstrumentState>
* <Headers>
*
* cast   3 19 Aug 2024 12:10:56 samples 3310 to 4111, avg = 1, stop = mag switch
*
# nquan = 15
# nvalues = 663                         
# units = specified
# name 0 = depFM: Depth [fresh water, m]
# name 1 = dz/dtM: Descent Rate [m/s]
# name 2 = sbeox0Mg/L: Oxygen, SBE 43 [mg/l]
# name 3 = sbeox0PS: Oxygen, SBE 43 [% saturation]
# name 4 = specc: Specific Conductance [uS/cm]
# name 5 = c0uS/cm: Conductivity [uS/cm]
# name 6 = flECO-AFL: Fluorescence, WET Labs ECO-AFL/FL [mg/m^3]
# name 7 = ph: pH
# name 8 = orp: Oxidation Reduction Potential [mV]
# name 9 = par/sat/log: PAR/Logarithmic, Satlantic
# name 10 = turbWETntu0: Turbidity, WET Labs ECO [NTU]
# name 11 = prdM: Pressure, Strain Gauge [db]
# name 12 = prdE: Pressure, Strain Gauge [psi]
# name 13 = tv290C: Temperature [ITS-90, deg C]
# name 14 = flag:  0.000e+00
# span 0 =     -0.708,      2.224       
# span 1 =     -0.044,      0.160       
# span 2 =     0.0076,     8.2807       
# span 3 =      0.298,     99.666       
# span 4 =      3.419,     48.839       
# span 5 =   3.283637,  47.256102       
# span 6 =    -0.0782,    96.9390       
# span 7 =      1.353,      7.314       
# span 8 = -1240.7455,   192.7527       
# span 9 = 5.2841e+01, 1.9408e+03       
# span 10 =    -1.8970,   107.3857      
# span 11 =     -0.695,      2.182      
# span 12 =     -1.008,      3.165      
# span 13 =    22.9988,    25.1083      
# span 14 = 0.0000e+00, 0.0000e+00      
# interval = seconds: 0.25
# start_time = Aug 19 2024 12:10:56 [Instrument's time stamp, header]
# bad_flag = -9.990e-29
# <Sensors count="9" >
#   <sensor Channel="1" >
#     <!-- Count, Temperature -->
#     <TemperatureSensor SensorID="58" >
#       <SerialNumber>7809</SerialNumber>
#       <CalibrationDate>31-Jan-23</CalibrationDate>
#       <A0>1.21823180e-003</A0>
#       <A1>2.81508993e-004</A1>
#       <A2>-1.57888696e-006</A2>
#       <A3>1.97234302e-007</A3>
#       <Slope>1.00000000</Slope>
#       <Offset>0.0000</Offset>
#     </TemperatureSensor>
#   </sensor>
#   <sensor Channel="2" >
#     <!-- Frequency 0, Conductivity -->
#     <ConductivitySensor SensorID="3" >
#       <SerialNumber>7809</SerialNumber>
#       <CalibrationDate>31-Jan-23</CalibrationDate>
#       <UseG_J>1</UseG_J>
#       <!-- Cell const and series R are applicable only for wide range sensors. -->
#       <SeriesR>0.0000</SeriesR>
#       <CellConst>2000.0000</CellConst>
#       <ConductivityType>0</ConductivityType>
#       <Coefficients equation="0" >
#         <A>0.00000000e+000</A>
#         <B>0.00000000e+000</B>
#         <C>0.00000000e+000</C>
#         <D>0.00000000e+000</D>
#         <M>0.0</M>
#         <CPcor>-9.57000000e-008</CPcor>
#       </Coefficients>
#       <Coefficients equation="1" >
#         <G>-1.00565232e+000</G>
#         <H>1.26796307e-001</H>
#         <I>-1.56170788e-004</I>
#         <J>2.64594368e-005</J>
#         <CPcor>-9.57000000e-008</CPcor>
#         <CTcor>3.2500e-006</CTcor>
#         <!-- WBOTC not applicable unless ConductivityType = 1. -->
#         <WBOTC>0.00000000e+000</WBOTC>
#       </Coefficients>
#       <Slope>1.00000000</Slope>
#       <Offset>0.00000</Offset>
#     </ConductivitySensor>
#   </sensor>
#   <sensor Channel="3" >
#     <!-- Count, Pressure, Strain Gauge -->
#     <PressureSensor SensorID="46" >
#       <SerialNumber>7809</SerialNumber>
#       <CalibrationDate>20-Jan-23</CalibrationDate>
#       <PA0>4.41643944e-002</PA0>
#       <PA1>4.85050239e-004</PA1>
#       <PA2>-3.09042623e-012</PA2>
#       <PTEMPA0>-5.47081996e+001</PTEMPA0>
#       <PTEMPA1>5.48542136e+001</PTEMPA1>
#       <PTEMPA2>-3.44657813e-001</PTEMPA2>
#       <PTCA0>5.25475731e+005</PTCA0>
#       <PTCA1>1.05025484e+001</PTCA1>
#       <PTCA2>-2.92243463e-001</PTCA2>
#       <PTCB0>2.51668750e+001</PTCB0>
#       <PTCB1>3.75000000e-004</PTCB1>
#       <PTCB2>0.00000000e+000</PTCB2>
#       <Offset>0.000000</Offset>
#     </PressureSensor>
#   </sensor>
#   <sensor Channel="4" >
#     <!-- A/D voltage 0, Oxygen, SBE 43 -->
#     <OxygenSensor SensorID="38" >
#       <SerialNumber>0434</SerialNumber>
#       <CalibrationDate>18-Feb-23</CalibrationDate>
#       <Use2007Equation>1</Use2007Equation>
#       <CalibrationCoefficients equation="0" >
#         <!-- Coefficients for Owens-Millard equation. -->
#         <Boc>0.0000</Boc>
#         <Soc>0.0000e+000</Soc>
#         <offset>0.0000</offset>
#         <Pcor>0.00e+000</Pcor>
#         <Tcor>0.0000</Tcor>
#         <Tau>0.0</Tau>
#       </CalibrationCoefficients>
#       <CalibrationCoefficients equation="1" >
#         <!-- Coefficients for Sea-Bird equation - SBE calibration in 2007 and later. -->
#         <Soc>5.1878e-001</Soc>
#         <offset>-0.5046</offset>
#         <A>-4.2788e-003</A>
#         <B> 1.5372e-004</B>
#         <C>-2.1853e-006</C>
#         <D0> 2.5826e+000</D0>
#         <D1> 1.92634e-004</D1>
#         <D2>-4.64803e-002</D2>
#         <E> 3.6000e-002</E>
#         <Tau20> 0.9900</Tau20>
#         <H1>-3.3000e-002</H1>
#         <H2> 5.0000e+003</H2>
#         <H3> 1.4500e+003</H3>
#       </CalibrationCoefficients>
#     </OxygenSensor>
#   </sensor>
#   <sensor Channel="5" >
#     <!-- A/D voltage 1, PAR/Logarithmic, Satlantic -->
#     <PARLog_SatlanticSensor SensorID="76" >
#       <SerialNumber>1122</SerialNumber>
#       <CalibrationDate>08-Sep-2021</CalibrationDate>
#       <a0>9.6751e-001</a0>
#       <a1>8.0992e-001</a1>
#       <Im>1.3589e+000</Im>
#       <Multiplier>1.0000e+000</Multiplier>
#     </PARLog_SatlanticSensor>
#   </sensor>
#   <sensor Channel="6" >
#     <!-- A/D voltage 2, pH -->
#     <pH_Sensor SensorID="43" >
#       <SerialNumber>0363</SerialNumber>
#       <CalibrationDate>28-Feb-23</CalibrationDate>
#       <Slope>4.7364</Slope>
#       <Offset>2.5433</Offset>
#     </pH_Sensor>
#   </sensor>
#   <sensor Channel="7" >
#     <!-- A/D voltage 3, Oxidation Reduction Potential -->
#     <OxidationReductionPotentialSensor SensorID="41" >
#       <SerialNumber>0363</SerialNumber>
#       <CalibrationDate>28-Feb-23</CalibrationDate>
#       <B>2.499480</B>
#       <M>-0.496195</M>
#       <Offset>0.0</Offset>
#     </OxidationReductionPotentialSensor>
#   </sensor>
#   <sensor Channel="8" >
#     <!-- A/D voltage 4, Fluorometer, WET Labs ECO-AFL/FL -->
#     <FluoroWetlabECO_AFL_FL_Sensor SensorID="20" >
#       <SerialNumber>FLNTURT-2496</SerialNumber>
#       <CalibrationDate>02-Sep-2021</CalibrationDate>
#       <ScaleFactor>4.80000000e+001</ScaleFactor>
#       <!-- Dark output -->
#       <Vblank>0.0550</Vblank>
#     </FluoroWetlabECO_AFL_FL_Sensor>
#   </sensor>
#   <sensor Channel="9" >
#     <!-- A/D voltage 5, Turbidity Meter, WET Labs, ECO-NTU -->
#     <TurbidityMeter SensorID="67" >
#       <SerialNumber>FLNTURT--2496</SerialNumber>
#       <CalibrationDate>02-Sep-2021</CalibrationDate>
#       <ScaleFactor>197.000000</ScaleFactor>
#       <!-- Dark output -->
#       <DarkVoltage>0.070000</DarkVoltage>
#     </TurbidityMeter>
#   </sensor>
# </Sensors>
# datcnv_date = Aug 20 2024 14:15:19, 7.26.7.129 [datcnv_vars = 14]
# datcnv_in = C:\R\Reservoirs\Data\DataNotYetUploadedToEDI\Raw_CTD\RawDownloads\081924_fcr10_S7809003.hex C:\R\Reservoirs\Data\DataNotYetUploadedToEDI\Raw_CTD\RawDownloads\SBE19plusV2_7809_start20230701.xmlcon
# datcnv_skipover = 0
# datcnv_ox_hysteresis_correction = yes
# datcnv_ox_tau_correction = yes
# filter_date = Aug 20 2024 14:16:22, 7.26.7.129
# filter_in = C:\R\Reservoirs\Data\DataNotYetUploadedToEDI\Raw_CTD\RawDownloads\081924_fcr10_S7809003.cnv
# filter_low_pass_tc_A = 0.030
# filter_low_pass_tc_B = 0.150
# filter_low_pass_A_vars = sbeox0Mg/L prdM prdE tv290C
# filter_low_pass_B_vars = depFM dz/dtM sbeox0PS specc c0uS/cm flECO-AFL ph orp par/sat/log turbWETntu0
# alignctd_date = Aug 20 2024 14:17:23, 7.26.7.129
# alignctd_in = C:\R\Reservoirs\Data\DataNotYetUploadedToEDI\Raw_CTD\RawDownloads\081924_fcr10_S7809003.cnv
# alignctd_adv = dz/dtM 1.000, sbeox0PS 1.000, specc 1.000, c0uS/cm 1.000, flECO-AFL 1.000, ph 1.000, orp 1.000, turbWETntu0 1.000                                                                                                   
# file_type = ascii
*END*
     -0.708 7.9085e-17     7.3935     86.224      3.576   3.433547    -0.0593      3.920 -1240.7455 4.2230e+02     1.7029     -0.694     -1.007    22.9988 0.0000e+00
     -0.708 8.6899e-16     7.3949     86.233      3.561   3.419712    -0.0760      3.344 -1240.7455 5.6370e+02     1.7024     -0.695     -1.008    23.0000 0.0000e+00
     -0.708 9.5589e-15     7.3962     86.229      3.535   3.394227    -0.0713      2.953 -1240.7455 7.3725e+02     1.7025     -0.695     -1.008    23.0017 0.0000e+00
     -0.708 1.0515e-13     7.3955     86.213      3.518   3.378796    -0.0609      2.853 -1240.7455 1.1064e+03     1.1929     -0.695     -1.008    23.0028 0.0000e+00
     -0.708 1.1566e-12     7.3943     86.200      3.498   3.359834    -0.0585      2.923 -1240.7455 1.4241e+03     0.2883     -0.694     -1.007    23.0038 0.0000e+00
     -0.708 1.2723e-11     7.3968     86.182      3.493   3.354993    -0.0591      3.051 -1240.7454 9.4873e+02    -0.1490     -0.694     -1.007    23.0046 0.0000e+00
     -0.708 1.3995e-10     7.3960     86.165      3.523   3.383610    -0.0520      3.183 -1240.7449 4.0330e+02    -0.1319     -0.694     -1.007    23.0053 0.0000e+00
     -0.708 1.5395e-09     7.3933     86.160      3.528   3.389107    -0.0472      3.303 -1240.7385 2.9441e+02    -0.1195     -0.694     -1.007    23.0068 0.0000e+00
     -0.708 1.6934e-08     7.3929     86.151      3.496   3.358108    -0.0509      3.250 -1240.6683 2.3681e+02    -0.0337     -0.694     -1.007    23.0094 0.0000e+00
     -0.708 1.8627e-07     7.3905     86.131      3.463   3.325542    -0.0551      2.734 -1239.8959 1.9826e+02     0.0855     -0.694     -1.007    23.0122 0.0000e+00
     -0.707 1.8627e-07     7.3878     86.124      3.449   3.312088    -0.0570      1.540 -1231.3994 1.8958e+02     0.0928     -0.693     -1.006    23.0142 0.0000e+00
     -0.707 1.6934e-08     7.3887     86.150      3.459   3.322141    -0.0570      1.353 -1137.9379 2.1463e+02     0.0208     -0.694     -1.006    23.0148 0.0000e+00
     -0.707 1.5395e-09     7.3877     86.194      3.457   3.320398    -0.0623      3.722 -1023.3401 2.5157e+02    -0.1025     -0.694     -1.006    23.0155 0.0000e+00
     -0.708 1.3995e-10     7.3853     86.223      3.426   3.291018    -0.0548      6.232 -1077.4588 2.7129e+02    -0.1689     -0.694     -1.007    23.0168 0.0000e+00
     -0.708 1.2723e-11     7.3832     86.248      3.419   3.283637    -0.0336      6.986 -1196.9765 2.7385e+02    -0.1664     -0.693     -1.007    23.0188 0.0000e+00
     -0.708 1.1567e-12     7.3856     86.271      3.430   3.294500    -0.0395      6.805 -1236.7665 2.6812e+02    -0.2094     -0.694     -1.006    23.0214 0.0000e+00
     -0.708 1.0544e-13     7.3912     86.292      3.431   3.295667    -0.0589      6.440 -1240.3837 2.5968e+02    -0.2113     -0.695     -1.008    23.0239 0.0000e+00
     -0.708 1.2731e-14     7.3916     86.309      3.433   3.297756    -0.0597      6.152 -1240.7126 2.6373e+02    -0.1203     -0.694     -1.007    23.0260 0.0000e+00
     -0.708 3.5760e-14     7.3942     86.312      3.456   3.319754    -0.0580      5.974 -1240.7425 3.7224e+02    -0.0997     -0.694     -1.007    23.0267 0.0000e+00
     -0.708 3.8388e-13     7.3963     86.316      3.510   3.371603    -0.0712      5.878 -1240.7453 6.0568e+02    -0.2009     -0.694     -1.007    23.0268 0.0000e+00
     -0.708 4.2219e-12     7.3977     86.326      3.558   3.417883    -0.0782      5.838 -1240.7455 7.8182e+02    -0.2510     -0.694     -1.006    23.0268 0.0000e+00
     -0.708 4.6441e-11     7.4004     86.335      3.576   3.435883    -0.0595      5.825 -1240.7455 8.2164e+02    -0.1926     -0.694     -1.007    23.0269 0.0000e+00
     -0.708 5.1085e-10     7.3992     86.365      3.604   3.462545    -0.0441      5.820 -1240.7455 8.0839e+02    -0.1106     -0.695     -1.008    23.0270 0.0000e+00
     -0.708 5.6193e-09     7.3993     86.429      3.629   3.486862    -0.0514      5.818 -1240.7455 7.9913e+02    -0.0795     -0.695     -1.008    23.0275 0.0000e+00
     -0.708 6.1812e-08     7.4011     86.508      3.619   3.476513    -0.0728      5.820 -1240.7455 8.0993e+02    -0.1236     -0.695     -1.008    23.0293 0.0000e+00
     -0.708 6.7994e-07     7.4001     86.604      3.605   3.464112    -0.0775      5.823 -1240.7453 8.4033e+02    -0.1308     -0.695     -1.008    23.0309 0.0000e+00
     -0.708      0.000     7.4018     86.734      3.605   3.463610    -0.0504      5.827 -1240.7432 8.7759e+02    -0.1325     -0.695     -1.008    23.0328 0.0000e+00
     -0.708      0.000     7.4088     86.994      3.612   3.470442    -0.0034      5.824 -1240.7204 9.2062e+02    -0.2473     -0.695     -1.008    23.0339 0.0000e+00
     -0.708      0.001     7.4141     87.518      3.690   3.546715     0.4005      5.832 -1240.4690 9.8809e+02    -0.6984     -0.695     -1.008    23.0370 0.0000e+00
     -0.708      0.005     7.4222     88.248      4.422   4.259129     1.1621      5.906 -1237.7043 1.0467e+03    -1.4535     -0.694     -1.007    23.0383 0.0000e+00
     -0.708      0.015     7.4315     89.066      8.741   8.473250     1.5810      5.996 -1207.2918 1.0318e+03    -1.8970     -0.694     -1.007    23.0415 0.0000e+00
     -0.708      0.030     7.4456     89.917     18.638  18.189238     1.6368      6.007  -872.7545 8.3309e+02    -1.8246     -0.695     -1.008    23.0398 0.0000e+00
     -0.704      0.050     7.4930     90.657     30.700  30.143443     1.9622      5.988  -261.8630 5.1725e+02    -0.3043     -0.694     -1.007    23.0479 0.0000e+00
     -0.691      0.075     7.5632     91.153     39.318  38.806570     2.5768      5.996    65.9422 3.5478e+02     2.5140     -0.683     -0.989    23.0442 0.0000e+00
     -0.667      0.103     7.6094     91.428     42.233  41.861303     2.9258      6.011    89.1447 3.4203e+02     4.1036     -0.656     -0.952    23.1771 0.0000e+00
     -0.635      0.129     7.6316     91.832     42.296  42.078654     2.9613      6.025    88.1958 3.4586e+02     4.2954     -0.626     -0.908    23.5957 0.0000e+00
     -0.595      0.149     7.6321     92.420     42.158  42.069462     3.0222      6.046    89.6597 3.5253e+02     4.6616     -0.587     -0.851    24.0276 0.0000e+00
     -0.550      0.160     7.6358     92.802     42.003  42.004230     3.1534      6.074    93.8527 3.5938e+02     5.3205     -0.538     -0.781    24.3380 0.0000e+00
     -0.503      0.158     7.6089     93.077     41.874  41.924754     3.2411      6.103    95.9582 3.6885e+02     5.6697     -0.494     -0.716    24.5694 0.0000e+00
     -0.457      0.145     7.6071     93.375     41.797  41.870219     3.2680      6.129    95.4143 3.7912e+02     5.7070     -0.446     -0.648    24.7438 0.0000e+00
     -0.414      0.125     7.6673     93.569     41.770  41.852626     3.2697      6.153    96.8270 3.8219e+02     5.6682     -0.401     -0.582    24.9064 0.0000e+00
     -0.383      0.105     7.6645     93.659     41.754  41.838986     3.2782      6.172   102.9721 3.8026e+02     5.5431     -0.370     -0.536    25.0159 0.0000e+00
     -0.367      0.090     7.6768     93.693     41.749  41.832231     3.3124      6.179   109.2290 3.9393e+02     5.4237     -0.356     -0.517    25.0641 0.0000e+00
     -0.359      0.081     7.7094     93.690     41.756  41.834431     3.3502      6.183   110.7890 5.7524e+02     5.4197     -0.354     -0.514    25.0846 0.0000e+00
     -0.346      0.078     7.7187     93.675     41.729  41.802110     3.3948      6.191   110.6493 1.0873e+03     5.4605     -0.344     -0.499    25.0953 0.0000e+00
     -0.324      0.080     7.7263     93.695     41.690  41.758761     3.5350      6.202   111.3253 1.6431e+03     5.4389     -0.320     -0.464    25.0980 0.0000e+00
     -0.296      0.083     7.7278     93.727     41.689  41.754570     3.7633      6.213   110.6163 1.8759e+03     5.3980     -0.290     -0.421    25.0944 0.0000e+00
     -0.268      0.085     7.7299     93.758     41.692  41.751429     3.8917      6.221   109.2175 1.9003e+03     5.3758     -0.262     -0.380    25.0872 0.0000e+00
     -0.245      0.081     7.7256     93.750     41.671  41.720774     3.9134      6.226   109.8144 1.8996e+03     5.4090     -0.239     -0.345    25.0801 0.0000e+00
     -0.227      0.073     7.7301     93.385     41.661  41.701253     3.9591      6.228   111.8108 1.8936e+03     5.4580     -0.221     -0.320    25.0760 0.0000e+00
     -0.212      0.064     7.7344     92.262     41.673  41.705788     4.0367      6.229   113.0502 1.8655e+03     5.4219     -0.207     -0.301    25.0738 0.0000e+00
     -0.199      0.055     7.7344     90.376     41.685  41.712124     4.0783      6.234   112.6685 1.6570e+03     5.3477     -0.195     -0.282    25.0660 0.0000e+00
     -0.185      0.048     7.7467     88.037     41.690  41.714388     4.0959      6.240   112.0993 1.2344e+03     5.3471     -0.181     -0.263    25.0531 0.0000e+00
     -0.172      0.043     7.7356     85.525     41.709  41.733151     4.1994      6.245   110.9868 7.8832e+02     5.4829     -0.169     -0.245    25.0418 0.0000e+00
     -0.161      0.037     7.6423     83.031     41.724  41.748577     4.3801      6.251   108.2515 4.4121e+02     5.6571     -0.158     -0.228    25.0320 0.0000e+00
     -0.152      0.030     7.4757     80.817     41.685  41.710506     4.4745      6.257   106.2147 2.8592e+02     5.7109     -0.148     -0.215    25.0241 0.0000e+00
     -0.146      0.023     7.2742     79.183     41.627  41.653646     4.4589      6.264   105.8050 2.6676e+02     5.6554     -0.142     -0.206    25.0213 0.0000e+00
     -0.142      0.017     7.0640     78.304     41.604  41.632302     4.3912      6.273   105.5349 2.8307e+02     5.5679     -0.139     -0.202    25.0226 0.0000e+00
     -0.140      0.012     6.8492     78.089     41.614  41.642836     4.2887      6.283   104.7562 5.6673e+02     5.5062     -0.137     -0.199    25.0238 0.0000e+00
     -0.137      0.009     6.6566     78.171     41.625  41.654086     4.2266      6.289   104.3912 1.1030e+03     5.4899     -0.134     -0.195    25.0248 0.0000e+00
     -0.135      0.008     6.5159     78.241     41.612  41.641385     4.2063      6.287   104.6496 1.3548e+03     5.4732     -0.132     -0.192    25.0265 0.0000e+00
     -0.134      0.009     6.4440     78.219     41.586  41.616207     4.1763      6.276   104.2666 1.3731e+03     5.4407     -0.131     -0.189    25.0289 0.0000e+00
     -0.134      0.010     6.4406     78.013     41.571  41.603522     4.0221      6.266   103.6326 1.4405e+03     5.4392     -0.132     -0.191    25.0296 0.0000e+00
     -0.132      0.012     6.4579     77.467     41.582  41.614957     3.7487      6.261   103.5231 1.3083e+03     5.4554     -0.133     -0.192    25.0293 0.0000e+00
     -0.126      0.014     6.4628     76.610     41.595  41.627537     3.5930      6.261   103.4581 1.2127e+03     5.4656     -0.124     -0.180    25.0297 0.0000e+00
     -0.121      0.016     6.4627     75.642     41.596  41.628691     3.5786      6.266   103.1909 1.3355e+03     5.4599     -0.117     -0.170    25.0305 0.0000e+00
     -0.117      0.016     6.4532     74.719     41.594  41.628914     3.7576      6.274   102.8734 1.3059e+03     5.4207     -0.116     -0.168    25.0337 0.0000e+00
     -0.113      0.014     6.4071     73.929     41.590  41.630224     4.1179      6.283   102.6311 1.2119e+03     5.4353     -0.110     -0.161    25.0350 0.0000e+00
     -0.108      0.010     6.3272     73.289     41.597  41.644543     4.3146      6.293   102.4978 1.3551e+03     5.5001     -0.104     -0.152    25.0335 0.0000e+00
     -0.106      0.007     6.2445     72.823     41.620  41.675121     4.3294      6.303   102.5523 1.5912e+03     5.5215     -0.102     -0.148    25.0332 0.0000e+00
     -0.106      0.005     6.1645     72.641     41.621  41.682616     4.2893      6.312   102.7740 1.5243e+03     5.4885     -0.103     -0.150    25.0353 0.0000e+00
     -0.107      0.003     6.0988     72.744     41.605  41.671704     4.1952      6.321   102.9414 1.2419e+03     5.4426     -0.105     -0.152    25.0417 0.0000e+00
     -0.107      0.002     6.0465     73.035     41.598  41.670130     4.1494      6.329   103.0280 1.1325e+03     5.4450     -0.105     -0.152    25.0510 0.0000e+00
     -0.106      0.002     6.0000     73.480     41.587  41.663590     4.1601      6.337   103.0466 1.1464e+03     5.4486     -0.104     -0.151    25.0606 0.0000e+00
     -0.104      0.003     5.9849     74.041     41.576  41.656095     4.1822      6.346   103.0811 1.2574e+03     5.4180     -0.102     -0.148    25.0686 0.0000e+00
     -0.103      0.003     5.9978     74.639     41.560  41.642989     4.2175      6.356   103.2727 1.4633e+03     5.3824     -0.101     -0.146    25.0745 0.0000e+00
     -0.102      0.003     6.0206     75.201     41.547  41.632062     4.2369      6.367   103.4707 1.3885e+03     5.3599     -0.100     -0.145    25.0797 0.0000e+00
     -0.102      0.002     6.0572     75.642     41.565  41.650922     4.2504      6.379   103.6671 1.2755e+03     5.4191     -0.100     -0.145    25.0851 0.0000e+00
     -0.101      0.001     6.1066     75.911     41.594  41.680610     4.2810      6.390   103.9261 1.3893e+03     5.5175     -0.100     -0.144    25.0905 0.0000e+00
     -0.101      0.000     6.1566     76.042     41.585  41.673687     4.3157      6.401   104.1940 1.3808e+03     5.5254     -0.100     -0.144    25.0947 0.0000e+00
     -0.101      0.000     6.2053     76.088     41.540  41.630683     4.3278      6.412   104.4968 1.2528e+03     5.4458     -0.100     -0.144    25.0970 0.0000e+00
     -0.101      0.001     6.2445     76.108     41.513  41.604932     4.3109      6.421   104.8333 1.2584e+03     5.3746     -0.100     -0.144    25.0973 0.0000e+00
     -0.101      0.001     6.2641     76.133     41.524  41.616210     4.3038      6.430   105.1662 1.3298e+03     5.3823     -0.100     -0.145    25.0973 0.0000e+00
     -0.101      0.002     6.2737     76.127     41.548  41.640115     4.3162      6.438   105.6823 1.2094e+03     5.4370     -0.100     -0.144    25.0994 0.0000e+00
     -0.100      0.005     6.2754     76.075     41.548  41.640086     4.3279      6.439   106.5997 1.1235e+03     5.4890     -0.099     -0.143    25.1027 0.0000e+00
     -0.099      0.009     6.2745     76.026     41.523  41.615861     4.3279      6.432   107.6540 1.1619e+03     5.4981     -0.097     -0.141    25.1057 0.0000e+00
     -0.098      0.014     6.2792     76.014     41.508  41.601080     4.3165      6.419   108.7071 1.1053e+03     5.4450     -0.096     -0.139    25.1060 0.0000e+00
     -0.096      0.018     6.2796     75.992     41.499  41.588308     4.3906      6.406   109.8682 1.1540e+03     5.4279     -0.095     -0.138    25.1039 0.0000e+00
     -0.090      0.019     6.2729     75.818     41.506  41.588363     4.5572      6.398   110.5945 1.2281e+03     5.4617     -0.091     -0.131    25.1031 0.0000e+00
     -0.080      0.017     6.2675     75.400     41.524  41.601728     4.6504      6.397   110.7770 1.0543e+03     5.4772     -0.077     -0.112    25.1055 0.0000e+00
     -0.070      0.014     6.2672     74.869     41.547  41.622967     4.6520      6.399   111.1295 8.8303e+02     5.4448     -0.066     -0.095    25.1083 0.0000e+00
     -0.067      0.010     6.2707     74.426     41.579  41.654762     4.6425      6.403   111.7581 9.6406e+02     5.4119     -0.064     -0.094    25.1032 0.0000e+00
     -0.070      0.005     6.2629     74.114     41.594  41.668819     4.6445      6.408   112.5268 1.2716e+03     5.4556     -0.068     -0.099    25.0918 0.0000e+00
     -0.074      0.001     6.2237     73.814     41.594  41.665998     4.6586      6.413   113.4543 1.5449e+03     5.4948     -0.072     -0.105    25.0854 0.0000e+00
     -0.075     -0.002     6.1715     73.362     41.554  41.620643     4.6551      6.413   114.3689 1.5496e+03     5.4760     -0.075     -0.109    25.0847 0.0000e+00
     -0.073     -0.007     6.1347     72.695     41.502  41.564698     4.5520      6.412   115.1539 1.4154e+03     5.4332     -0.073     -0.106    25.0864 0.0000e+00
     -0.070     -0.012     6.1127     71.919     41.500  41.560764     4.3778      6.411   115.6316 1.5502e+03     5.3867     -0.068     -0.099    25.0857 0.0000e+00
     -0.070     -0.017     6.0946     71.181     41.515  41.573081     4.2967      6.408   115.5841 1.7347e+03     5.3929     -0.066     -0.096    25.0804 0.0000e+00
     -0.078     -0.017     6.0612     70.618     41.533  41.586686     4.3039      6.407   115.3543 1.5295e+03     5.4391     -0.074     -0.106    25.0720 0.0000e+00
     -0.091     -0.013     6.0015     70.348     41.548  41.598317     4.2981      6.408   115.3486 1.4741e+03     5.5019     -0.089     -0.131    25.0677 0.0000e+00
     -0.102     -0.005     5.9330     70.309     41.538  41.586776     4.2766      6.409   115.6012 1.7351e+03     5.5711     -0.104     -0.153    25.0675 0.0000e+00
     -0.104      0.007     5.8698     70.283     41.526  41.574073     4.2604      6.411   116.1716 1.8939e+03     5.5921     -0.107     -0.155    25.0641 0.0000e+00
     -0.095      0.020     5.8178     70.140     41.530  41.571660     4.2684      6.412   116.8245 1.8575e+03     5.6199     -0.095     -0.138    25.0598 0.0000e+00
     -0.081      0.028     5.7980     69.840     41.529  41.557596     4.3991      6.413   117.2147 1.7949e+03     5.6335     -0.078     -0.113    25.0535 0.0000e+00
     -0.067      0.031     5.8050     69.375     41.514  41.530942     4.6250      6.416   117.3624 1.8807e+03     5.5176     -0.065     -0.094    25.0494 0.0000e+00
     -0.057      0.027     5.8051     68.919     41.493  41.503238     4.7359      6.421   117.4915 1.8542e+03     5.3805     -0.054     -0.078    25.0545 0.0000e+00
     -0.052      0.019     5.7933     68.698     41.469  41.476488     4.7324      6.430   117.8294 1.6440e+03     5.3417     -0.048     -0.069    25.0486 0.0000e+00
     -0.052      0.011     5.7741     68.716     41.455  41.461373     4.7329      6.441   118.2639 1.5015e+03     5.3561     -0.050     -0.075    25.0273 0.0000e+00
     -0.053      0.005     5.7312     68.812     41.443  41.447411     4.7669      6.454   118.4429 1.3569e+03     5.3840     -0.053     -0.078    25.0124 0.0000e+00
     -0.052      0.002     5.6841     68.826     41.432  41.434601     4.8277      6.467   118.3589 1.3836e+03     5.4060     -0.051     -0.075    25.0041 0.0000e+00
     -0.051      0.000     5.6678     68.668     41.434  41.433428     4.8608      6.478   118.5389 1.4637e+03     5.4165     -0.049     -0.071    25.0029 0.0000e+00
     -0.051     -0.003     5.6750     68.321     41.438  41.433218     4.8425      6.482   119.2428 1.2517e+03     5.4089     -0.050     -0.072    25.0026 0.0000e+00
     -0.052     -0.012     5.6883     67.794     41.442  41.432055     4.7229      6.475   119.8140 1.1842e+03     5.4167     -0.051     -0.074    24.9988 0.0000e+00
     -0.052     -0.026     5.6924     67.130     41.436  41.419362     4.5214      6.464   120.0252 1.2813e+03     5.4421     -0.051     -0.075    24.9978 0.0000e+00
     -0.054     -0.039     5.6789     66.398     41.430  41.406669     4.4035      6.455   120.3343 1.2288e+03     5.4425     -0.051     -0.073    24.9946 0.0000e+00
     -0.064     -0.044     5.6519     65.731     41.435  41.405517     4.3622      6.449   120.7981 1.1723e+03     5.4217     -0.057     -0.082    24.9884 0.0000e+00
     -0.089     -0.043     5.6067     65.317     41.435  41.405422     4.2052      6.447   121.3311 1.0254e+03     5.3958     -0.085     -0.123    24.9815 0.0000e+00
     -0.116     -0.035     5.5511     65.201     41.430  41.405516     3.9538      6.449   121.7879 8.2741e+02     5.4374     -0.121     -0.176    24.9756 0.0000e+00
     -0.128     -0.022     5.4888     65.282     41.424  41.406658     3.8279      6.454   121.8473 1.0438e+03     5.4801     -0.132     -0.191    24.9658 0.0000e+00
     -0.124     -0.007     5.4260     65.517     41.434  41.419245     3.8151      6.463   121.5329 1.5641e+03     5.4672     -0.123     -0.178    24.9556 0.0000e+00
     -0.113      0.008     5.3912     65.943     41.447  41.430774     3.8149      6.475   121.3419 1.6636e+03     5.4528     -0.112     -0.162    24.9551 0.0000e+00
     -0.103      0.017     5.3857     66.526     41.439  41.419120     3.8264      6.489   121.5164 1.3262e+03     5.4429     -0.099     -0.144    24.9618 0.0000e+00
     -0.096      0.018     5.3929     67.146     41.429  41.405264     3.8369      6.499   122.0951 1.2068e+03     5.4502     -0.091     -0.133    24.9745 0.0000e+00
     -0.095      0.017     5.4085     67.726     41.419  41.390169     3.8592      6.503   122.8320 1.3058e+03     5.4387     -0.093     -0.134    24.9796 0.0000e+00
     -0.096      0.020     5.4453     68.245     41.395  41.363535     3.9632      6.501   123.1126 1.3220e+03     5.4740     -0.095     -0.138    24.9742 0.0000e+00
     -0.097      0.027     5.4990     68.655     41.371  41.337100     4.1199      6.499   122.9932 1.3791e+03     5.5693     -0.096     -0.139    24.9709 0.0000e+00
     -0.092      0.040     5.5528     68.825     41.360  41.324405     4.1893      6.501   122.8512 1.7329e+03     5.6345     -0.093     -0.136    24.9644 0.0000e+00
     -0.079      0.054     5.6017     68.674     41.375  41.336965     4.1941      6.505   122.7716 1.9408e+03     5.6815     -0.079     -0.116    24.9586 0.0000e+00
     -0.059      0.065     5.6445     68.259     41.408  41.362028     4.2116      6.510   122.7189 1.5527e+03     5.6605     -0.058     -0.085    24.9566 0.0000e+00
     -0.036      0.070     5.6848     67.659     41.429  41.373558     4.3844      6.518   122.6449 1.1605e+03     5.5506     -0.035     -0.051    24.9522 0.0000e+00
     -0.012      0.067     5.7024     66.936     41.414  41.349431     4.7102      6.529   122.6512 1.0714e+03     5.4451     -0.011     -0.016    24.9515 0.0000e+00
      0.009      0.057     5.6860     66.192     41.394  41.324158     4.8876      6.541   122.7093 1.0722e+03     5.4099      0.012      0.017    24.9509 0.0000e+00
      0.024      0.044     5.6510     65.584     41.394  41.321852     4.8988      6.553   122.7451 1.1112e+03     5.4331      0.026      0.037    24.9402 0.0000e+00
      0.030      0.031     5.6013     65.228     41.397  41.321539     4.7707      6.564   122.8251 1.1585e+03     5.4523      0.030      0.044    24.9264 0.0000e+00
      0.031      0.021     5.5403     65.104     41.400  41.320367     4.5208      6.574   122.9896 1.1336e+03     5.4374      0.030      0.044    24.9158 0.0000e+00
      0.031      0.015     5.4737     65.083     41.390  41.307672     4.3818      6.584   123.2704 1.1033e+03     5.4231      0.030      0.043    24.9094 0.0000e+00
      0.033      0.013     5.4194     64.996     41.378  41.294968     4.3635      6.594   123.5524 1.2308e+03     5.4164      0.032      0.045    24.9062 0.0000e+00
      0.037      0.014     5.3916     64.776     41.376  41.293699     4.3834      6.605   123.7329 1.2964e+03     5.4242      0.035      0.051    24.9040 0.0000e+00
      0.042      0.015     5.3852     64.431     41.376  41.292335     4.4229      6.615   123.9044 1.1294e+03     5.4496      0.041      0.060    24.8990 0.0000e+00
      0.047      0.016     5.3911     63.932     41.366  41.278479     4.4415      6.624   124.0767 9.6528e+02     5.4502      0.046      0.067    24.8925 0.0000e+00
      0.051      0.016     5.3853     63.315     41.344  41.253093     4.4335      6.634   124.0952 9.1657e+02     5.4310      0.051      0.073    24.8927 0.0000e+00
      0.055      0.016     5.3644     62.675     41.333  41.239257     4.4170      6.643   123.9567 1.0079e+03     5.4910      0.054      0.078    24.8953 0.0000e+00
      0.058      0.016     5.3391     62.061     41.333  41.238112     4.4169      6.650   124.0372 1.1215e+03     5.6292      0.057      0.082    24.8931 0.0000e+00
      0.061      0.017     5.2973     61.503     41.336  41.239246     4.4329      6.655   124.4653 1.1595e+03     5.6674      0.060      0.087    24.8870 0.0000e+00
      0.065      0.019     5.2422     61.029     41.351  41.252969     4.4522      6.659   125.0033 1.2845e+03     5.6790      0.063      0.092    24.8828 0.0000e+00
      0.069      0.019     5.1886     60.621     41.377  41.277095     4.4748      6.662   125.4655 1.3019e+03     5.7356      0.066      0.097    24.8818 0.0000e+00
      0.076      0.019     5.1377     60.259     41.380  41.277080     4.4987      6.664   125.6658 1.0236e+03     5.7370      0.075      0.109    24.8804 0.0000e+00
      0.084      0.018     5.0893     59.925     41.361  41.252786     4.5158      6.667   125.7041 8.4978e+02     5.7298      0.085      0.123    24.8778 0.0000e+00
      0.089      0.017     5.0525     59.621     41.351  41.237218     4.5323      6.670   125.8427 1.0088e+03     5.6830      0.088      0.127    24.8755 0.0000e+00
      0.091      0.014     5.0188     59.383     41.334  41.215773     4.5395      6.675   126.1367 1.1699e+03     5.5812      0.089      0.129    24.8731 0.0000e+00
      0.092      0.011     4.9894     59.191     41.304  41.183889     4.5538      6.680   126.4197 1.1240e+03     5.4893      0.090      0.131    24.8704 0.0000e+00
      0.095      0.009     4.9637     59.011     41.292  41.169034     4.5965      6.686   126.5112 1.0131e+03     5.4260      0.092      0.135    24.8647 0.0000e+00
      0.098      0.008     4.9356     58.829     41.287  41.163096     4.6322      6.692   126.5552 1.1444e+03     5.4313      0.097      0.141    24.8558 0.0000e+00
      0.101      0.007     4.9189     58.642     41.301  41.175554     4.6518      6.697   126.7790 1.3762e+03     5.4507      0.100      0.145    24.8511 0.0000e+00
      0.103      0.004     4.9038     58.463     41.320  41.192734     4.6670      6.701   127.1529 1.2272e+03     5.4215      0.101      0.147    24.8490 0.0000e+00
      0.103      0.002     4.8893     58.304     41.311  41.180408     4.6749      6.705   127.6344 9.0874e+02     5.3846      0.102      0.148    24.8456 0.0000e+00
      0.103      0.000     4.8750     58.157     41.287  41.153454     4.6800      6.709   128.1264 8.1227e+02     5.4148      0.102      0.148    24.8435 0.0000e+00
      0.102      0.000     4.8589     58.029     41.257  41.120690     4.6957      6.712   128.3700 8.8704e+02     5.5134      0.100      0.145    24.8426 0.0000e+00
      0.100      0.000     4.8436     57.935     41.241  41.101590     4.7067      6.713   128.4281 9.1598e+02     5.6214      0.098      0.142    24.8407 0.0000e+00
      0.100      0.001     4.8315     57.846     41.254  41.112915     4.6882      6.716   128.4856 1.0230e+03     5.7284      0.097      0.141    24.8359 0.0000e+00
      0.102      0.003     4.8197     57.731     41.272  41.130685     4.6712      6.721   128.5484 1.1334e+03     5.8170      0.100      0.146    24.8303 0.0000e+00
      0.104      0.003     4.8078     57.574     41.267  41.126045     4.6768      6.726   128.7571 9.3011e+02     5.8734      0.102      0.148    24.8280 0.0000e+00
      0.105      0.003     4.8021     57.389     41.263  41.120280     4.7143      6.732   129.1157 7.7266e+02     5.8298      0.103      0.149    24.8258 0.0000e+00
      0.106      0.003     4.7956     57.204     41.271  41.124444     4.7830      6.738   129.3564 7.7054e+02     5.6305      0.104      0.151    24.8227 0.0000e+00
      0.106      0.002     4.7868     57.027     41.263  41.112915     4.8168      6.743   129.5168 7.1011e+02     5.4107      0.104      0.151    24.8233 0.0000e+00
      0.106      0.002     4.7733     56.842     41.260  41.107808     4.8070      6.749   129.6788 7.2516e+02     5.3245      0.103      0.150    24.8246 0.0000e+00
      0.106      0.002     4.7567     56.663     41.280  41.126160     4.8558      6.755   129.7659 8.7428e+02     5.3743      0.103      0.150    24.8220 0.0000e+00
      0.107      0.002     4.7418     56.497     41.300  41.144418     4.9743      6.761   129.7961 9.3496e+02     5.4663      0.105      0.152    24.8162 0.0000e+00
      0.108      0.002     4.7286     56.337     41.295  41.138166     5.0408      6.768   129.6993 8.4714e+02     5.4807      0.106      0.155    24.8119 0.0000e+00
      0.109      0.002     4.7125     56.182     41.273  41.114028     5.0355      6.775   129.5424 7.8955e+02     5.4113      0.107      0.156    24.8096 0.0000e+00
      0.109      0.002     4.6974     56.014     41.269  41.106425     5.0343      6.781   129.5338 7.4369e+02     5.3443      0.107      0.155    24.8070 0.0000e+00
      0.110      0.002     4.6849     55.840     41.276  41.109695     5.0604      6.788   129.7665 7.4786e+02     5.3539      0.107      0.156    24.8055 0.0000e+00
      0.110      0.003     4.6707     55.682     41.260  41.090091     5.0932      6.794   130.1191 9.3176e+02     5.4586      0.107      0.156    24.8047 0.0000e+00
      0.110      0.003     4.6595     55.539     41.232  41.059795     5.1140      6.800   130.3563 1.0981e+03     5.5171      0.107      0.156    24.8021 0.0000e+00
      0.111      0.004     4.6457     55.405     41.236  41.060700     5.1129      6.805   130.5695 1.0457e+03     5.4469      0.109      0.158    24.7972 0.0000e+00
      0.113      0.005     4.6301     55.274     41.278  41.101034     5.1214      6.810   130.8039 9.4677e+02     5.3621      0.111      0.161    24.7920 0.0000e+00
      0.115      0.005     4.6185     55.144     41.473  41.293610     5.1665      6.816   130.9524 9.2152e+02     5.3799      0.112      0.163    24.7881 0.0000e+00
      0.116      0.005     4.6062     55.302     41.909  41.738988     5.2008      6.821   131.0752 9.0597e+02     5.4563      0.113      0.164    24.7851 0.0000e+00
      0.117      0.004     4.5964     57.000     42.238  42.106820     5.2118      6.825   131.0837 9.3486e+02     5.4659      0.115      0.166    24.7824 0.0000e+00
      0.118      0.003     4.5848     61.860     42.188  42.123442     5.2408      6.829   131.1414 9.1631e+02     5.4619      0.116      0.168    24.7800 0.0000e+00
      0.119      0.003     4.5750     69.695     42.008  42.003542     5.2845      6.833   131.5149 7.8755e+02     5.5110      0.117      0.169    24.7761 0.0000e+00
      0.119      0.004     4.5529     78.311     41.895  41.926582     5.3079      6.836   132.0726 9.4173e+02     5.5814      0.117      0.170    24.7743 0.0000e+00
      0.119      0.006     4.6159     85.826     41.841  41.891122     5.3158      6.837   133.4968 1.1640e+03     5.6631      0.117      0.170    24.8242 0.0000e+00
      0.120      0.009     5.0128     91.781     41.836  41.892177     5.3300      6.837   134.9673 9.5279e+02     5.6452      0.118      0.171    24.9252 0.0000e+00
      0.122      0.012     5.7418     96.174     41.825  41.875873     5.3464      6.835   134.6242 9.3719e+02     5.5023      0.120      0.174    25.0010 0.0000e+00
      0.126      0.016     6.5120     98.824     41.786  41.820923     5.3560      6.832   133.8217 1.3371e+03     5.4036      0.123      0.179    25.0395 0.0000e+00
      0.132      0.019     7.1283     99.666     41.783  41.798969     5.3624      6.830   133.6107 1.3460e+03     5.4086      0.130      0.188    25.0582 0.0000e+00
      0.137      0.021     7.6151     98.994     41.796  41.800800     5.3992      6.830   133.4489 9.4026e+02     5.4942      0.135      0.197    25.0642 0.0000e+00
      0.143      0.022     7.9887     97.497     41.778  41.779581     5.4597      6.830   133.4143 7.5905e+02     5.6187      0.140      0.204    25.0613 0.0000e+00
      0.150      0.022     8.2124     95.907     41.738  41.732815     5.4853      6.829   133.6228 7.6268e+02     5.6499      0.148      0.214    25.0397 0.0000e+00
      0.157      0.023     8.2807     94.608     41.698  41.679610     5.4851      6.824   134.0775 8.1589e+02     5.5980      0.154      0.223    25.0070 0.0000e+00
      0.162      0.024     8.2034     93.653     41.678  41.644008     5.4826      6.816   134.6099 9.6286e+02     5.6056      0.160      0.232    24.9946 0.0000e+00
      0.166      0.026     8.0543     92.963     41.672  41.619668     5.4716      6.810   135.0697 9.2304e+02     5.6736      0.163      0.236    25.0015 0.0000e+00
      0.171      0.026     7.9145     92.429     41.703  41.639157     5.4519      6.808   135.4203 7.5018e+02     5.7030      0.165      0.240    24.9903 0.0000e+00
      0.180      0.025     7.8104     91.997     41.747  41.689225     5.4267      6.809   135.5791 7.6211e+02     5.6535      0.175      0.254    24.9706 0.0000e+00
      0.190      0.022     7.7359     91.698     41.757  41.717310     5.4164      6.812   135.5277 8.5415e+02     5.5888      0.189      0.274    24.9573 0.0000e+00
      0.198      0.017     7.6865     91.565     41.747  41.724888     5.4619      6.817   135.4875 8.1213e+02     5.5697      0.196      0.284    24.9286 0.0000e+00
      0.201      0.012     7.6474     91.525     41.730  41.717409     5.5608      6.819   135.7813 7.7743e+02     5.5589      0.198      0.287    24.9067 0.0000e+00
      0.202      0.009     7.6088     91.508     41.701  41.690359     5.6206      6.818   136.4124 7.7615e+02     5.4919      0.199      0.288    24.9200 0.0000e+00
      0.199      0.008     7.5766     91.486     41.668  41.651708     5.6111      6.818   136.9239 6.5027e+02     5.4090      0.197      0.284    24.9477 0.0000e+00
      0.196      0.010     7.5673     91.450     41.658  41.630875     5.5873      6.821   137.0611 5.3043e+02     5.4097      0.190      0.276    24.9709 0.0000e+00
      0.198      0.013     7.5638     91.413     41.666  41.628859     5.5659      6.823   137.1249 5.1626e+02     5.4662      0.190      0.277    24.9820 0.0000e+00
      0.208      0.016     7.5626     91.396     41.671  41.627316     5.5520      6.826   137.3510 5.8502e+02     5.5119      0.204      0.297    24.9841 0.0000e+00
      0.217      0.018     7.5627     91.415     41.660  41.612204     5.5525      6.828   137.7302 6.7726e+02     5.5183      0.216      0.313    24.9782 0.0000e+00
      0.222      0.021     7.5603     91.418     41.626  41.573074     5.5464      6.827   138.6124 6.9205e+02     5.4748      0.218      0.316    24.9603 0.0000e+00
      0.224      0.026     7.5608     91.420     41.598  41.534996     5.5364      6.819   139.8439 7.0593e+02     5.4653      0.218      0.317    24.9468 0.0000e+00
      0.227      0.035     7.5556     91.421     41.609  41.532595     5.5406      6.811   140.4883 7.1841e+02     5.5061      0.222      0.322    24.9416 0.0000e+00
      0.232      0.045     7.5643     91.397     41.635  41.544021     5.5473      6.807   140.6392 6.6881e+02     5.5235      0.226      0.328    24.9378 0.0000e+00
      0.243      0.052     7.5612     91.343     41.647  41.546196     5.5343      6.807   140.8939 6.2940e+02     5.4706      0.231      0.335    24.9322 0.0000e+00
      0.267      0.055     7.5638     91.223     41.663  41.558869     5.5003      6.811   141.0733 6.2243e+02     5.3786      0.261      0.378    24.9205 0.0000e+00
      0.294      0.052     7.5688     91.079     41.673  41.570313     5.4845      6.817   141.0011 6.1383e+02     5.3670      0.296      0.429    24.9024 0.0000e+00
      0.310      0.044     7.5666     90.972     41.654  41.557629     5.4936      6.823   140.9679 5.7545e+02     5.4327      0.307      0.445    24.8819 0.0000e+00
      0.315      0.034     7.5689     90.919     41.624  41.532451     5.5270      6.831   141.1016 5.3993e+02     5.4897      0.310      0.450    24.8702 0.0000e+00
      0.316      0.022     7.5553     90.905     41.609  41.519767     5.5800      6.839   141.3268 5.4083e+02     5.4760      0.311      0.449    24.8666 0.0000e+00
      0.317      0.014     7.5422     90.913     41.624  41.531202     5.5945      6.846   141.6260 5.5932e+02     5.4035      0.310      0.450    24.8682 0.0000e+00
      0.318      0.013     7.5310     90.902     41.641  41.543773     5.5852      6.854   141.9661 5.5541e+02     5.3993      0.312      0.453    24.8778 0.0000e+00
      0.321      0.015     7.5265     90.829     41.646  41.544823     5.6090      6.860   142.3414 5.2608e+02     5.4602      0.315      0.455    24.8869 0.0000e+00
      0.326      0.016     7.5253     90.722     41.646  41.543889     5.6495      6.865   142.6358 5.1961e+02     5.4907      0.319      0.462    24.8887 0.0000e+00
      0.332      0.015     7.5271     90.627     41.635  41.532472     5.6660      6.870   142.7728 5.4417e+02     5.4600      0.326      0.473    24.8841 0.0000e+00
      0.338      0.014     7.5306     90.567     41.634  41.533720     5.6594      6.874   142.8799 5.7577e+02     5.3963      0.333      0.483    24.8769 0.0000e+00
      0.343      0.012     7.5225     90.542     41.657  41.558984     5.6533      6.879   142.9841 5.8907e+02     5.4034      0.338      0.490    24.8722 0.0000e+00
      0.344      0.009     7.5133     90.573     41.681  41.584065     5.6171      6.884   143.0003 5.9378e+02     5.4779      0.338      0.491    24.8701 0.0000e+00
      0.344      0.007     7.5042     90.669     41.679  41.583111     5.5458      6.888   143.0751 5.8556e+02     5.5120      0.336      0.488    24.8699 0.0000e+00
      0.344      0.007     7.4992     90.765     41.642  41.547453     5.4992      6.892   143.3727 5.5004e+02     5.4743      0.336      0.488    24.8735 0.0000e+00
      0.345      0.010     7.4964     90.833     41.626  41.533729     5.4857      6.897   143.6736 5.4241e+02     5.4316      0.338      0.490    24.8772 0.0000e+00
      0.347      0.015     7.4966     90.869     41.633  41.544114     5.5085      6.903   143.7877 5.5748e+02     5.5079      0.341      0.494    24.8776 0.0000e+00
      0.351      0.018     7.5090     90.858     41.631  41.546089     5.5502      6.908   143.8921 5.6278e+02     5.6798      0.344      0.499    24.8782 0.0000e+00
      0.358      0.020     7.5165     90.828     41.640  41.557609     5.5648      6.912   144.0751 5.7679e+02     5.7678      0.351      0.509    24.8811 0.0000e+00
      0.367      0.020     7.5210     90.819     41.639  41.556473     5.5608      6.916   144.1929 5.9236e+02     5.7177      0.361      0.522    24.8838 0.0000e+00
      0.373      0.019     7.5254     90.826     41.615  41.532354     5.5682      6.920   144.2842 6.1466e+02     5.5864      0.367      0.532    24.8873 0.0000e+00
      0.377      0.016     7.5220     90.811     41.603  41.519860     5.5953      6.925   144.4045 6.3270e+02     5.4780      0.370      0.536    24.8926 0.0000e+00
      0.379      0.012     7.5176     90.771     41.614  41.532344     5.6147      6.929   144.3575 6.5545e+02     5.5007      0.372      0.539    24.8952 0.0000e+00
      0.381      0.008     7.5172     90.733     41.635  41.556358     5.6114      6.933   144.1457 6.7551e+02     5.5535      0.374      0.542    24.8950 0.0000e+00
      0.383      0.006     7.5196     90.721     41.630  41.556357     5.5800      6.934   144.1667 6.3007e+02     5.5014      0.376      0.545    24.8944 0.0000e+00
      0.385      0.008     7.5185     90.736     41.600  41.532332     5.5259      6.933   144.5255 5.9787e+02     5.4169      0.377      0.547    24.8939 0.0000e+00
      0.385      0.011     7.5138     90.769     41.582  41.519742     5.4982      6.932   144.9565 6.1990e+02     5.3861      0.377      0.547    24.8958 0.0000e+00
      0.385      0.015     7.5091     90.839     41.596  41.531081     5.4945      6.932   145.4197 5.9844e+02     5.4020      0.375      0.545    24.9007 0.0000e+00
      0.389      0.019     7.5075     90.963     41.616  41.542499     5.4898      6.932   145.7385 5.5103e+02     5.4394      0.379      0.550    24.9050 0.0000e+00
      0.397      0.021     7.5085     91.088     41.616  41.530847     5.4909      6.933   145.7987 5.7595e+02     5.4275      0.389      0.564    24.9129 0.0000e+00
      0.407      0.023     7.5090     91.141     41.610  41.517115     5.4915      6.936   145.8900 6.1103e+02     5.3608      0.400      0.580    24.9226 0.0000e+00
      0.414      0.023     7.5139     91.088     41.599  41.503381     5.4976      6.939   146.0679 5.5678e+02     5.3506      0.408      0.591    24.9202 0.0000e+00
      0.418      0.023     7.5282     90.927     41.587  41.491728     5.5062      6.943   146.2296 4.9720e+02     5.3721      0.411      0.595    24.9065 0.0000e+00
      0.421      0.022     7.5434     90.682     41.599  41.503155     5.5455      6.946   146.3826 5.0666e+02     5.3820      0.412      0.599    24.8899 0.0000e+00
      0.425      0.020     7.5501     90.441     41.615  41.514608     5.6235      6.949   146.5411 5.2053e+02     5.4016      0.417      0.605    24.8794 0.0000e+00
      0.432      0.020     7.5456     90.280     41.609  41.503258     5.6583      6.953   146.7686 4.7016e+02     5.3696      0.423      0.612    24.8772 0.0000e+00
      0.440      0.019     7.5321     90.190     41.599  41.492852     5.6582      6.957   147.0684 4.0988e+02     5.3706      0.431      0.625    24.8807 0.0000e+00
      0.446      0.016     7.5083     90.151     41.619  41.515732     5.6720      6.959   147.2410 3.9133e+02     5.5167      0.438      0.635    24.8819 0.0000e+00
      0.449      0.013     7.4863     90.185     41.628  41.526023     5.6834      6.961   147.3065 3.8900e+02     5.7016      0.440      0.639    24.8728 0.0000e+00
      0.451      0.009     7.4758     90.297     41.593  41.490356     5.6794      6.964   147.4307 3.8869e+02     5.7272      0.442      0.641    24.8648 0.0000e+00
      0.451      0.005     7.4689     90.445     41.573  41.465283     5.6664      6.967   147.4515 3.9163e+02     5.6209      0.443      0.642    24.8654 0.0000e+00
      0.451      0.004     7.4639     90.577     41.588  41.476728     5.6673      6.971   147.2995 4.0119e+02     5.5444      0.442      0.641    24.8704 0.0000e+00
      0.452      0.005     7.4653     90.639     41.616  41.501793     5.6818      6.972   147.3149 4.2696e+02     5.4855      0.443      0.642    24.8744 0.0000e+00
      0.452      0.008     7.4772     90.618     41.631  41.514476     5.6842      6.973   147.7229 4.6102e+02     5.4550      0.444      0.643    24.8716 0.0000e+00
      0.453      0.013     7.4915     90.551     41.622  41.503136     5.6784      6.974   148.1890 4.9990e+02     5.4490      0.444      0.644    24.8646 0.0000e+00
      0.456      0.018     7.5053     90.452     41.614  41.491606     5.6870      6.975   148.4769 5.4694e+02     5.4126      0.445      0.646    24.8592 0.0000e+00
      0.462      0.022     7.5115     90.338     41.628  41.502003     5.7130      6.977   148.7082 5.7613e+02     5.4245      0.451      0.655    24.8563 0.0000e+00
      0.471      0.023     7.5076     90.249     41.631  41.501899     5.7350      6.981   148.8348 5.7478e+02     5.4905      0.463      0.670    24.8549 0.0000e+00
      0.480      0.023     7.5028     90.187     41.621  41.490350     5.7375      6.985   148.8892 5.5313e+02     5.5283      0.472      0.684    24.8518 0.0000e+00
      0.487      0.022     7.4952     90.117     41.621  41.489301     5.7256      6.989   149.0219 5.4421e+02     5.5057      0.478      0.693    24.8460 0.0000e+00
      0.491      0.020     7.4843     90.051     41.623  41.489216     5.7082      6.991   149.2343 5.3971e+02     5.4226      0.482      0.699    24.8420 0.0000e+00
      0.493      0.017     7.4771     90.042     41.624  41.489313     5.7094      6.992   149.4780 5.2136e+02     5.4110      0.483      0.701    24.8397 0.0000e+00
      0.496      0.015     7.4745     90.103     41.626  41.490465     5.7321      6.993   149.7319 5.2163e+02     5.5020      0.485      0.703    24.8378 0.0000e+00
      0.500      0.013     7.4682     90.174     41.639  41.503149     5.7418      6.995   149.9805 5.2764e+02     5.4981      0.490      0.710    24.8361 0.0000e+00
      0.505      0.012     7.4610     90.185     41.653  41.515739     5.7515      6.999   150.1616 5.1544e+02     5.3639      0.496      0.719    24.8340 0.0000e+00
      0.509      0.011     7.4594     90.137     41.653  41.515757     5.7911      7.001   150.2864 5.1546e+02     5.2809      0.500      0.725    24.8325 0.0000e+00
      0.511      0.010     7.4670     90.078     41.641  41.503368     5.8296      7.004   150.3708 5.5343e+02     5.3136      0.501      0.727    24.8317 0.0000e+00
      0.512      0.007     7.4759     90.020     41.631  41.492877     5.8421      7.007   150.4934 5.8883e+02     5.3833      0.501      0.727    24.8313 0.0000e+00
      0.513      0.005     7.4765     89.938     41.653  41.515852     5.8174      7.010   150.7371 5.7151e+02     5.4404      0.503      0.729    24.8302 0.0000e+00
      0.514      0.005     7.4706     89.857     41.664  41.527279     5.7558      7.013   150.9079 5.5438e+02     5.4575      0.504      0.732    24.8290 0.0000e+00
      0.515      0.005     7.4649     89.817     41.640  41.504105     5.7134      7.017   150.9238 5.6901e+02     5.4191      0.506      0.735    24.8286 0.0000e+00
      0.515      0.005     7.4627     89.838     41.625  41.489531     5.7208      7.022   150.9296 5.7486e+02     5.4200      0.505      0.733    24.8287 0.0000e+00
      0.516      0.006     7.4541     89.951     41.613  41.478001     5.7365      7.026   150.9773 5.7359e+02     5.4681      0.506      0.734    24.8291 0.0000e+00
      0.519      0.006     7.4456     90.116     41.627  41.491630     5.7299      7.029   151.0713 5.5703e+02     5.4883      0.509      0.738    24.8298 0.0000e+00
      0.521      0.007     7.4428     90.223     41.662  41.527382     5.7158      7.032   151.2051 5.3026e+02     5.4595      0.510      0.740    24.8303 0.0000e+00
      0.523      0.007     7.4423     90.225     41.663  41.529480     5.7072      7.036   151.3913 5.5141e+02     5.3596      0.513      0.744    24.8307 0.0000e+00
      0.525      0.006     7.4525     90.179     41.651  41.516987     5.7082      7.039   151.5163 6.1231e+02     5.3387      0.515      0.747    24.8318 0.0000e+00
      0.526      0.006     7.4706     90.122     41.638  41.503262     5.7204      7.044   151.4251 6.4258e+02     5.4462      0.517      0.750    24.8326 0.0000e+00
      0.528      0.007     7.4816     90.063     41.626  41.490475     5.7296      7.048   151.4066 6.3409e+02     5.4981      0.518      0.752    24.8333 0.0000e+00
      0.528      0.010     7.4781     90.040     41.626  41.489314     5.7276      7.051   151.6367 6.1485e+02     5.4540      0.517      0.751    24.8338 0.0000e+00
      0.529      0.014     7.4733     90.048     41.627  41.489218     5.7216      7.053   151.8844 5.9313e+02     5.3913      0.518      0.752    24.8332 0.0000e+00
      0.533      0.017     7.4700     90.054     41.630  41.489314     5.7232      7.055   152.0794 5.7010e+02     5.3886      0.522      0.756    24.8317 0.0000e+00
      0.540      0.019     7.4624     90.060     41.633  41.490466     5.7306      7.057   152.2733 5.5043e+02     5.4564      0.529      0.768    24.8307 0.0000e+00
      0.548      0.019     7.4614     90.062     41.646  41.503149     5.7357      7.059   152.4210 5.4157e+02     5.4926      0.538      0.781    24.8300 0.0000e+00
      0.554      0.018     7.4640     90.040     41.658  41.515729     5.7351      7.061   152.4894 5.4371e+02     5.4505      0.543      0.789    24.8281 0.0000e+00
      0.558      0.015     7.4640     90.000     41.657  41.515633     5.7240      7.064   152.4978 5.5329e+02     5.3914      0.547      0.794    24.8252 0.0000e+00
      0.560      0.011     7.4651     89.980     41.642  41.501996     5.7264      7.067   152.5222 5.5220e+02     5.3926      0.550      0.798    24.8223 0.0000e+00
      0.562      0.008     7.4662     89.965     41.617  41.477772     5.7470      7.070   152.6133 5.5065e+02     5.4655      0.551      0.800    24.8210 0.0000e+00
      0.563      0.008     7.4648     89.902     41.617  41.476620     5.7563      7.071   152.7383 5.5887e+02     5.5212      0.552      0.800    24.8220 0.0000e+00
      0.564      0.009     7.4587     89.801     41.630  41.488055     5.7393      7.074   153.0018 5.4466e+02     5.4856      0.553      0.802    24.8239 0.0000e+00
      0.565      0.012     7.4572     89.703     41.634  41.489104     5.7082      7.076   153.2171 5.2173e+02     5.4111      0.553      0.802    24.8262 0.0000e+00
      0.568      0.014     7.4591     89.628     41.636  41.489293     5.7044      7.077   153.1901 5.2707e+02     5.4046      0.556      0.807    24.8275 0.0000e+00
      0.574      0.016     7.4527     89.575     41.638  41.490342     5.7272      7.078   153.1924 5.4542e+02     5.4766      0.562      0.815    24.8262 0.0000e+00
      0.580      0.017     7.4428     89.507     41.649  41.501786     5.7511      7.079   153.3314 5.4617e+02     5.5643      0.569      0.826    24.8234 0.0000e+00
      0.585      0.017     7.4357     89.451     41.648  41.500726     5.7691      7.081   153.4081 5.4492e+02     5.6457      0.574      0.833    24.8199 0.0000e+00
      0.589      0.016     7.4283     89.452     41.624  41.477535     5.7691      7.083   153.3449 5.4910e+02     5.6749      0.578      0.838    24.8178 0.0000e+00
      0.592      0.015     7.4270     89.438     41.623  41.475248     5.7672      7.084   153.4281 5.3666e+02     5.6434      0.581      0.842    24.8170 0.0000e+00
      0.594      0.014     7.4208     89.378     41.623  41.473064     5.7630      7.084   153.6399 5.2208e+02     5.6749      0.582      0.844    24.8167 0.0000e+00
      0.598      0.014     7.4111     89.317     41.602  41.451120     5.7355      7.085   153.7541 5.1248e+02     5.7488      0.586      0.849    24.8172 0.0000e+00
      0.603      0.015     7.4172     89.257     41.617  41.463804     5.7086      7.087   153.8622 4.9482e+02     5.7167      0.591      0.857    24.8173 0.0000e+00
      0.607      0.015     7.4166     89.178     41.654  41.499491     5.7045      7.089   154.0008 4.7332e+02     5.6284      0.596      0.864    24.8161 0.0000e+00
      0.611      0.014     7.4088     89.072     41.659  41.501799     5.7186      7.091   154.0538 4.5814e+02     5.6033      0.601      0.870    24.8143 0.0000e+00
      0.615      0.013     7.4052     88.965     41.650  41.491708     5.7379      7.092   154.0722 4.5713e+02     5.6527      0.603      0.874    24.8128 0.0000e+00
      0.617      0.011     7.4005     88.890     41.664  41.504411     5.7379      7.093   154.1374 4.5894e+02     5.6787      0.605      0.878    24.8111 0.0000e+00
      0.620      0.011     7.3953     88.840     41.689  41.528455     5.7193      7.096   154.2392 4.6091e+02     5.6451      0.608      0.882    24.8086 0.0000e+00
      0.622      0.012     7.3853     88.765     41.690  41.528552     5.7131      7.098   154.4425 4.6845e+02     5.6216      0.610      0.885    24.8061 0.0000e+00
      0.624      0.013     7.3759     88.651     41.667  41.505587     5.7379      7.097   154.6171 4.6753e+02     5.6344      0.612      0.888    24.8048 0.0000e+00
      0.627      0.015     7.3694     88.539     41.667  41.504652     5.7772      7.095   154.8021 4.5741e+02     5.6964      0.614      0.891    24.8037 0.0000e+00
      0.632      0.016     7.3677     88.429     41.681  41.517241     5.7892      7.094   155.0446 4.5313e+02     5.7231      0.619      0.898    24.8023 0.0000e+00
      0.637      0.016     7.3629     88.304     41.696  41.530870     5.7740      7.095   155.1398 4.5205e+02     5.6497      0.626      0.908    24.8008 0.0000e+00
      0.642      0.015     7.3505     88.182     41.708  41.542505     5.7687      7.095   155.1790 4.4573e+02     5.5948      0.630      0.914    24.7996 0.0000e+00
      0.646      0.014     7.3422     88.100     41.697  41.530983     5.7829      7.095   155.2607 4.4074e+02     5.6397      0.634      0.919    24.7984 0.0000e+00
      0.649      0.011     7.3341     88.074     41.685  41.518490     5.7968      7.095   155.3530 4.3594e+02     5.7139      0.637      0.924    24.7972 0.0000e+00
      0.651      0.009     7.3236     88.118     41.685  41.518385     5.7943      7.095   155.5196 4.3522e+02     5.7064      0.638      0.926    24.7962 0.0000e+00
      0.653      0.007     7.3114     88.214     41.696  41.529716     5.8197      7.095   155.7273 4.4457e+02     5.6178      0.640      0.929    24.7955 0.0000e+00
      0.655      0.005     7.3050     88.323     41.695  41.528554     5.8876      7.096   155.8855 4.4952e+02     5.5643      0.642      0.931    24.7947 0.0000e+00
      0.655      0.005     7.3022     88.438     41.671  41.504329     5.9413      7.096   156.1418 4.5587e+02     5.6069      0.642      0.932    24.7943 0.0000e+00
      0.656      0.005     7.3059     88.543     41.658  41.490682     5.9693      7.094   156.5892 4.6838e+02     5.6887      0.643      0.933    24.7942 0.0000e+00
      0.657      0.006     7.3166     88.590     41.658  41.490482     5.9682      7.092   156.9926 4.6336e+02     5.6985      0.644      0.934    24.7943 0.0000e+00
      0.658      0.007     7.3242     88.559     41.670  41.501917     5.9448      7.089   157.3201 4.4747e+02     5.6573      0.645      0.936    24.7941 0.0000e+00
      0.661      0.008     7.3347     88.473     41.670  41.502003     5.9356      7.085   157.7092 4.3626e+02     5.6694      0.648      0.939    24.7938 0.0000e+00
      0.664      0.009     7.3453     88.366     41.660  41.491522     5.9481      7.081   158.0832 4.2720e+02     5.7082      0.651      0.944    24.7933 0.0000e+00
      0.666      0.010     7.3500     88.262     41.671  41.502125     5.9635      7.079   158.3148 4.2650e+02     5.7159      0.653      0.947    24.7930 0.0000e+00
      0.669      0.010     7.3466     88.190     41.673  41.503279     5.9557      7.077   158.3588 4.3557e+02     5.6602      0.656      0.950    24.7927 0.0000e+00
      0.672      0.009     7.3379     88.150     41.675  41.505473     5.9371      7.074   158.4431 4.4319e+02     5.5809      0.659      0.956    24.7919 0.0000e+00
      0.674      0.008     7.3291     88.113     41.699  41.528646     5.9386      7.072   158.7312 4.4011e+02     5.5772      0.661      0.959    24.7917 0.0000e+00
      0.675      0.007     7.3192     88.075     41.701  41.529601     5.9729      7.072   159.0883 4.3441e+02     5.6492      0.662      0.959    24.7914 0.0000e+00
      0.677      0.006     7.3130     88.038     41.689  41.517014     6.0190      7.072   159.4062 4.3955e+02     5.7006      0.665      0.963    24.7906 0.0000e+00
      0.679      0.006     7.3120     88.024     41.676  41.503386     6.0305      7.072   159.6491 4.4468e+02     5.6863      0.667      0.967    24.7898 0.0000e+00
      0.680      0.006     7.3078     88.044     41.666  41.491752     6.0121      7.073   159.8743 4.3728e+02     5.6469      0.667      0.967    24.7893 0.0000e+00
      0.681      0.006     7.3056     88.045     41.678  41.503283     5.9965      7.075   160.0639 4.2813e+02     5.6344      0.668      0.969    24.7887 0.0000e+00
      0.682      0.006     7.3017     88.004     41.692  41.515880     5.9655      7.078   160.2207 4.2581e+02     5.6717      0.669      0.971    24.7874 0.0000e+00
      0.683      0.006     7.2991     87.936     41.693  41.517129     5.9205      7.080   160.4799 4.2901e+02     5.7222      0.670      0.972    24.7863 0.0000e+00
      0.686      0.007     7.3045     87.853     41.695  41.518377     5.8942      7.080   160.7889 4.3991e+02     5.7323      0.673      0.976    24.7850 0.0000e+00
      0.688      0.007     7.3048     87.763     41.708  41.530976     5.8802      7.079   161.0315 4.5467e+02     5.6923      0.675      0.978    24.7840 0.0000e+00
      0.690      0.008     7.3005     87.673     41.719  41.542517     5.8352      7.079   161.2621 4.6267e+02     5.6820      0.676      0.980    24.7837 0.0000e+00
      0.691      0.010     7.2948     87.588     41.707  41.530987     5.7653      7.079   161.5123 4.5762e+02     5.7781      0.678      0.983    24.7827 0.0000e+00
      0.693      0.012     7.2880     87.549     41.694  41.518504     5.7349      7.079   161.6474 4.4127e+02     5.8979      0.679      0.985    24.7820 0.0000e+00
      0.696      0.013     7.2799     87.606     41.694  41.518514     5.7249      7.080   161.6053 4.2766e+02     5.9006      0.683      0.991    24.7822 0.0000e+00
      0.700      0.013     7.2728     87.733     41.707  41.531113     5.7025      7.081   161.6056 4.2551e+02     5.7770      0.687      0.996    24.7829 0.0000e+00
      0.705      0.012     7.2645     87.854     41.721  41.543902     5.6886      7.084   161.8232 4.2493e+02     5.6667      0.691      1.003    24.7837 0.0000e+00
      0.710      0.012     7.2586     87.902     41.724  41.546208     5.6991      7.088   161.9985 4.1640e+02     5.6951      0.698      1.012    24.7840 0.0000e+00
      0.712      0.011     7.2646     87.862     41.737  41.558997     5.7299      7.091   162.0044 4.1150e+02     5.7788      0.699      1.014    24.7835 0.0000e+00
      0.712      0.010     7.2779     87.788     41.751  41.571596     5.7776      7.092   162.1533 4.1371e+02     5.7901      0.698      1.012    24.7826 0.0000e+00
      0.714      0.010     7.2903     87.728     41.752  41.571607     5.8349      7.093   162.4223 4.1148e+02     5.7636      0.699      1.014    24.7817 0.0000e+00
      0.717      0.011     7.2950     87.669     41.741  41.559124     5.8646      7.094   162.5035 4.1009e+02     5.7652      0.703      1.020    24.7806 0.0000e+00
      0.721      0.012     7.2895     87.579     41.731  41.547605     5.8794      7.095   162.5321 4.1186e+02     5.8096      0.707      1.026    24.7803 0.0000e+00
      0.724      0.014     7.2814     87.447     41.743  41.559258     5.9300      7.096   162.6826 4.0980e+02     5.8227      0.709      1.029    24.7794 0.0000e+00
      0.728      0.014     7.2781     87.308     41.757  41.573086     5.9862      7.099   162.7751 4.0835e+02     5.7191      0.713      1.035    24.7774 0.0000e+00
      0.732      0.015     7.2742     87.205     41.772  41.587859     5.9930      7.101   162.7898 4.0950e+02     5.6159      0.719      1.042    24.7757 0.0000e+00
      0.736      0.016     7.2677     87.131     41.795  41.610947     5.9870      7.103   162.8607 4.0852e+02     5.5998      0.721      1.046    24.7747 0.0000e+00
      0.739      0.017     7.2551     87.034     41.783  41.598369     5.9965      7.105   163.0292 4.0876e+02     5.5924      0.724      1.049    24.7743 0.0000e+00
      0.743      0.018     7.2421     86.916     41.748  41.562713     6.0077      7.108   163.1917 4.0884e+02     5.6629      0.728      1.056    24.7741 0.0000e+00
      0.749      0.020     7.2336     86.857     41.746  41.560634     6.0146      7.110   163.2779 4.0443e+02     5.8030      0.734      1.065    24.7734 0.0000e+00
      0.754      0.022     7.2299     86.849     41.759  41.573233     6.0045      7.110   163.3831 4.0398e+02     5.8520      0.739      1.072    24.7733 0.0000e+00
      0.759      0.023     7.2232     86.822     41.775  41.588112     5.9939      7.111   163.5166 4.0735e+02     5.8788      0.744      1.079    24.7731 0.0000e+00
      0.765      0.023     7.2078     86.757     41.801  41.613593     6.0029      7.112   163.6017 4.0392e+02     5.9559      0.750      1.087    24.7722 0.0000e+00
      0.772      0.022     7.2046     86.658     41.816  41.627458     6.0228      7.114   163.6377 3.9656e+02     5.9999      0.758      1.100    24.7720 0.0000e+00
      0.779      0.021     7.2075     86.542     41.817  41.628812     6.0334      7.115   163.6938 3.9081e+02     5.9665      0.764      1.109    24.7713 0.0000e+00
      0.784      0.019     7.2042     86.412     41.818  41.629966     6.0154      7.116   163.7638 3.8480e+02     5.8939      0.769      1.116    24.7700 0.0000e+00
      0.788      0.017     7.2001     86.288     41.829  41.641411     5.9881      7.118   163.7957 3.7828e+02     5.8387      0.774      1.123    24.7694 0.0000e+00
      0.791      0.015     7.1902     86.207     41.828  41.640259     5.9947      7.118   163.8222 3.6939e+02     5.8461      0.776      1.126    24.7693 0.0000e+00
      0.794      0.013     7.1811     86.171     41.803  41.616034     6.0205      7.120   163.9117 3.5423e+02     5.9150      0.778      1.128    24.7691 0.0000e+00
      0.798      0.011     7.1704     86.186     41.790  41.602386     6.0331      7.123   164.0171 3.3777e+02     5.9204      0.783      1.134    24.7690 0.0000e+00
      0.802      0.009     7.1572     86.203     41.790  41.602177     6.0384      7.127   164.0636 3.2626e+02     5.8774      0.786      1.141    24.7692 0.0000e+00
      0.804      0.009     7.1524     86.173     41.802  41.613499     6.0425      7.129   164.1300 3.1927e+02     5.8725      0.789      1.144    24.7698 0.0000e+00
      0.806      0.009     7.1474     86.135     41.801  41.612345     6.0505      7.129   164.3897 3.1786e+02     5.8617      0.791      1.146    24.7698 0.0000e+00
      0.806      0.010     7.1508     86.118     41.777  41.588225     6.0597      7.129   164.7086 3.2384e+02     5.8835      0.790      1.147    24.7691 0.0000e+00
      0.807      0.011     7.1556     86.127     41.766  41.575731     6.0375      7.130   164.8016 3.3483e+02     5.8966      0.790      1.145    24.7687 0.0000e+00
      0.810      0.011     7.1495     86.167     41.780  41.588215     5.9821      7.133   164.6547 3.4488e+02     5.8492      0.794      1.151    24.7685 0.0000e+00
      0.816      0.011     7.1463     86.193     41.806  41.612230     5.9466      7.136   164.4806 3.5204e+02     5.8569      0.801      1.162    24.7684 0.0000e+00
      0.821      0.012     7.1452     86.140     41.808  41.612220     5.9496      7.139   164.5896 3.5694e+02     5.9213      0.806      1.169    24.7682 0.0000e+00
      0.823      0.013     7.1453     86.030     41.785  41.588091     5.9610      7.141   164.7678 3.5860e+02     5.9103      0.808      1.171    24.7665 0.0000e+00
      0.823      0.013     7.1499     85.932     41.772  41.574357     5.9670      7.144   164.8290 3.5805e+02     5.8259      0.807      1.171    24.7636 0.0000e+00
      0.825      0.014     7.1559     85.842     41.773  41.573099     5.9818      7.146   165.0719 3.5535e+02     5.8240      0.808      1.172    24.7615 0.0000e+00
      0.830      0.016     7.1508     85.739     41.777  41.572881     5.9976      7.145   165.3804 3.4922e+02     5.8874      0.814      1.180    24.7601 0.0000e+00
      0.835      0.018     7.1376     85.627     41.781  41.571718     6.0078      7.145   165.5478 3.4109e+02     5.9092      0.819      1.189    24.7585 0.0000e+00
      0.841      0.018     7.1316     85.482     41.774  41.559026     6.0312      7.146   165.6334 3.3489e+02     5.8828      0.825      1.195    24.7579 0.0000e+00
      0.846      0.017     7.1251     85.292     41.764  41.546342     6.0560      7.147   165.6413 3.3211e+02     5.7732      0.832      1.206    24.7555 0.0000e+00
      0.851      0.014     7.1164     85.117     41.764  41.545293     6.0575      7.148   165.6442 3.3251e+02     5.6426      0.836      1.213    24.7502 0.0000e+00
      0.854      0.012     7.1089     85.022     41.765  41.546341     6.0495      7.149   165.6679 3.3579e+02     5.6019      0.838      1.216    24.7429 0.0000e+00
      0.856      0.011     7.0995     84.975     41.778  41.559015     6.0850      7.150   165.7554 3.4125e+02     5.6576      0.840      1.218    24.7354 0.0000e+00
      0.857      0.011     7.0815     84.933     41.793  41.571605     6.1615      7.152   165.9275 3.4599e+02     5.7352      0.840      1.218    24.7319 0.0000e+00
      0.858      0.012     7.0631     84.883     41.795  41.571615     6.1924      7.153   166.0290 3.4437e+02     5.7193      0.842      1.221    24.7322 0.0000e+00
      0.862      0.014     7.0584     84.851     41.783  41.559131     6.1754      7.155   166.1224 3.3752e+02     5.6368      0.844      1.224    24.7325 0.0000e+00
      0.867      0.014     7.0555     84.879     41.773  41.547600     6.1970      7.157   166.2815 3.3023e+02     5.6594      0.848      1.230    24.7319 0.0000e+00
      0.873      0.014     7.0525     84.947     41.786  41.559131     6.2623      7.159   166.4043 3.2448e+02     5.8221      0.857      1.243    24.7295 0.0000e+00
      0.878      0.013     7.0487     85.012     41.800  41.571617     6.3070      7.160   166.4886 3.2146e+02     5.9642      0.862      1.250    24.7264 0.0000e+00
      0.880      0.012     7.0430     85.045     41.802  41.571627     6.3049      7.162   166.5258 3.1958e+02     5.9775      0.863      1.252    24.7260 0.0000e+00
      0.881      0.010     7.0474     85.027     41.791  41.559246     6.2780      7.165   166.5107 3.1809e+02     5.9478      0.864      1.254    24.7253 0.0000e+00
      0.882      0.009     7.0544     84.944     41.783  41.548861     6.2660      7.167   166.5642 3.1996e+02     5.9478      0.865      1.254    24.7230 0.0000e+00
      0.884      0.009     7.0612     84.828     41.808  41.572991     6.2844      7.168   166.6555 3.2356e+02     5.9432      0.867      1.258    24.7212 0.0000e+00
      0.887      0.009     7.0640     84.705     41.831  41.597128     6.3081      7.169   166.6688 3.2526e+02     5.9607      0.869      1.261    24.7192 0.0000e+00
      0.891      0.008     7.0642     84.583     41.819  41.586837     6.3026      7.171   166.6388 3.2787e+02     5.9542      0.874      1.267    24.7167 0.0000e+00
      0.894      0.007     7.0564     84.519     41.805  41.575488     6.2512      7.174   166.6371 3.3333e+02     5.8984      0.878      1.273    24.7144 0.0000e+00
      0.895      0.005     7.0445     84.519     41.815  41.586846     6.1860      7.177   166.7341 3.3814e+02     5.8674      0.879      1.275    24.7134 0.0000e+00
      0.895      0.004     7.0377     84.568     41.825  41.597232     6.1642      7.179   166.8661 3.4064e+02     5.8860      0.878      1.273    24.7136 0.0000e+00
      0.895      0.002     7.0213     84.618     41.801  41.574134     6.1788      7.182   166.9424 3.4234e+02     5.9521      0.877      1.272    24.7161 0.0000e+00
      0.895      0.001     7.0180     84.614     41.788  41.561439     6.1797      7.184   166.9682 3.4399e+02     5.9499      0.878      1.274    24.7193 0.0000e+00
      0.896      0.001     7.0177     84.641     41.798  41.570681     6.1672      7.186   167.0055 3.4470e+02     5.8935      0.879      1.274    24.7209 0.0000e+00
      0.896      0.001     7.0211     84.711     41.787  41.558941     6.1691      7.189   167.1353 3.4582e+02     5.8854      0.880      1.275    24.7218 0.0000e+00
      0.896      0.001     7.0321     84.755     41.775  41.546429     6.1861      7.191   167.2463 3.4827e+02     5.8865      0.879      1.276    24.7226 0.0000e+00
      0.896      0.002     7.0237     84.750     41.776  41.546334     6.2387      7.193   167.2301 3.4592e+02     5.9061      0.879      1.275    24.7225 0.0000e+00
      0.896      0.002     7.0271     84.689     41.789  41.557779     6.3144      7.195   167.1972 3.4036e+02     5.8826      0.878      1.274    24.7219 0.0000e+00
      0.897      0.002     7.0370     84.625     41.789  41.557874     6.3434      7.197   167.2792 3.3683e+02     5.8079      0.879      1.274    24.7217 0.0000e+00
      0.898      0.003     7.0389     84.575     41.779  41.547488     6.3479      7.199   167.4467 3.3370e+02     5.8231      0.881      1.277    24.7214 0.0000e+00
      0.900      0.006     7.0419     84.520     41.791  41.559132     6.3779      7.200   167.6744 3.3318e+02     5.8954      0.883      1.279    24.7200 0.0000e+00
      0.900      0.009     7.0325     84.468     41.804  41.571731     6.4067      7.200   167.9669 3.3453e+02     5.9308      0.883      1.280    24.7177 0.0000e+00
      0.901      0.011     7.0275     84.416     41.805  41.572886     6.4125      7.200   168.2295 3.3402e+02     5.9100      0.882      1.279    24.7162 0.0000e+00
      0.904      0.013     7.0254     84.380     41.806  41.573094     6.4062      7.200   168.3543 3.3193e+02     5.8482      0.885      1.282    24.7164 0.0000e+00
      0.910      0.016     7.0187     84.386     41.809  41.574247     6.3809      7.200   168.3573 3.2876e+02     5.7983      0.893      1.295    24.7169 0.0000e+00
      0.916      0.019     7.0159     84.417     41.825  41.586827     6.3395      7.202   168.3531 3.2360e+02     5.7508      0.899      1.304    24.7171 0.0000e+00
      0.920      0.020     7.0107     84.427     41.841  41.598254     6.3215      7.205   168.3893 3.1762e+02     5.7178      0.902      1.307    24.7170 0.0000e+00
      0.924      0.019     7.0065     84.379     41.833  41.585466     6.3137      7.209   168.4508 3.1393e+02     5.7072      0.905      1.313    24.7163 0.0000e+00
      0.930      0.018     7.0080     84.256     41.811  41.559135     6.2944      7.212   168.5796 3.1250e+02     5.7243      0.911      1.321    24.7135 0.0000e+00
      0.936      0.017     7.0127     84.050     41.789  41.533748     6.3214      7.213   168.7418 3.1170e+02     5.8229      0.919      1.333    24.7094 0.0000e+00
      0.941      0.015     7.0154     83.804     41.790  41.532387     6.3906      7.214   168.8631 3.0929e+02     5.9086      0.924      1.340    24.7046 0.0000e+00
      0.943      0.014     7.0123     83.586     41.801  41.542669     6.4239      7.217   168.9283 3.0621e+02     5.9406      0.925      1.341    24.6988 0.0000e+00
      0.945      0.012     7.0037     83.374     41.791  41.531128     6.4156      7.220   168.9282 3.0634e+02     5.9709      0.927      1.344    24.6933 0.0000e+00
      0.947      0.010     6.9860     83.134     41.781  41.519777     6.3991      7.222   168.9478 3.0724e+02     5.9671      0.929      1.347    24.6890 0.0000e+00
      0.950      0.008     6.9621     82.923     41.796  41.532365     6.3994      7.224   168.9928 3.0607e+02     5.9631      0.932      1.352    24.6858 0.0000e+00
      0.953      0.006     6.9459     82.793     41.822  41.556389     6.4187      7.227   168.9556 3.0579e+02     5.9904      0.935      1.356    24.6843 0.0000e+00
      0.955      0.005     6.9310     82.738     41.822  41.556379     6.4242      7.229   168.9285 3.0607e+02     5.9895      0.937      1.359    24.6839 0.0000e+00
      0.956      0.003     6.9076     82.741     41.797  41.532240     6.4242      7.231   169.0957 3.0644e+02     5.9875      0.939      1.361    24.6826 0.0000e+00
      0.955      0.003     6.8886     82.751     41.782  41.518404     6.4362      7.232   169.2558 3.0935e+02     6.0678      0.937      1.360    24.6797 0.0000e+00
      0.955      0.003     6.8795     82.733     41.778  41.516022     6.4519      7.234   169.2301 3.1188e+02     6.1743      0.935      1.356    24.6762 0.0000e+00
      0.955      0.003     6.8747     82.725     41.765  41.503434     6.4726      7.235   169.3013 3.0947e+02     6.2166      0.936      1.357    24.6758 0.0000e+00
      0.957      0.004     6.8765     82.729     41.755  41.493143     6.4708      7.237   169.5141 3.0432e+02     6.2031      0.939      1.361    24.6773 0.0000e+00
      0.959      0.007     6.8798     82.734     41.782  41.518529     6.4384      7.239   169.6522 3.0569e+02     6.1478      0.941      1.364    24.6786 0.0000e+00
      0.961      0.010     6.8743     82.749     41.822  41.556505     6.4139      7.240   169.7662 3.1404e+02     6.0950      0.943      1.367    24.6810 0.0000e+00
      0.962      0.015     6.8746     82.730     41.840  41.571497     6.4158      7.241   169.8612 3.1737e+02     6.1124      0.944      1.369    24.6825 0.0000e+00
      0.964      0.019     6.8764     82.676     41.846  41.572852     6.4277      7.240   169.9392 3.1206e+02     6.1864      0.944      1.369    24.6808 0.0000e+00
      0.969      0.023     6.8744     82.621     41.853  41.572883     6.4249      7.239   170.1074 3.0564e+02     6.2384      0.948      1.375    24.6783 0.0000e+00
      0.979      0.025     6.8797     82.571     41.857  41.571864     6.4067      7.238   170.2609 3.0341e+02     6.1946      0.959      1.391    24.6773 0.0000e+00
      0.989      0.025     6.8773     82.507     41.848  41.560525     6.3901      7.239   170.2462 3.0260e+02     6.1003      0.971      1.409    24.6753 0.0000e+00
      0.997      0.025     6.8723     82.417     41.852  41.562721     6.4077      7.239   170.1882 3.0160e+02     6.1573      0.979      1.420    24.6691 0.0000e+00
      1.001      0.024     6.8692     82.332     41.888  41.598414     6.4537      7.240   170.2477 3.0227e+02     6.3376      0.982      1.424    24.6590 0.0000e+00
      1.005      0.023     6.8660     82.278     41.902  41.611274     6.4800      7.242   170.3622 3.0330e+02     6.4023      0.985      1.429    24.6518 0.0000e+00
      1.010      0.023     6.8627     82.252     41.884  41.591275     6.4756      7.242   170.5402 3.0295e+02     6.3582      0.990      1.435    24.6497 0.0000e+00
      1.015      0.023     6.8530     82.244     41.906  41.610479     6.4582      7.241   170.7658 2.9960e+02     6.3164      0.993      1.441    24.6491 0.0000e+00
      1.023      0.023     6.8454     82.248     41.952  41.653062     6.4533      7.239   170.9383 2.9626e+02     6.3412      1.003      1.454    24.6484 0.0000e+00
      1.033      0.021     6.8416     82.255     41.963  41.661858     6.4658      7.238   171.1638 2.9731e+02     6.4194      1.014      1.471    24.6467 0.0000e+00
      1.040      0.017     6.8398     82.249     41.955  41.653361     6.4771      7.238   171.4272 3.0076e+02     6.4414      1.021      1.481    24.6450 0.0000e+00
      1.043      0.012     6.8400     82.258     41.916  41.613791     6.4732      7.239   171.5423 3.0236e+02     6.3685      1.024      1.485    24.6414 0.0000e+00
      1.043      0.008     6.8405     82.309     41.867  41.564235     6.4597      7.239   171.6088 2.9949e+02     6.3234      1.023      1.484    24.6373 0.0000e+00
      1.042      0.005     6.8428     82.364     41.867  41.561914     6.4559      7.239   171.8009 2.9705e+02     6.3746      1.022      1.483    24.6355 0.0000e+00
      1.042      0.003     6.8412     82.399     41.892  41.585727     6.4690      7.238   172.0584 2.9813e+02     6.4068      1.021      1.480    24.6341 0.0000e+00
      1.042      0.003     6.8399     82.403     41.906  41.598288     6.4854      7.237   172.1413 2.9683e+02     6.4050      1.021      1.481    24.6341 0.0000e+00
      1.045      0.004     6.8471     82.344     41.895  41.586849     6.4955      7.236   172.0283 2.9457e+02     6.3871      1.025      1.486    24.6331 0.0000e+00
      1.047      0.005     6.8525     82.239     41.884  41.574354     6.5078      7.236   171.9827 2.9527e+02     6.3613      1.027      1.489    24.6301 0.0000e+00
      1.048      0.008     6.8548     82.144     41.884  41.574136     6.5255      7.236   172.0198 2.9827e+02     6.4006      1.028      1.491    24.6282 0.0000e+00
      1.048      0.011     6.8577     82.055     41.894  41.584216     6.5434      7.237   172.0478 3.0033e+02     6.4523      1.028      1.490    24.6269 0.0000e+00
      1.049      0.014     6.8524     81.958     41.879  41.569291     6.5832      7.238   172.1485 2.9651e+02     6.5088      1.027      1.490    24.6259 0.0000e+00
      1.054      0.018     6.8406     81.889     41.831  41.520617     6.6486      7.238   172.2905 2.9192e+02     6.5711      1.033      1.499    24.6251 0.0000e+00
      1.060      0.020     6.8335     81.840     41.816  41.503444     6.6844      7.237   172.3881 2.9278e+02     6.5903      1.041      1.510    24.6246 0.0000e+00
      1.067      0.022     6.8279     81.789     41.804  41.488579     6.6911      7.237   172.4686 2.9431e+02     6.6383      1.047      1.517    24.6252 0.0000e+00
      1.075      0.022     6.8165     81.742     41.785  41.467814     6.7138      7.237   172.4886 2.9393e+02     6.7418      1.055      1.529    24.6259 0.0000e+00
      1.080      0.023     6.8120     81.694     41.826  41.506240     6.7503      7.237   172.5448 2.9439e+02     6.8172      1.061      1.539    24.6240 0.0000e+00
      1.083      0.024     6.8102     81.686     41.900  41.572378     6.7669      7.238   172.7174 2.9171e+02     6.8322      1.062      1.540    24.6203 0.0000e+00
      1.087      0.025     6.8041     81.692     41.973  41.632806     6.7481      7.238   172.8546 2.8649e+02     6.8550      1.064      1.545    24.6173 0.0000e+00
      1.094      0.024     6.8031     81.614     42.018  41.665656     6.7216      7.238   172.9137 2.8388e+02     6.8531      1.072      1.555    24.6153 0.0000e+00
      1.104      0.021     6.7961     81.451     42.012  41.652203     6.7049      7.238   172.9156 2.8289e+02     6.8439      1.083      1.571    24.6130 0.0000e+00
      1.113      0.019     6.7967     81.247     42.022  41.660533     6.6963      7.238   172.9634 2.8438e+02     6.9489      1.092      1.584    24.6043 0.0000e+00
      1.118      0.018     6.8050     81.026     42.064  41.702906     6.6924      7.239   173.1483 2.8679e+02     7.0644      1.098      1.594    24.5887 0.0000e+00
      1.117      0.018     6.7990     80.856     42.083  41.720264     6.6827      7.240   173.3437 2.8596e+02     7.0786      1.095      1.589    24.5727 0.0000e+00
      1.116      0.020     6.7843     80.781     42.114  41.743467     6.6549      7.241   173.4332 2.8224e+02     7.0858      1.090      1.582    24.5635 0.0000e+00
      1.121      0.024     6.7686     80.760     42.177  41.793042     6.6139      7.241   173.4558 2.7693e+02     7.1179      1.098      1.593    24.5630 0.0000e+00
      1.131      0.027     6.7465     80.708     42.211  41.811903     6.5941      7.242   173.5315 2.6990e+02     7.1253      1.109      1.609    24.5657 0.0000e+00
      1.141      0.027     6.7302     80.513     42.191  41.781080     6.5909      7.243   173.6597 2.6314e+02     7.1062      1.118      1.622    24.5656 0.0000e+00
      1.153      0.026     6.7278     80.079     42.149  41.737692     6.5749      7.244   173.8875 2.5998e+02     7.0919      1.131      1.640    24.5571 0.0000e+00
      1.163      0.026     6.7295     79.385     42.138  41.731575     6.5668      7.244   174.1352 2.6249e+02     7.1239      1.145      1.660    24.5399 0.0000e+00
      1.163      0.027     6.7326     78.635     42.173  41.770594     6.5847      7.245   174.1595 2.6595e+02     7.1170      1.143      1.657    24.5193 0.0000e+00
      1.160      0.027     6.7198     78.143     42.237  41.828672     6.6003      7.246   174.1814 2.6414e+02     7.0775      1.133      1.643    24.5026 0.0000e+00
      1.165      0.027     6.6871     77.988     42.283  41.862572     6.5642      7.246   174.3989 2.5876e+02     7.1239      1.139      1.652    24.5018 0.0000e+00
      1.180      0.030     6.6213     77.997     42.296  41.863116     6.4891      7.245   174.8105 2.5245e+02     7.2337      1.159      1.680    24.5138 0.0000e+00
      1.195      0.035     6.5441     77.928     42.339  41.898701     6.4580      7.242   175.2873 2.4828e+02     7.3459      1.175      1.704    24.5203 0.0000e+00
      1.204      0.039     6.5033     77.706     42.424  41.975467     6.4715      7.239   175.5173 2.4704e+02     7.3878      1.183      1.716    24.5142 0.0000e+00
      1.207      0.038     6.4976     77.376     42.489  42.029657     6.4357      7.238   175.6125 2.4506e+02     7.3987      1.182      1.715    24.4967 0.0000e+00
      1.214      0.035     6.5110     76.953     42.515  42.046148     6.3416      7.238   175.7510 2.4148e+02     7.4441      1.186      1.721    24.4786 0.0000e+00
      1.229      0.033     6.5066     76.428     42.523  42.047907     6.2823      7.238   175.8150 2.3720e+02     7.4924      1.206      1.751    24.4739 0.0000e+00
      1.242      0.033     6.4858     75.852     42.529  42.050916     6.2842      7.239   175.8698 2.3455e+02     7.5374      1.221      1.771    24.4690 0.0000e+00
      1.247      0.035     6.4606     75.358     42.563  42.082516     6.2901      7.241   175.9823 2.3555e+02     7.5439      1.223      1.773    24.4525 0.0000e+00
      1.251      0.036     6.4269     75.026     42.596  42.112641     6.2450      7.241   176.0577 2.3485e+02     7.5377      1.226      1.778    24.4395 0.0000e+00
      1.258      0.034     6.3840     74.861     42.583  42.097810     6.1638      7.241   176.1794 2.2956e+02     7.5311      1.232      1.786    24.4351 0.0000e+00
      1.268      0.033     6.3293     74.821     42.581  42.093597     6.1063      7.241   176.3350 2.2534e+02     7.4986      1.242      1.801    24.4323 0.0000e+00
      1.283      0.033     6.2874     74.820     42.613  42.125163     6.0999      7.242   176.3904 2.2126e+02     7.5201      1.259      1.827    24.4285 0.0000e+00
      1.294      0.032     6.2597     74.794     42.653  42.162127     6.1030      7.243   176.4191 2.1713e+02     7.5524      1.271      1.846    24.4266 0.0000e+00
      1.298      0.029     6.2468     74.707     42.654  42.159715     6.0773      7.243   176.5098 2.1618e+02     7.5470      1.273      1.847    24.4244 0.0000e+00
      1.301      0.022     6.2478     74.592     42.592  42.095986     6.0558      7.245   176.5405 2.1412e+02     7.5579      1.274      1.847    24.4222 0.0000e+00
      1.308      0.014     6.2482     74.487     42.520  42.026275     6.0517      7.246   176.4459 2.1137e+02     7.5464      1.281      1.858    24.4218 0.0000e+00
      1.316      0.009     6.2489     74.407     42.504  42.015002     6.0855      7.247   176.4844 2.1031e+02     7.4772      1.294      1.876    24.4205 0.0000e+00
      1.318      0.010     6.2399     74.407     42.571  42.086636     6.1478      7.249   176.6627 2.1062e+02     7.3696      1.297      1.880    24.4160 0.0000e+00
      1.313      0.013     6.2294     74.543     42.679  42.194237     6.1805      7.250   176.7937 2.1292e+02     7.3050      1.288      1.866    24.4098 0.0000e+00
      1.309      0.016     6.2216     74.786     42.728  42.237029     6.1816      7.250   176.9501 2.1195e+02     7.3107      1.280      1.856    24.4111 0.0000e+00
      1.314      0.018     6.2114     75.036     42.721  42.223205     6.1445      7.250   177.0916 2.0681e+02     7.4387      1.285      1.864    24.4196 0.0000e+00
      1.327      0.021     6.2083     75.214     42.718  42.217490     6.0905      7.250   177.2133 2.0238e+02     7.6908      1.301      1.888    24.4270 0.0000e+00
      1.340      0.024     6.2202     75.241     42.733  42.231395     6.0770      7.250   177.3901 1.9950e+02     7.8305      1.318      1.911    24.4285 0.0000e+00
      1.346      0.025     6.2461     75.101     42.766  42.264392     6.0901      7.251   177.5077 1.9852e+02     7.8303      1.323      1.919    24.4201 0.0000e+00
      1.347      0.024     6.2691     74.870     42.801  42.299112     6.0733      7.251   177.6030 1.9892e+02     7.7912      1.320      1.914    24.4094 0.0000e+00
      1.348      0.023     6.2876     74.575     42.839  42.333832     6.0315      7.251   177.7670 1.9802e+02     7.7672      1.319      1.913    24.4069 0.0000e+00
      1.353      0.023     6.2907     74.180     42.877  42.366845     6.0181      7.252   177.9421 1.9517e+02     7.8130      1.325      1.922    24.4084 0.0000e+00
      1.364      0.023     6.2751     73.737     42.897  42.380914     6.0278      7.252   178.0856 1.9228e+02     7.8329      1.337      1.940    24.4089 0.0000e+00
      1.375      0.022     6.2545     73.343     42.898  42.376994     5.9915      7.254   178.2120 1.9009e+02     7.8029      1.350      1.959    24.4072 0.0000e+00
      1.381      0.019     6.2340     73.030     42.907  42.382904     5.9038      7.257   178.3522 1.8936e+02     7.7584      1.356      1.967    24.4043 0.0000e+00
      1.383      0.014     6.1990     72.796     42.913  42.388899     5.8496      7.259   178.4038 1.8961e+02     7.7386      1.356      1.967    24.3999 0.0000e+00
      1.383      0.009     6.1582     72.606     42.911  42.386016     5.8432      7.260   178.4926 1.8959e+02     7.8030      1.355      1.966    24.3933 0.0000e+00
      1.383      0.005     6.1271     72.463     42.939  42.411511     5.8437      7.260   178.8227 1.8968e+02     7.8535      1.355      1.966    24.3862 0.0000e+00
      1.385      0.003     6.0996     72.386     42.974  42.443267     5.8636      7.259   179.1262 1.8899e+02     7.7680      1.358      1.969    24.3828 0.0000e+00
      1.387      0.005     6.0831     72.383     42.986  42.452622     5.8837      7.259   179.3223 1.8762e+02     7.6243      1.360      1.972    24.3838 0.0000e+00
      1.388      0.011     6.0659     72.421     42.998  42.461143     5.8700      7.258   179.6449 1.8785e+02     7.5846      1.362      1.974    24.3835 0.0000e+00
      1.386      0.020     6.0539     72.405     43.027  42.482824     5.8731      7.257   180.0154 1.8919e+02     7.6291      1.361      1.975    24.3819 0.0000e+00
      1.385      0.029     6.0476     72.295     43.081  42.524353     5.9213      7.257   180.2744 1.8806e+02     7.7184      1.354      1.964    24.3771 0.0000e+00
      1.394      0.035     6.0477     72.076     43.152  42.582426     5.9786      7.257   180.4538 1.8350e+02     7.8787      1.361      1.974    24.3723 0.0000e+00
      1.414      0.037     6.0559     71.709     43.195  42.613721     6.0082      7.257   180.6353 1.7861e+02     7.9957      1.390      2.015    24.3731 0.0000e+00
      1.433      0.037     6.0560     71.220     43.174  42.585368     6.0126      7.257   180.8336 1.7644e+02     8.0056      1.408      2.041    24.3632 0.0000e+00
      1.443      0.032     6.0478     70.675     43.149  42.556957     6.0734      7.258   180.9594 1.7619e+02     7.9643      1.416      2.054    24.3466 0.0000e+00
      1.447      0.024     6.0338     70.089     43.182  42.587550     6.1859      7.260   181.0374 1.7577e+02     7.8720      1.420      2.061    24.3354 0.0000e+00
      1.447      0.016     6.0039     69.516     43.238  42.637911     6.2404      7.261   181.1744 1.7580e+02     7.7778      1.418      2.057    24.3197 0.0000e+00
      1.447      0.013     5.9602     69.039     43.264  42.658098     6.2416      7.261   181.4120 1.7629e+02     7.7486      1.418      2.056    24.3087 0.0000e+00
      1.449      0.013     5.9166     68.664     43.254  42.641205     6.2341      7.261   181.6726 1.7604e+02     7.7575      1.422      2.061    24.3080 0.0000e+00
      1.453      0.015     5.8656     68.359     43.241  42.624061     6.2317      7.262   181.7438 1.7495e+02     7.7827      1.425      2.066    24.3067 0.0000e+00
      1.458      0.018     5.8146     68.137     43.261  42.641231     6.2467      7.262   181.6707 1.7327e+02     7.7799      1.428      2.070    24.3007 0.0000e+00
      1.465      0.021     5.7759     68.040     43.282  42.658386     6.2572      7.263   181.6500 1.7170e+02     7.7581      1.436      2.084    24.2928 0.0000e+00
      1.471      0.023     5.7471     68.029     43.269  42.641064     6.2757      7.265   181.6654 1.7036e+02     7.7585      1.442      2.092    24.2848 0.0000e+00
      1.476      0.025     5.7217     67.992     43.253  42.622194     6.3123      7.266   181.6851 1.6903e+02     7.7499      1.446      2.098    24.2807 0.0000e+00
      1.482      0.026     5.7004     67.847     43.253  42.620636     6.3421      7.268   181.7160 1.6803e+02     7.7572      1.453      2.107    24.2792 0.0000e+00
      1.488      0.028     5.6947     67.618     43.257  42.622221     6.3686      7.270   181.7799 1.6665e+02     7.7779      1.458      2.115    24.2737 0.0000e+00
      1.496      0.030     5.6978     67.308     43.280  42.641352     6.3757      7.272   181.9412 1.6503e+02     7.7612      1.468      2.129    24.2672 0.0000e+00
      1.504      0.032     5.6994     66.813     43.304  42.661537     6.3777      7.273   182.0314 1.6354e+02     7.7266      1.475      2.138    24.2640 0.0000e+00
      1.512      0.032     5.6846     66.039     43.323  42.675858     6.4179      7.273   181.9247 1.6154e+02     7.7344      1.482      2.149    24.2631 0.0000e+00
      1.522      0.031     5.6641     64.972     43.342  42.687557     6.4628      7.274   181.8555 1.5950e+02     7.7874      1.494      2.167    24.2606 0.0000e+00
      1.530      0.029     5.6446     63.689     43.337  42.676032     6.4877      7.276   181.9694 1.5761e+02     7.8210      1.502      2.177    24.2562 0.0000e+00
      1.538      0.026     5.6050     62.233     43.328  42.663445     6.5270      7.277   182.1829 1.5598e+02     7.7986      1.508      2.187    24.2522 0.0000e+00
      1.544      0.023     5.5428     60.629     43.328  42.662300     6.5715      7.279   182.3729 1.5451e+02     7.7560      1.516      2.199    24.2479 0.0000e+00
      1.549      0.020     5.4496     59.086     43.326  42.662195     6.5766      7.281   182.4602 1.5322e+02     7.7501      1.520      2.205    24.2401 0.0000e+00
      1.553      0.020     5.3414     57.885     43.323  42.662170     6.5804      7.281   182.5499 1.5265e+02     7.7955      1.522      2.208    24.2303 0.0000e+00
      1.556      0.021     5.2232     57.209     43.324  42.662014     6.6179      7.281   182.7685 1.5194e+02     7.8269      1.526      2.213    24.2243 0.0000e+00
      1.561      0.024     5.0801     57.064     43.328  42.660297     6.6635      7.282   182.9526 1.5044e+02     7.7884      1.529      2.218    24.2243 0.0000e+00
      1.568      0.028     4.9410     57.203     43.316  42.641400     6.6910      7.284   183.0544 1.4850e+02     7.7396      1.536      2.228    24.2285 0.0000e+00
      1.577      0.031     4.8348     57.289     43.305  42.623933     6.7001      7.284   183.2252 1.4627e+02     7.7154      1.546      2.243    24.2330 0.0000e+00
      1.587      0.031     4.7767     57.158     43.327  42.639513     6.7986      7.284   183.3823 1.4391e+02     7.7002      1.555      2.256    24.2323 0.0000e+00
      1.597      0.030     4.7736     56.789     43.333  42.639343     6.9918      7.284   183.4923 1.4193e+02     7.6586      1.567      2.272    24.2237 0.0000e+00
      1.605      0.028     4.7990     56.185     43.323  42.621877     7.1048      7.285   183.6084 1.4069e+02     7.5877      1.576      2.286    24.2148 0.0000e+00
      1.610      0.027     4.8105     55.368     43.327  42.618729     7.1162      7.285   183.7534 1.3993e+02     7.5266      1.579      2.292    24.2086 0.0000e+00
      1.614      0.025     4.7994     54.408     43.315  42.601277     7.1298      7.285   183.9549 1.3937e+02     7.4665      1.584      2.297    24.2009 0.0000e+00
      1.619      0.023     4.7696     53.392     43.319  42.601262     7.1775      7.287   184.0668 1.3837e+02     7.4076      1.586      2.300    24.1931 0.0000e+00
      1.627      0.023     4.7194     52.408     43.339  42.618546     7.2180      7.289   184.0729 1.3698e+02     7.3611      1.594      2.312    24.1849 0.0000e+00
      1.636      0.023     4.6492     51.552     43.339  42.619836     7.2294      7.290   184.1150 1.3640e+02     7.3484      1.606      2.329    24.1768 0.0000e+00
      1.641      0.023     4.5662     50.913     43.328  42.616875     7.2398      7.292   184.1461 1.3658e+02     7.3222      1.610      2.335    24.1698 0.0000e+00
      1.645      0.023     4.4798     50.587     43.281  42.582753     7.3928      7.294   184.1905 1.3624e+02     7.2828      1.612      2.338    24.1642 0.0000e+00
      1.650      0.022     4.3933     50.624     43.216  42.524632     7.6978      7.294   184.3935 1.3519e+02     7.3163      1.618      2.347    24.1622 0.0000e+00
      1.655      0.020     4.3205     51.106     43.175  42.485381     7.8815      7.293   184.6218 1.3417e+02     7.3522      1.623      2.354    24.1617 0.0000e+00
      1.661      0.019     4.2615     52.038     43.173  42.488998     7.9072      7.293   184.7143 1.3294e+02     7.3753      1.628      2.362    24.1694 0.0000e+00
      1.668      0.017     4.2324     53.107     43.176  42.504908     7.8924      7.293   184.7377 1.3152e+02     7.3902      1.638      2.376    24.1906 0.0000e+00
      1.673      0.015     4.2334     54.099     43.144  42.487350     7.8534      7.293   184.8175 1.3070e+02     7.3614      1.642      2.382    24.1979 0.0000e+00
      1.674      0.013     4.2678     55.138     43.114  42.467130     7.8431      7.291   185.0768 1.3011e+02     7.3692      1.642      2.381    24.1913 0.0000e+00
      1.675      0.013     4.3615     56.337     43.095  42.450868     7.8594      7.290   185.3784 1.2903e+02     7.3822      1.643      2.383    24.1993 0.0000e+00
      1.677      0.014     4.4583     57.610     43.070  42.417668     7.8338      7.289   185.6254 1.2774e+02     7.3476      1.645      2.386    24.2179 0.0000e+00
      1.681      0.016     4.5304     58.660     43.056  42.383046     7.7666      7.289   185.9121 1.2626e+02     7.2911      1.647      2.388    24.2347 0.0000e+00
      1.687      0.019     4.6139     59.113     43.049  42.349576     7.7216      7.289   186.1771 1.2445e+02     7.2807      1.653      2.397    24.2473 0.0000e+00
      1.694      0.020     4.7152     58.667     43.053  42.330298     7.7296      7.290   186.4205 1.2295e+02     7.3583      1.663      2.411    24.2526 0.0000e+00
      1.700      0.020     4.8330     57.147     43.082  42.340331     7.8221      7.290   186.5319 1.2179e+02     7.3757      1.667      2.418    24.2439 0.0000e+00
      1.705      0.019     4.9356     54.631     43.100  42.343906     7.9745      7.292   186.4922 1.2056e+02     7.2861      1.672      2.425    24.2159 0.0000e+00
      1.710      0.018     4.9852     51.479     43.075  42.310036     8.0572      7.294   186.6286 1.1966e+02     7.2317      1.677      2.434    24.1793 0.0000e+00
      1.713      0.016     4.9569     48.137     43.024  42.248151     8.0644      7.296   186.8902 1.1907e+02     7.2638      1.680      2.436    24.1521 0.0000e+00
      1.716      0.016     4.8294     44.992     42.962  42.166871     8.1368      7.297   186.9886 1.1818e+02     7.3323      1.682      2.439    24.1327 0.0000e+00
      1.721      0.016     4.6071     42.297     42.911  42.088887     8.2750      7.299   186.9576 1.1696e+02     7.3435      1.688      2.448    24.1155 0.0000e+00
      1.725      0.015     4.3286     39.974     42.920  42.066838     8.3544      7.301   186.9451 1.1606e+02     7.2961      1.693      2.455    24.1062 0.0000e+00
      1.729      0.014     4.0391     37.783     42.970  42.090647     8.3640      7.303   186.9240 1.1540e+02     7.2714      1.695      2.458    24.0964 0.0000e+00
      1.733      0.013     3.7648     35.578     43.015  42.122844     8.3497      7.305   186.9604 1.1458e+02     7.2847      1.700      2.465    24.0710 0.0000e+00
      1.737      0.013     3.5454     33.292     43.030  42.138765     8.3474      7.305   187.2132 1.1411e+02     7.3201      1.705      2.472    24.0371 0.0000e+00
      1.739      0.017     3.3630     31.061     42.974  42.092736     8.3609      7.304   187.4847 1.1413e+02     7.3241      1.706      2.474    23.9984 0.0000e+00
      1.739      0.025     3.1816     29.224     42.891  42.010614     8.3637      7.304   187.6630 1.1409e+02     7.2988      1.705      2.473    23.9648 0.0000e+00
      1.741      0.032     3.0017     28.117     42.866  41.970924     8.3566      7.304   187.8196 1.1312e+02     7.2877      1.705      2.472    23.9509 0.0000e+00
      1.751      0.037     2.8050     27.801     42.908  41.993641     8.3662      7.304   187.9166 1.1033e+02     7.4284      1.713      2.484    23.9543 0.0000e+00
      1.770      0.040     2.6033     27.808     42.957  42.031376     8.4132      7.305   187.9744 1.0690e+02     7.7355      1.736      2.517    23.9731 0.0000e+00
      1.787      0.040     2.4392     27.612     42.975  42.046346     8.4593      7.306   188.0018 1.0476e+02     7.8926      1.757      2.548    23.9772 0.0000e+00
      1.797      0.038     2.3394     27.186     42.975  42.047708     8.4658      7.306   188.0763 1.0380e+02     7.8932      1.765      2.559    23.9508 0.0000e+00
      1.802      0.034     2.3328     26.764     42.972  42.047841     8.3663      7.306   188.1859 1.0317e+02     8.1528      1.767      2.563    23.9247 0.0000e+00
      1.805      0.030     2.3570     26.504     42.974  42.047957     8.1884      7.306   188.2084 1.0218e+02     8.6748      1.768      2.565    23.9134 0.0000e+00
      1.811      0.027     2.3352     26.359     42.980  42.049113     8.1050      7.307   188.1766 1.0049e+02     8.9780      1.774      2.573    23.9104 0.0000e+00
      1.821      0.026     2.2914     26.199     42.998  42.061818     8.1154      7.309   188.1460 9.8829e+01     8.9835      1.787      2.592    23.9144 0.0000e+00
      1.831      0.025     2.2490     25.988     43.017  42.074626     8.1223      7.310   188.1829 9.7835e+01     8.7761      1.797      2.607    23.9208 0.0000e+00
      1.837      0.024     2.2302     25.835     43.024  42.077026     8.1141      7.311   188.2785 9.6901e+01     8.4166      1.801      2.612    23.9187 0.0000e+00
      1.842      0.021     2.2238     25.838     43.042  42.090821     8.0992      7.311   188.3555 9.5905e+01     8.2239      1.806      2.619    23.9113 0.0000e+00
      1.846      0.018     2.2115     25.924     43.068  42.114479     8.1003      7.312   188.4262 9.5356e+01     8.2566      1.812      2.627    23.9057 0.0000e+00
      1.849      0.016     2.1905     26.004     43.191  42.236128     8.1185      7.312   188.5298 9.4621e+01     8.4021      1.813      2.629    23.8994 0.0000e+00
      1.853      0.016     2.1714     26.068     43.572  42.609625     8.1368      7.313   188.6620 9.3543e+01     8.5824      1.816      2.634    23.8929 0.0000e+00
      1.858      0.017     2.1776     26.149     44.057  43.076060     8.1463      7.314   188.7337 9.2811e+01     8.6601      1.823      2.644    23.8878 0.0000e+00
      1.862      0.020     2.1877     26.369     44.379  43.369291     8.1335      7.314   188.7087 9.2266e+01     8.6933      1.826      2.649    23.8860 0.0000e+00
      1.866      0.023     2.1932     26.830     44.660  43.616137     8.0735      7.313   188.7044 9.1422e+01     9.1540      1.828      2.651    23.8881 0.0000e+00
      1.871      0.027     2.1997     27.637     44.845  43.775567     7.9790      7.313   188.7673 9.0335e+01     9.9603      1.834      2.660    23.8931 0.0000e+00
      1.878      0.031     2.2003     28.900     44.730  43.646583     7.9226      7.312   188.8668 8.9156e+01    10.3804      1.842      2.672    23.8900 0.0000e+00
      1.887      0.034     2.2183     30.625     44.544  43.453005     7.9165      7.312   188.9613 8.7615e+01    10.4075      1.849      2.682    23.8588 0.0000e+00
      1.899      0.035     2.2566     32.791     44.438  43.339238     7.9210      7.311   189.0494 8.5880e+01    10.3227      1.861      2.700    23.8223 0.0000e+00
      1.910      0.034     2.3193     35.187     44.396  43.286590     8.0525      7.310   189.1573 8.4607e+01    10.1412      1.875      2.720    23.8014 0.0000e+00
      1.918      0.031     2.4300     37.263     44.439  43.324208     8.3163      7.310   189.2335 8.3592e+01     9.8866      1.881      2.728    23.7802 0.0000e+00
      1.925      0.028     2.5754     38.630     44.526  43.413236     8.4641      7.310   189.2830 8.2626e+01     9.7037      1.888      2.737    23.7689 0.0000e+00
      1.931      0.025     2.7602     39.247     44.585  43.474396     8.4911      7.310   189.3252 8.1984e+01     9.6712      1.895      2.749    23.7617 0.0000e+00
      1.936      0.024     2.9881     39.177     44.666  43.555916     8.7096      7.310   189.3994 8.1330e+01     9.8019      1.897      2.753    23.7409 0.0000e+00
      1.941      0.025     3.1766     38.629     44.814  43.700675     9.1326      7.311   189.4921 8.0417e+01    10.0889      1.902      2.759    23.7348 0.0000e+00
      1.948      0.026     3.2873     37.905     44.817  43.701285     9.3783      7.312   189.5001 7.9507e+01    10.2380      1.911      2.772    23.7460 0.0000e+00
      1.954      0.027     3.3409     37.210     44.681  43.563287     9.4077      7.312   189.4959 7.8499e+01    10.2375      1.916      2.780    23.7507 0.0000e+00
      1.961      0.029     3.3279     36.756     44.546  43.428575     9.4044      7.312   189.6129 7.7283e+01    10.5615      1.922      2.788    23.7508 0.0000e+00
      1.971      0.029     3.2694     36.735     44.388  43.278475     9.3885      7.312   189.7109 7.6195e+01    11.1829      1.934      2.804    23.7527 0.0000e+00
      1.979      0.029     3.2052     37.055     44.246  43.144856     9.3904      7.312   189.7334 7.5315e+01    11.5343      1.942      2.815    23.7505 0.0000e+00
      1.985      0.031     3.1411     37.418     44.121  43.018993     9.4359      7.312   189.8856 7.4350e+01    11.5648      1.946      2.821    23.7416 0.0000e+00
      1.991      0.033     3.0927     37.543     44.019  42.899163     9.7556      7.311   190.0886 7.3357e+01    11.4833      1.953      2.834    23.7354 0.0000e+00
      1.998      0.034     3.0955     37.232     43.993  42.838468    10.3264      7.310   190.1230 7.2252e+01    11.3345      1.959      2.841    23.7433 0.0000e+00
      2.008      0.033     3.1324     36.299     44.047  42.856329    10.6351      7.309   190.0427 7.0607e+01    11.2690      1.967      2.853    23.7535 0.0000e+00
      2.022      0.032     3.1716     34.479     44.133  42.924649    10.6840      7.308   190.0649 6.9049e+01    11.3407      1.983      2.877    23.7516 0.0000e+00
      2.032      0.030     3.1894     31.708     44.174  42.966308    10.8420      7.308   190.2190 6.8323e+01    11.4162      1.996      2.895    23.7311 0.0000e+00
      2.037      0.028     3.1687     28.402     44.185  42.979200    11.1063      7.308   190.3573 6.7968e+01    11.4637      1.999      2.899    23.6815 0.0000e+00
      2.039      0.025     3.1037     25.299     44.227  43.017058    11.2488      7.307   190.4473 6.7483e+01    11.5046      1.999      2.900    23.6314 0.0000e+00
      2.044      0.021     2.9553     22.988     44.256  43.043212    11.2585      7.307   190.5325 6.6536e+01    11.5015      2.002      2.903    23.6175 0.0000e+00
      2.052      0.017     2.7054     21.552     44.251  43.041534    11.2736      7.308   190.6133 6.5406e+01    11.4950      2.013      2.920    23.6294 0.0000e+00
      2.060      0.015     2.4005     20.856     44.266  43.060249    11.5224      7.308   190.6490 6.4823e+01    11.5622      2.023      2.934    23.6330 0.0000e+00
      2.063      0.013     2.1157     20.891     44.279  43.079081    11.9947      7.308   190.6203 6.4510e+01    11.7329      2.024      2.935    23.6234 0.0000e+00
      2.063      0.011     1.9214     21.606     44.278  43.078818    12.2490      7.309   190.6102 6.4234e+01    11.8507      2.023      2.934    23.6221 0.0000e+00
      2.063      0.009     1.8078     22.729     44.259  43.057071    12.2585      7.310   190.6989 6.4155e+01    11.8253      2.023      2.934    23.6264 0.0000e+00
      2.064      0.009     1.7453     23.907     44.212  43.006552    12.2925      7.310   190.7468 6.3806e+01    11.8705      2.023      2.934    23.6306 0.0000e+00
      2.068      0.011     1.7480     24.830     44.188  42.975764    12.3679      7.311   190.7579 6.3112e+01    12.0213      2.027      2.940    23.6409 0.0000e+00
      2.072      0.013     1.8184     25.321     44.229  43.002168    12.4128      7.311   190.9203 6.2587e+01    12.1115      2.032      2.948    23.6440 0.0000e+00
      2.076      0.015     1.9252     25.391     44.246  43.008427    12.4365      7.311   191.1611 6.2192e+01    12.1410      2.035      2.952    23.6353 0.0000e+00
      2.079      0.017     2.0337     25.063     44.228  42.987950    12.6960      7.309   191.5188 6.1748e+01    12.4806      2.039      2.957    23.6322 0.0000e+00
      2.083      0.018     2.1200     24.398     44.257  43.008456    13.2032      7.308   191.9761 6.1252e+01    13.2118      2.044      2.963    23.6286 0.0000e+00
      2.087      0.019     2.1583     23.551     44.395  43.129412    13.5007      7.306   192.2161 6.0411e+01    13.7053      2.046      2.967    23.6064 0.0000e+00
      2.094      0.021     2.1648     22.487     44.990  43.688732    13.5381      7.306   192.3555 5.9374e+01    13.8023      2.053      2.976    23.5904 0.0000e+00
      2.101      0.026     2.1381     21.135     46.522  45.137511    13.5052      7.305   192.5433 5.8884e+01    13.9403      2.063      2.992    23.5970 0.0000e+00
      2.105      0.031     2.0717     19.662     48.308  46.808138    13.4275      7.303   192.5943 5.8467e+01    14.2113      2.063      2.992    23.5866 0.0000e+00
      2.110      0.035     2.0033     18.041     48.839  47.256102    13.4058      7.301   192.5417 5.7377e+01    14.3815      2.066      2.994    23.5669 0.0000e+00
      2.122      0.038     1.9219     15.901     48.297  46.681421    13.6506      7.300   192.5097 5.6098e+01    14.4607      2.081      3.017    23.5579 0.0000e+00
      2.137      0.039     1.7956     12.999     47.901  46.271586    16.2377      7.299   192.4652 5.5008e+01    14.6231      2.097      3.040    23.5192 0.0000e+00
      2.150      0.036     1.6724      9.578     47.744  46.109832    20.9482      7.299   192.4338 5.4066e+01    14.8069      2.108      3.058    23.4453 0.0000e+00
      2.160      0.031     1.5540      6.292     47.630  45.995279    23.5044      7.300   192.4738 5.3293e+01    14.8387      2.119      3.073    23.3669 0.0000e+00
      2.167      0.023     1.3813      3.639     47.732  46.092678    23.7488      7.300   192.4331 5.2861e+01    14.8034      2.126      3.085    23.3108 0.0000e+00
      2.170      0.016     1.1292      1.753     47.788  46.144805    23.9528      7.301   192.2862 5.2841e+01    14.8576      2.128      3.087    23.2881 0.0000e+00
      2.170      0.011     0.8106      0.653     47.499  45.863761    25.9041      7.301   192.1605 5.3024e+01    15.1861      2.129      3.086    23.2820 0.0000e+00
      2.171      0.007     0.5142      0.298     46.969  45.360807    29.4729      7.302   192.1168 5.3271e+01    15.7355      2.128      3.087    23.2768 0.0000e+00
      2.173      0.005     0.2885      0.552     46.387  44.824642    31.4044      7.302   192.1880 5.3626e+01    16.0348      2.131      3.090    23.2785 0.0000e+00
      2.176      0.003     0.1257      1.275     46.102  44.586313    31.4464      7.302   192.2471 5.4016e+01    16.0723      2.135      3.096    23.2777 0.0000e+00
      2.177      0.002     0.0327      2.378     46.186  44.700986    30.1973      7.302   192.2295 5.4302e+01    16.2577      2.136      3.098    23.2674 0.0000e+00
      2.176      0.001     0.0076      3.798     46.283  44.814691    27.9287      7.303   192.2334 5.4550e+01    16.6710      2.134      3.095    23.2738 0.0000e+00
      2.174     -0.001     0.0339      5.466     46.282  44.818549    26.7053      7.304   192.2074 5.4922e+01    16.9699      2.132      3.093    23.3062 0.0000e+00
      2.174     -0.002     0.0973      7.187     46.278  44.811116    26.5091      7.305   192.1736 5.5426e+01    17.0021      2.132      3.093    23.3510 0.0000e+00
      2.174     -0.001     0.1935      8.677     46.263  44.788293    25.5227      7.305   192.2550 5.5904e+01    16.7866      2.133      3.094    23.3926 0.0000e+00
      2.174      0.000     0.3150      9.806     46.282  44.796502    23.7520      7.305   192.3306 5.6213e+01    16.4137      2.133      3.094    23.4144 0.0000e+00
      2.173      0.002     0.4617     10.592     46.344  44.846877    22.8026      7.304   192.3139 5.6149e+01    16.2513      2.131      3.090    23.4159 0.0000e+00
      2.172      0.004     0.6208     11.048     46.328  44.826061    22.8246      7.303   192.3113 5.5864e+01    16.3607      2.129      3.088    23.4103 0.0000e+00
      2.174      0.005     0.7504     11.208     46.234  44.735232    23.8850      7.302   192.3848 5.5994e+01    16.6094      2.132      3.093    23.4011 0.0000e+00
      2.177      0.006     0.8440     11.131     46.198  44.700842    25.8350      7.302   192.4285 5.6622e+01    16.9352      2.135      3.097    23.3893 0.0000e+00
      2.181      0.009     0.9125     10.918     46.427  44.918074    27.0185      7.302   192.4098 5.7283e+01    17.1911      2.139      3.102    23.3777 0.0000e+00
      2.183      0.012     0.9495     10.727     46.867  45.330458    28.5474      7.302   192.4159 5.7745e+01    18.0977      2.141      3.105    23.3710 0.0000e+00
      2.184      0.015     0.9618     10.674     47.194  45.624293    44.2625      7.302   192.4169 5.7926e+01    27.6580      2.141      3.106    23.3737 0.0000e+00
      2.186      0.018     0.9525     10.702     47.400  45.804639    73.0228      7.302   192.4219 5.7916e+01    45.1313      2.142      3.107    23.3761 0.0000e+00
      2.192      0.020     0.9292     10.593     47.543  45.923962    88.6967      7.300   192.4764 5.7985e+01    54.7426      2.148      3.116    23.3745 0.0000e+00
      2.201      0.021     0.9079     10.162     47.566  45.924340    90.1417      7.299   192.5601 5.8326e+01    56.8287      2.159      3.132    23.3612 0.0000e+00
      2.209      0.020     0.9065      9.415     47.595  45.936131    90.5698      7.299   192.6596 5.8938e+01    70.3882      2.167      3.143    23.3282 0.0000e+00
      2.214      0.018     0.9159      8.535     47.671  46.003021    93.8979      7.301   192.7324 5.9594e+01    95.0665      2.171      3.150    23.3108 0.0000e+00
      2.218      0.017     0.9161      8.092     47.705  46.034805    96.9390      7.301   192.7527 6.0024e+01   107.3857      2.176      3.154    23.2964 0.0000e+00
      2.220 -9.990e-29     0.8756 -9.990e-29 -9.990e-29 -9.990e-29 -9.990e-29 -9.990e-29 -9.990e-29 6.0288e+01 -9.990e-29      2.178      3.157    23.2651 0.0000e+00
      2.222 -9.990e-29     0.8119 -9.990e-29 -9.990e-29 -9.990e-29 -9.990e-29 -9.990e-29 -9.990e-29 6.0587e+01 -9.990e-29      2.179      3.160    23.2465 0.0000e+00
      2.224 -9.990e-29     0.7187 -9.990e-29 -9.990e-29 -9.990e-29 -9.990e-29 -9.990e-29 -9.990e-29 6.0834e+01 -9.990e-29      2.181      3.163    23.2431 0.0000e+00
      2.224 -9.990e-29     0.6503 -9.990e-29 -9.990e-29 -9.990e-29 -9.990e-29 -9.990e-29 -9.990e-29 6.0914e+01 -9.990e-29      2.182      3.165    23.2439 0.0000e+00
