* Sea-Bird SBE19plus  Data File:
* FileName = C:\R\Reservoirs\Data\DataNotYetUploadedToEDI\Raw_CTD\RawDownloads\081423_fcr50_S7809_0004.hex
* Software version 2.8.0.119
* Temperature SN = 7809
* Conductivity SN = 7809
* System UpLoad Time = Aug 30 2023 10:55:02
* <ApplicationData>
* <Seaterm232>
* <SoftwareVersion>2.8.0.119</SoftwareVersion>
* <BuildDate>07-Nov-2018</BuildDate>
* </Seaterm232>
* </ApplicationData>
* <InstrumentState>
* <HardwareData DeviceType='SBE19plus' SerialNumber='01907809'>
*
*    <Manufacturer>Sea-Bird Electronics, Inc.</Manufacturer>
*
*    <FirmwareVersion>3.1.8</FirmwareVersion>
*
*    <FirmwareDate>Mar  9 2016 16:22:29</FirmwareDate>
*
*    <CommandSetVersion>1.4</CommandSetVersion>
*
*    <PCBAssembly PCBSerialNum='120721' AssemblyNum='41054J'/>
*
*    <PCBAssembly PCBSerialNum='120715' AssemblyNum='41967A'/>
*
*    <PCBAssembly PCBSerialNum='116699' AssemblyNum='41606'/>
*
*    <PCBAssembly PCBSerialNum='120719' AssemblyNum='41059D'/>
*
*    <MfgDate>28-Apr-2017</MfgDate>
*
*    <InternalSensors>
*
*       <Sensor id='Main Temperature'>
*
*          <type>temperature0</type>
*
*          <SerialNumber>01907809</SerialNumber>
*
*       </Sensor>
*
*       <Sensor id='Main Conductivity'>
*
*          <type>conductivity-0</type>
*
*          <SerialNumber>01907809</SerialNumber>
*
*       </Sensor>
*
*       <Sensor id='Main Pressure'>
*
*          <type>strain-0</type>
*
*          <SerialNumber>10586018</SerialNumber>
*
*       </Sensor>
*
*    </InternalSensors>
*
*    <ExternalSensors>
*
*       <Sensor id='volt 0'>
*
*          <type>pH</type>
*
*          <SerialNumber>27-0363</SerialNumber>
*
*       </Sensor>
*
*       <Sensor id='volt 1'>
*
*          <type>ORP</type>
*
*          <SerialNumber>27-0363</SerialNumber>
*
*       </Sensor>
*
*       <Sensor id='volt 2'>
*
*          <type>OXY</type>
*
*          <SerialNumber>43-0434</SerialNumber>
*
*       </Sensor>
*
*       <Sensor id='volt 3'>
*
*          <type>PAR</type>
*
*          <SerialNumber>1122</SerialNumber>
*
*       </Sensor>
*
*       <Sensor id='volt 4'>
*
*          <type>ECO AFL/FL</type>
*
*          <SerialNumber>FLNTURT-2496</SerialNumber>
*
*       </Sensor>
*
*       <Sensor id='volt 5'>
*
*          <type>ECO-NTU</type>
*
*          <SerialNumber>FLNTURT-2496</SerialNumber>
*
*       </Sensor>
*
*       <Sensor id='serial'>
*
*          <type>not assigned</type>
*
*          <SerialNumber>not assigned</SerialNumber>
*
*       </Sensor>
*
*    </ExternalSensors>
*
* </HardwareData>
* <StatusData DeviceType='SBE19plus' SerialNumber='01907809'>
*
*    <DateTime>2023-08-30T10:51:59</DateTime>
*
*    <LoggingState>not logging</LoggingState>
*
*    <EventSummary numEvents='0'/>
*
*    <Power>
*
*       <vMain>13.1</vMain>
*
*       <vLith>8.4</vLith>
*
*       <iMain>63.1</iMain>
*
*       <iPump>72.4</iPump>
*
*       <iExt01>19.8</iExt01>
*
*       <iExt2345>36.7</iExt2345>
*
*    </Power>
*
*    <MemorySummary>
*
*       <Bytes>203366</Bytes>
*
*       <Samples>8842</Samples>
*
*       <SamplesFree>2851946</SamplesFree>
*
*       <SampleLength>23</SampleLength>
*
*       <Profiles>6</Profiles>
*
*    </MemorySummary>
*
* </StatusData>
* <ConfigurationData DeviceType='SBE19plus' SerialNumber='01907809'>
*
*    <ProfileMode>
*
*       <ScansToAverage>1</ScansToAverage>
*
*       <MinimumCondFreq>0</MinimumCondFreq>
*
*       <PumpDelay>45</PumpDelay>
*
*       <AutoRun>no</AutoRun>
*
*       <IgnoreSwitch>no</IgnoreSwitch>
*
*    </ProfileMode>
*
*    <Battery>
*
*       <Type>alkaline</Type>
*
*       <CutOff>7.5</CutOff>
*
*    </Battery>
*
*    <DataChannels>
*
*       <ExtVolt0>yes</ExtVolt0>
*
*       <ExtVolt1>yes</ExtVolt1>
*
*       <ExtVolt2>yes</ExtVolt2>
*
*       <ExtVolt3>yes</ExtVolt3>
*
*       <ExtVolt4>yes</ExtVolt4>
*
*       <ExtVolt5>yes</ExtVolt5>
*
*       <SBE38>no</SBE38>
*
*       <WETLABS>no</WETLABS>
*
*       <OPTODE>no</OPTODE>
*
*       <SBE63>no</SBE63>
*
*       <SeaFET>no</SeaFET>
*
*       <GTD>no</GTD>
*
*    </DataChannels>
*
*    <EchoCharacters>yes</EchoCharacters>
*
*    <OutputExecutedTag>yes</OutputExecutedTag>
*
*    <OutputFormat>raw HEX</OutputFormat>
*
* </ConfigurationData>
* <CalibrationCoefficients DeviceType='SBE19plus' SerialNumber='01907809'>
*
*    <Calibration format='TEMP1' id='Main Temperature'>
*
*       <SerialNum>01907809</SerialNum>
*
*       <CalDate>31-Jan-23</CalDate>
*
*       <TA0>1.218232e-03</TA0>
*
*       <TA1>2.815090e-04</TA1>
*
*       <TA2>-1.578887e-06</TA2>
*
*       <TA3>1.972343e-07</TA3>
*
*       <TOFFSET>0.000000e+00</TOFFSET>
*
*    </Calibration>
*
*    <Calibration format='WBCOND0' id='Main Conductivity'>
*
*       <SerialNum>01907809</SerialNum>
*
*       <CalDate>31-Jan-23</CalDate>
*
*       <G>-1.005652e+00</G>
*
*       <H>1.267963e-01</H>
*
*       <I>-1.561708e-04</I>
*
*       <J>2.645944e-05</J>
*
*       <CPCOR>-9.570000e-08</CPCOR>
*
*       <CTCOR>3.250000e-06</CTCOR>
*
*       <CSLOPE>1.000000e+00</CSLOPE>
*
*    </Calibration>
*
*    <Calibration format='STRAIN0' id='Main Pressure'>
*
*       <SerialNum>10586018</SerialNum>
*
*       <CalDate>20-Jan-23</CalDate>
*
*       <PA0>4.416439e-02</PA0>
*
*       <PA1>4.850502e-04</PA1>
*
*       <PA2>-3.090426e-12</PA2>
*
*       <PTCA0>5.254757e+05</PTCA0>
*
*       <PTCA1>1.050255e+01</PTCA1>
*
*       <PTCA2>-2.922435e-01</PTCA2>
*
*       <PTCB0>2.516687e+01</PTCB0>
*
*       <PTCB1>3.750000e-04</PTCB1>
*
*       <PTCB2>0.000000e+00</PTCB2>
*
*       <PTEMPA0>-5.470820e+01</PTEMPA0>
*
*       <PTEMPA1>5.485421e+01</PTEMPA1>
*
*       <PTEMPA2>-3.446578e-01</PTEMPA2>
*
*       <POFFSET>8.500000e-01</POFFSET>
*
*       <PRANGE>1.600000e+02</PRANGE>
*
*    </Calibration>
*
*    <Calibration format='VOLT0' id='Volt 0'>
*
*       <OFFSET>-4.920000e-02</OFFSET>
*
*       <SLOPE>1.248122e+00</SLOPE>
*
*    </Calibration>
*
*    <Calibration format='VOLT0' id='Volt 1'>
*
*       <OFFSET>-4.784000e-02</OFFSET>
*
*       <SLOPE>1.248871e+00</SLOPE>
*
*    </Calibration>
*
*    <Calibration format='VOLT0' id='Volt 2'>
*
*       <OFFSET>-4.864632e-02</OFFSET>
*
*       <SLOPE>1.248714e+00</SLOPE>
*
*    </Calibration>
*
*    <Calibration format='VOLT0' id='Volt 3'>
*
*       <OFFSET>-4.743790e-02</OFFSET>
*
*       <SLOPE>1.248571e+00</SLOPE>
*
*    </Calibration>
*
*    <Calibration format='VOLT0' id='Volt 4'>
*
*       <OFFSET>-4.671263e-02</OFFSET>
*
*       <SLOPE>1.248951e+00</SLOPE>
*
*    </Calibration>
*
*    <Calibration format='VOLT0' id='Volt 5'>
*
*       <OFFSET>-4.871053e-02</OFFSET>
*
*       <SLOPE>1.249136e+00</SLOPE>
*
*    </Calibration>
*
*    <Calibration format='FREQ0' id='external frequency channel'>
*
*       <EXTFREQSF>1.000014e+00</EXTFREQSF>
*
*    </Calibration>
*
* </CalibrationCoefficients>
* <EventCounters DeviceType='SBE19plus' SerialNumber='01907809'>
*
*    <EventSummary numEvents='0'/>
*
* </EventCounters></InstrumentState>
* <Headers>
*
* cast   4 22 Aug 2023 13:10:39 samples 4960 to 5801, avg = 1, stop = mag switch
*
# nquan = 15
# nvalues = 842                         
# units = specified
# name 0 = depFM: Depth [fresh water, m]
# name 1 = dz/dtM: Descent Rate [m/s]
# name 2 = sbeox0Mg/L: Oxygen, SBE 43 [mg/l]
# name 3 = sbeox0PS: Oxygen, SBE 43 [% saturation]
# name 4 = specc: Specific Conductance [uS/cm]
# name 5 = c0uS/cm: Conductivity [uS/cm]
# name 6 = flECO-AFL: Fluorescence, WET Labs ECO-AFL/FL [mg/m^3]
# name 7 = ph: pH
# name 8 = orp: Oxidation Reduction Potential [mV]
# name 9 = par/sat/log: PAR/Logarithmic, Satlantic
# name 10 = turbWETntu0: Turbidity, WET Labs ECO [NTU]
# name 11 = prdM: Pressure, Strain Gauge [db]
# name 12 = prdE: Pressure, Strain Gauge [psi]
# name 13 = tv290C: Temperature [ITS-90, deg C]
# name 14 = flag:  0.000e+00
# span 0 =     -0.640,      9.489       
# span 1 =     -0.566,      0.207       
# span 2 =    -0.1046,    10.9661       
# span 3 =     -0.731,    136.327       
# span 4 =      0.712,    362.397       
# span 5 =   0.819041, 264.064249       
# span 6 =    -0.1469,    31.1095       
# span 7 =     -1.859,      9.366       
# span 8 = -1240.7455,   486.7431       
# span 9 = 1.2338e-01, 4.1161e+02       
# span 10 =     1.0168,   319.8263      
# span 11 =     -0.628,      9.306      
# span 12 =     -0.911,     13.496      
# span 13 =    11.4294,    32.5893      
# span 14 = 0.0000e+00, 0.0000e+00      
# interval = seconds: 0.25
# start_time = Aug 22 2023 13:10:39 [Instrument's time stamp, header]
# bad_flag = -9.990e-29
# <Sensors count="9" >
#   <sensor Channel="1" >
#     <!-- Count, Temperature -->
#     <TemperatureSensor SensorID="58" >
#       <SerialNumber>7809</SerialNumber>
#       <CalibrationDate>31-Jan-23</CalibrationDate>
#       <A0>1.21823180e-003</A0>
#       <A1>2.81508993e-004</A1>
#       <A2>-1.57888696e-006</A2>
#       <A3>1.97234302e-007</A3>
#       <Slope>1.00000000</Slope>
#       <Offset>0.0000</Offset>
#     </TemperatureSensor>
#   </sensor>
#   <sensor Channel="2" >
#     <!-- Frequency 0, Conductivity -->
#     <ConductivitySensor SensorID="3" >
#       <SerialNumber>7809</SerialNumber>
#       <CalibrationDate>31-Jan-23</CalibrationDate>
#       <UseG_J>1</UseG_J>
#       <!-- Cell const and series R are applicable only for wide range sensors. -->
#       <SeriesR>0.0000</SeriesR>
#       <CellConst>2000.0000</CellConst>
#       <ConductivityType>0</ConductivityType>
#       <Coefficients equation="0" >
#         <A>0.00000000e+000</A>
#         <B>0.00000000e+000</B>
#         <C>0.00000000e+000</C>
#         <D>0.00000000e+000</D>
#         <M>0.0</M>
#         <CPcor>-9.57000000e-008</CPcor>
#       </Coefficients>
#       <Coefficients equation="1" >
#         <G>-1.00565232e+000</G>
#         <H>1.26796307e-001</H>
#         <I>-1.56170788e-004</I>
#         <J>2.64594368e-005</J>
#         <CPcor>-9.57000000e-008</CPcor>
#         <CTcor>3.2500e-006</CTcor>
#         <!-- WBOTC not applicable unless ConductivityType = 1. -->
#         <WBOTC>0.00000000e+000</WBOTC>
#       </Coefficients>
#       <Slope>1.00000000</Slope>
#       <Offset>0.00000</Offset>
#     </ConductivitySensor>
#   </sensor>
#   <sensor Channel="3" >
#     <!-- Count, Pressure, Strain Gauge -->
#     <PressureSensor SensorID="46" >
#       <SerialNumber>7809</SerialNumber>
#       <CalibrationDate>20-Jan-23</CalibrationDate>
#       <PA0>4.41643944e-002</PA0>
#       <PA1>4.85050239e-004</PA1>
#       <PA2>-3.09042623e-012</PA2>
#       <PTEMPA0>-5.47081996e+001</PTEMPA0>
#       <PTEMPA1>5.48542136e+001</PTEMPA1>
#       <PTEMPA2>-3.44657813e-001</PTEMPA2>
#       <PTCA0>5.25475731e+005</PTCA0>
#       <PTCA1>1.05025484e+001</PTCA1>
#       <PTCA2>-2.92243463e-001</PTCA2>
#       <PTCB0>2.51668750e+001</PTCB0>
#       <PTCB1>3.75000000e-004</PTCB1>
#       <PTCB2>0.00000000e+000</PTCB2>
#       <Offset>0.000000</Offset>
#     </PressureSensor>
#   </sensor>
#   <sensor Channel="4" >
#     <!-- A/D voltage 0, Oxygen, SBE 43 -->
#     <OxygenSensor SensorID="38" >
#       <SerialNumber>0434</SerialNumber>
#       <CalibrationDate>18-Feb-23</CalibrationDate>
#       <Use2007Equation>1</Use2007Equation>
#       <CalibrationCoefficients equation="0" >
#         <!-- Coefficients for Owens-Millard equation. -->
#         <Boc>0.0000</Boc>
#         <Soc>0.0000e+000</Soc>
#         <offset>0.0000</offset>
#         <Pcor>0.00e+000</Pcor>
#         <Tcor>0.0000</Tcor>
#         <Tau>0.0</Tau>
#       </CalibrationCoefficients>
#       <CalibrationCoefficients equation="1" >
#         <!-- Coefficients for Sea-Bird equation - SBE calibration in 2007 and later. -->
#         <Soc>5.1878e-001</Soc>
#         <offset>-0.5046</offset>
#         <A>-4.2788e-003</A>
#         <B> 1.5372e-004</B>
#         <C>-2.1853e-006</C>
#         <D0> 2.5826e+000</D0>
#         <D1> 1.92634e-004</D1>
#         <D2>-4.64803e-002</D2>
#         <E> 3.6000e-002</E>
#         <Tau20> 0.9900</Tau20>
#         <H1>-3.3000e-002</H1>
#         <H2> 5.0000e+003</H2>
#         <H3> 1.4500e+003</H3>
#       </CalibrationCoefficients>
#     </OxygenSensor>
#   </sensor>
#   <sensor Channel="5" >
#     <!-- A/D voltage 1, PAR/Logarithmic, Satlantic -->
#     <PARLog_SatlanticSensor SensorID="76" >
#       <SerialNumber>1122</SerialNumber>
#       <CalibrationDate>08-Sep-2021</CalibrationDate>
#       <a0>9.6751e-001</a0>
#       <a1>8.0992e-001</a1>
#       <Im>1.3589e+000</Im>
#       <Multiplier>1.0000e+000</Multiplier>
#     </PARLog_SatlanticSensor>
#   </sensor>
#   <sensor Channel="6" >
#     <!-- A/D voltage 2, pH -->
#     <pH_Sensor SensorID="43" >
#       <SerialNumber>0363</SerialNumber>
#       <CalibrationDate>28-Feb-23</CalibrationDate>
#       <Slope>4.7364</Slope>
#       <Offset>2.5433</Offset>
#     </pH_Sensor>
#   </sensor>
#   <sensor Channel="7" >
#     <!-- A/D voltage 3, Oxidation Reduction Potential -->
#     <OxidationReductionPotentialSensor SensorID="41" >
#       <SerialNumber>0363</SerialNumber>
#       <CalibrationDate>28-Feb-23</CalibrationDate>
#       <B>2.499480</B>
#       <M>-0.496195</M>
#       <Offset>0.0</Offset>
#     </OxidationReductionPotentialSensor>
#   </sensor>
#   <sensor Channel="8" >
#     <!-- A/D voltage 4, Fluorometer, WET Labs ECO-AFL/FL -->
#     <FluoroWetlabECO_AFL_FL_Sensor SensorID="20" >
#       <SerialNumber>FLNTURT-2496</SerialNumber>
#       <CalibrationDate>02-Sep-2021</CalibrationDate>
#       <ScaleFactor>4.80000000e+001</ScaleFactor>
#       <!-- Dark output -->
#       <Vblank>0.0550</Vblank>
#     </FluoroWetlabECO_AFL_FL_Sensor>
#   </sensor>
#   <sensor Channel="9" >
#     <!-- A/D voltage 5, Turbidity Meter, WET Labs, ECO-NTU -->
#     <TurbidityMeter SensorID="67" >
#       <SerialNumber>FLNTURT--2496</SerialNumber>
#       <CalibrationDate>02-Sep-2021</CalibrationDate>
#       <ScaleFactor>197.000000</ScaleFactor>
#       <!-- Dark output -->
#       <DarkVoltage>0.070000</DarkVoltage>
#     </TurbidityMeter>
#   </sensor>
# </Sensors>
# datcnv_date = Aug 30 2023 15:20:39, 7.26.7.129 [datcnv_vars = 14]
# datcnv_in = C:\R\Reservoirs\Data\DataNotYetUploadedToEDI\Raw_CTD\RawDownloads\082223_fcr50_S7809004.hex C:\R\Reservoirs\Data\DataNotYetUploadedToEDI\Raw_CTD\RawDownloads\SBE19plusV2_7809_start20230701.xmlcon
# datcnv_skipover = 0
# datcnv_ox_hysteresis_correction = yes
# datcnv_ox_tau_correction = yes
# filter_date = Aug 30 2023 15:21:09, 7.26.7.129
# filter_in = C:\R\Reservoirs\Data\DataNotYetUploadedToEDI\Raw_CTD\RawDownloads\082223_fcr50_S7809004.cnv
# filter_low_pass_tc_A = 0.030
# filter_low_pass_tc_B = 0.150
# filter_low_pass_A_vars = sbeox0Mg/L prdM prdE tv290C
# filter_low_pass_B_vars = depFM dz/dtM sbeox0PS specc c0uS/cm flECO-AFL ph orp par/sat/log turbWETntu0
# alignctd_date = Aug 30 2023 15:21:43, 7.26.7.129
# alignctd_in = C:\R\Reservoirs\Data\DataNotYetUploadedToEDI\Raw_CTD\RawDownloads\082223_fcr50_S7809004.cnv
# alignctd_adv = dz/dtM 1.000, sbeox0PS 1.000, specc 1.000, c0uS/cm 1.000, flECO-AFL 1.000, ph 1.000, orp 1.000, turbWETntu0 1.000                                                                                                   
# file_type = ascii
*END*
     -0.640 4.4624e-49     6.8166     94.229      0.780   0.898683    -0.0780     -1.852 -1240.7455 3.6566e+02     1.3633     -0.627     -0.910    32.5893 0.0000e+00
     -0.640 4.9086e-48     6.8140     94.238      0.780   0.898469    -0.0755     -1.852 -1240.7455 3.6584e+02     1.3694     -0.627     -0.910    32.5833 0.0000e+00
     -0.640 5.3995e-47     6.8147     94.253      0.778   0.896735    -0.0803     -1.852 -1240.7455 3.7001e+02     1.3888     -0.627     -0.910    32.5776 0.0000e+00
     -0.640 5.9394e-46     6.8176     94.272      0.762   0.877719    -0.0694     -1.852 -1240.7455 3.7913e+02     1.4274     -0.627     -0.910    32.5743 0.0000e+00
     -0.640 6.5334e-45     6.8166     94.297      0.746   0.858562    -0.0686     -1.853 -1240.7455 3.9459e+02     1.3919     -0.627     -0.910    32.5713 0.0000e+00
     -0.640 7.1867e-44     6.8184     94.302      0.743   0.855123    -0.0874     -1.854 -1240.7455 4.0402e+02     1.3015     -0.627     -0.910    32.5666 0.0000e+00
     -0.640 7.9054e-43     6.8206     94.313      0.727   0.836140    -0.0894     -1.854 -1240.7455 3.9772e+02     1.2910     -0.628     -0.911    32.5611 0.0000e+00
     -0.640 8.6959e-42     6.8210     94.339      0.712   0.819041    -0.0837     -1.855 -1240.7455 3.9530e+02     1.3334     -0.627     -0.910    32.5547 0.0000e+00
     -0.640 9.5655e-41     6.8280     94.341      0.729   0.838395    -0.0937     -1.855 -1240.7455 4.0442e+02     1.3018     -0.627     -0.910    32.5368 0.0000e+00
     -0.640 1.0522e-39     6.8291     94.347      0.766   0.880133    -0.0938     -1.855 -1240.7455 4.1161e+02     1.2848     -0.627     -0.910    32.5097 0.0000e+00
     -0.640 1.1574e-38     6.8316     94.366      0.821   0.943675    -0.0850     -1.855 -1240.7455 4.1039e+02     1.3323     -0.627     -0.910    32.4867 0.0000e+00
     -0.640 1.2732e-37     6.8386     94.361      0.903   1.036638    -0.0870     -1.856 -1240.7455 4.0449e+02     1.3630     -0.627     -0.910    32.4725 0.0000e+00
     -0.640 1.4005e-36     6.8370     94.341      0.973   1.117409    -0.0840     -1.856 -1240.7455 3.9866e+02     1.3490     -0.627     -0.910    32.4644 0.0000e+00
     -0.640 1.5405e-35     6.8381     94.325      1.010   1.160223    -0.0824     -1.856 -1240.7455 3.9667e+02     1.3004     -0.627     -0.910    32.4569 0.0000e+00
     -0.640 1.6946e-34     6.8424     94.300      1.022   1.174273    -0.0839     -1.856 -1240.7455 4.0162e+02     1.2878     -0.628     -0.911    32.4496 0.0000e+00
     -0.640 1.8640e-33     6.8419     94.262      1.011   1.160601    -0.0782     -1.857 -1240.7455 4.0284e+02     1.2645     -0.627     -0.910    32.4439 0.0000e+00
     -0.640 2.0504e-32     6.8404     94.222      0.977   1.121593    -0.0801     -1.857 -1240.7455 3.9358e+02     1.1206     -0.628     -0.911    32.4373 0.0000e+00
     -0.640 2.2555e-31     6.8407     94.179      0.943   1.082660    -0.0811     -1.857 -1240.7455 3.8464e+02     1.0168     -0.628     -0.911    32.4288 0.0000e+00
     -0.640 2.4810e-30     6.8405     94.145      0.932   1.069890    -0.0660     -1.857 -1240.7455 3.7999e+02     1.0685     -0.627     -0.910    32.4205 0.0000e+00
     -0.640 2.7291e-29     6.8373     94.102      0.953   1.093875    -0.0639     -1.857 -1240.7455 3.7717e+02     1.1659     -0.627     -0.909    32.4119 0.0000e+00
     -0.640 3.0021e-28     6.8368     94.014      0.975   1.119307    -0.0806     -1.858 -1240.7455 3.7615e+02     1.2373     -0.627     -0.910    32.4017 0.0000e+00
     -0.640 3.3023e-27     6.8338     93.919      0.979   1.124027    -0.0852     -1.858 -1240.7455 3.7328e+02     1.2824     -0.627     -0.910    32.3922 0.0000e+00
     -0.640 3.6325e-26     6.8320     93.837      1.003   1.150941    -0.0773     -1.858 -1240.7455 3.6657e+02     1.3356     -0.627     -0.911    32.3856 0.0000e+00
     -0.640 3.9957e-25     6.8327     93.767      1.039   1.191372    -0.0767     -1.858 -1240.7455 3.5609e+02     1.3346     -0.628     -0.910    32.3801 0.0000e+00
     -0.639 4.3953e-24     6.8236     93.728      1.074   1.232848    -0.0782     -1.858 -1240.7455 3.3984e+02     1.3040     -0.627     -0.909    32.3741 0.0000e+00
     -0.639 4.8349e-23     6.8175     93.696      1.109   1.272394    -0.0706     -1.858 -1240.7455 3.1574e+02     1.3425     -0.627     -0.910    32.3695 0.0000e+00
     -0.639 5.3183e-22     6.8126     93.641      1.124   1.289485    -0.0678     -1.858 -1240.7455 2.7808e+02     1.3898     -0.627     -0.909    32.3666 0.0000e+00
     -0.639 5.8502e-21     6.8061     93.582      1.145   1.312818    -0.0695     -1.858 -1240.7455 2.3136e+02     1.3638     -0.627     -0.910    32.3642 0.0000e+00
     -0.639 6.4352e-20     6.8049     93.549      1.190   1.364496    -0.0744     -1.859 -1240.7455 1.9612e+02     1.3006     -0.627     -0.909    32.3617 0.0000e+00
     -0.639 7.0787e-19     6.8039     93.526      1.227   1.407603    -0.0774     -1.859 -1240.7455 1.7781e+02     1.3085     -0.627     -0.910    32.3586 0.0000e+00
     -0.639 7.7866e-18     6.7998     93.493      1.212   1.390653    -0.0637     -1.859 -1240.7455 1.6830e+02     1.3568     -0.627     -0.910    32.3544 0.0000e+00
     -0.639 8.5652e-17     6.7946     93.466      1.177   1.349576    -0.0583     -1.859 -1240.7455 1.6451e+02     1.3727     -0.627     -0.910    32.3487 0.0000e+00
     -0.639 9.4218e-16     6.7938     93.436      1.181   1.354312    -0.0629     -1.859 -1240.7455 1.6340e+02     1.3977     -0.627     -0.910    32.3425 0.0000e+00
     -0.639 1.0364e-14     6.7941     93.404      1.208   1.384578    -0.0600     -1.859 -1240.7455 1.6075e+02     1.4204     -0.627     -0.910    32.3368 0.0000e+00
     -0.639 1.1400e-13     6.7908     93.388      1.220   1.398822    -0.0739     -1.859 -1240.7455 1.5559e+02     1.3741     -0.626     -0.909    32.3313 0.0000e+00
     -0.639 1.2540e-12     6.7899     93.360      1.221   1.399858    -0.0980     -1.859 -1240.7455 1.5283e+02     1.3164     -0.627     -0.909    32.3264 0.0000e+00
     -0.639 1.3794e-11     6.7891     93.318      1.218   1.397104    -0.0940     -1.859 -1240.7455 1.5462e+02     1.3379     -0.627     -0.909    32.3223 0.0000e+00
     -0.639 1.5174e-10     6.7848     93.300      1.191   1.365525    -0.0667     -1.859 -1240.7455 1.5476e+02     1.3597     -0.626     -0.909    32.3188 0.0000e+00
     -0.639 1.6691e-09     6.7862     93.295      1.164   1.334728    -0.0590     -1.858 -1240.7455 1.5242e+02     1.3063     -0.627     -0.909    32.3172 0.0000e+00
     -0.639 1.8360e-08     6.7842     93.289      1.170   1.341439    -0.0764     -1.858 -1240.7451 1.5376e+02     1.2738     -0.626     -0.909    32.3174 0.0000e+00
     -0.639 2.0196e-07     6.7781     93.274      1.150   1.319996    -0.0847     -1.858 -1240.7414 1.6024e+02     1.2741     -0.626     -0.909    32.3219 0.0000e+00
     -0.639      0.000     6.7776     93.249      1.102   1.265484    -0.0760     -1.857 -1240.7009 1.7172e+02     1.2758     -0.627     -0.909    32.3312 0.0000e+00
     -0.639      0.000     6.7753     93.233      1.091   1.252387    -0.0713     -1.857 -1240.2547 1.8681e+02     1.2942     -0.626     -0.909    32.3456 0.0000e+00
     -0.639      0.000     6.7734     93.221      1.233   1.414991    -0.0856     -1.854 -1235.3465 2.0233e+02     1.2917     -0.626     -0.909    32.3616 0.0000e+00
     -0.639      0.003     6.7709     93.206      2.822   3.231516    -0.0911     -1.825 -1181.3567 2.1714e+02     1.3144     -0.626     -0.909    32.3761 0.0000e+00
     -0.638      0.013     6.7672     93.224      7.999   9.089168    -0.0715     -1.501  -587.4692 2.3089e+02     1.3636     -0.626     -0.908    32.3830 0.0000e+00
     -0.638      0.033     6.7650     93.305     18.644  20.854366    -0.0658     -0.051   306.7138 2.4680e+02     1.3745     -0.626     -0.908    32.3955 0.0000e+00
     -0.637      0.066     6.7649     93.435     31.911  35.114273    -0.0802      2.604   486.7431 2.6749e+02     1.5140     -0.628     -0.910    32.3983 0.0000e+00
     -0.628      0.108     6.7599     93.570     40.328  43.688868    -0.0532      5.126   293.6697 2.8790e+02     3.3230     -0.625     -0.906    32.4137 0.0000e+00
     -0.599      0.150     6.7630     93.855     42.771  45.669956     0.4276      6.785   264.7100 3.0251e+02    23.5554     -0.595     -0.864    32.3960 0.0000e+00
     -0.547      0.184     6.8524     94.409     43.296  45.737778     1.3210      7.810   254.0375 3.1427e+02    60.6555     -0.543     -0.788    31.6588 0.0000e+00
     -0.477      0.204     7.0294     94.954     43.561  45.714235     1.8018      8.440   245.8505 3.2757e+02    80.6870     -0.472     -0.684    30.2829 0.0000e+00
     -0.402      0.207     7.1739     95.355     43.776  45.765714     1.8967      8.830   238.8547 3.3987e+02    80.7468     -0.389     -0.564    29.1556 0.0000e+00
     -0.341      0.192     7.2916     95.723     44.009  45.915580     2.7092      9.066   231.6580 3.4842e+02    61.9251     -0.327     -0.473    28.3053 0.0000e+00
     -0.298      0.164     7.4288     96.015     44.254  46.129541     4.2265      9.206   226.8939 3.5424e+02    27.1583     -0.291     -0.422    27.7272 0.0000e+00
     -0.268      0.132     7.5150     96.192     44.448  46.321257     5.0686      9.286   224.1858 3.5807e+02     8.1950     -0.261     -0.379    27.4214 0.0000e+00
     -0.244      0.102     7.5625     96.309     44.564  46.456120     5.1431      9.329   221.4560 3.6036e+02     6.4452     -0.236     -0.343    27.2342 0.0000e+00
     -0.224      0.079     7.6103     96.371     44.623  46.554026     5.1513      9.353   218.8396 3.6267e+02     6.2063     -0.220     -0.319    27.1417 0.0000e+00
     -0.207      0.062     7.6402     96.383     44.639  46.616339     5.1678      9.364   218.0193 3.6590e+02     6.0920     -0.202     -0.293    27.0992 0.0000e+00
     -0.192      0.047     7.6514     96.383     44.626  46.638266     5.1852      9.366   218.5064 3.7012e+02     6.0537     -0.188     -0.272    27.0941 0.0000e+00
     -0.181      0.035     7.6601     96.382     44.595  46.628751     5.2121      9.361   217.8463 3.7412e+02     6.0849     -0.176     -0.255    27.1053 0.0000e+00
     -0.175      0.025     7.6594     96.428     44.515  46.564807     5.2094      9.353   216.2333 3.7532e+02     6.0594     -0.170     -0.246    27.1529 0.0000e+00
     -0.174      0.017     7.6481     96.484     44.379  46.436506     5.1780      9.347   214.5764 3.7402e+02     5.9168     -0.170     -0.247    27.2157 0.0000e+00
     -0.173      0.011     7.6457     96.427     44.231  46.283654     5.1733      9.343   213.3855 3.7374e+02     5.7953     -0.169     -0.246    27.2529 0.0000e+00
     -0.172      0.008     7.6394     96.296     44.076  46.113298     5.1866      9.339   212.8470 3.7641e+02     5.7859     -0.168     -0.244    27.2725 0.0000e+00
     -0.169      0.006     7.6393     96.172     43.948  45.963756     5.1975      9.334   212.5398 3.8083e+02     5.8369     -0.165     -0.240    27.2972 0.0000e+00
     -0.167      0.006     7.6499     96.060     43.874  45.872109     5.2134      9.328   211.9948 3.8498e+02     5.9341     -0.163     -0.237    27.3169 0.0000e+00
     -0.165      0.005     7.6400     95.926     43.840  45.830418     5.2289      9.319   209.2687 3.8793e+02     6.0735     -0.162     -0.233    27.3182 0.0000e+00
     -0.163      0.004     7.6294     95.565     43.850  45.840543     5.2347      9.307   205.2187 3.8966e+02     6.1894     -0.160     -0.231    27.3084 0.0000e+00
     -0.163      0.003     7.6218     94.538     43.877  45.867574     5.2415      9.292   204.0672 3.8848e+02     6.2763     -0.160     -0.232    27.2874 0.0000e+00
     -0.163      0.002     7.6180     93.399     43.914  45.903326     5.2443      9.277   204.8955 3.8294e+02     6.3049     -0.160     -0.231    27.2659 0.0000e+00
     -0.163      0.002     7.6075     94.178     43.968  45.955411     5.2273      9.262   204.6509 3.7715e+02     6.1931     -0.160     -0.232    27.2611 0.0000e+00
     -0.162      0.002     7.6018     97.886     44.005  45.989486     5.2014      9.248   202.6593 3.7477e+02     6.0523     -0.159     -0.231    27.2640 0.0000e+00
     -0.162      0.002     7.5199    102.896     44.020  45.997908     5.1818      9.236   200.0021 3.7380e+02     6.0033     -0.159     -0.230    27.2636 0.0000e+00
     -0.161      0.003     7.3432    106.685     44.023  45.993741     5.1978      9.226   199.0229 3.7187e+02     6.0098     -0.159     -0.230    27.2584 0.0000e+00
     -0.160      0.003     7.3654    108.339     44.035  46.002576     5.2453      9.216   199.5950 3.6917e+02     6.0625     -0.156     -0.227    27.2531 0.0000e+00
     -0.159      0.003     7.7202    108.484     44.071  46.041251     5.2658      9.206   200.0375 3.6767e+02     6.1285     -0.155     -0.225    27.2483 0.0000e+00
     -0.159      0.003     8.2139    107.719     44.106  46.080464     5.2548      9.195   199.7270 3.6791e+02     6.1240     -0.156     -0.226    27.2406 0.0000e+00
     -0.158      0.003     8.5358    106.042     44.118  46.095819     5.2444      9.185   199.0237 3.6833e+02     6.0770     -0.155     -0.225    27.2307 0.0000e+00
     -0.156      0.003     8.6341    103.436     44.118  46.099953     5.2478      9.179   198.4177 3.6698e+02     6.0728     -0.153     -0.222    27.2261 0.0000e+00
     -0.155      0.003     8.6277    100.456     44.142  46.130458     5.2637      9.174   197.9059 3.6428e+02     6.1069     -0.152     -0.221    27.2289 0.0000e+00
     -0.155      0.004     8.5698     97.718     44.212  46.210739     5.2702      9.170   197.3094 3.6348e+02     6.1479     -0.152     -0.221    27.2315 0.0000e+00
     -0.155      0.005     8.4472     95.418     44.298  46.308857     5.2422      9.167   196.8845 3.6629e+02     6.1242     -0.152     -0.221    27.2341 0.0000e+00
     -0.154      0.005     8.2142     93.461     44.344  46.364589     5.2005      9.164   196.8982 3.7221e+02     6.0254     -0.152     -0.220    27.2407 0.0000e+00
     -0.152      0.005     7.9576     91.781     44.354  46.376747     5.1904      9.160   197.3022 3.7831e+02     6.0125     -0.149     -0.216    27.2469 0.0000e+00
     -0.148      0.005     7.7368     90.579     44.372  46.392373     5.2038      9.155   197.7262 3.8178e+02     6.0709     -0.145     -0.210    27.2525 0.0000e+00
     -0.147      0.004     7.5559     90.003     44.407  46.426553     5.2036      9.148   196.2596 3.8321e+02     6.0478     -0.144     -0.208    27.2647 0.0000e+00
     -0.147      0.003     7.4060     89.896     44.447  46.472603     5.1967      9.142   193.4211 3.8299e+02     5.9725     -0.144     -0.209    27.2761 0.0000e+00
     -0.147      0.001     7.2620     89.984     44.470  46.504788     5.2122      9.137   192.1443 3.8232e+02     5.9462     -0.144     -0.209    27.2761 0.0000e+00
     -0.147      0.001     7.1615     90.059     44.456  46.498318     5.2409      9.132   192.6953 3.8147e+02     6.0037     -0.143     -0.208    27.2700 0.0000e+00
     -0.147      0.001     7.1235     90.021     44.412  46.457863     5.2612      9.127   193.8026 3.7971e+02     6.0859     -0.144     -0.209    27.2659 0.0000e+00
     -0.147      0.002     7.1227     89.829     44.352  46.396554     5.2828      9.121   192.7126 3.7918e+02     6.1204     -0.144     -0.209    27.2692 0.0000e+00
     -0.147      0.003     7.1346     89.519     44.288  46.328366     5.3018      9.115   189.5831 3.7963e+02     6.0791     -0.144     -0.209    27.2803 0.0000e+00
     -0.146      0.003     7.1406     89.202     44.233  46.268222     5.2909      9.109   188.4861 3.7956e+02     5.9973     -0.143     -0.208    27.2924 0.0000e+00
     -0.144      0.003     7.1386     88.886     44.211  46.240693     5.2847      9.103   189.1713 3.7904e+02     5.9849     -0.142     -0.204    27.2991 0.0000e+00
     -0.142      0.003     7.1229     88.473     44.224  46.249429     5.3096      9.097   189.0920 3.7779e+02     6.0999     -0.140     -0.202    27.2994 0.0000e+00
     -0.142      0.002     7.0935     87.979     44.227  46.246886     5.3255      9.092   187.9579 3.7740e+02     6.2609     -0.139     -0.202    27.2972 0.0000e+00
     -0.142      0.002     7.0679     87.563     44.198  46.209932     5.3192      9.089   186.7296 3.7940e+02     6.3254     -0.139     -0.201    27.2941 0.0000e+00
     -0.142      0.001     7.0493     87.429     44.179  46.183487     5.3084      9.086   186.2006 3.8211e+02     6.2993     -0.139     -0.202    27.2897 0.0000e+00
     -0.142      0.000     7.0161     87.743     44.183  46.181065     5.3115      9.084   186.1211 3.8337e+02     6.2869     -0.139     -0.202    27.2843 0.0000e+00
     -0.142      0.000     6.9726     88.542     44.188  46.180638     5.3234      9.083   186.6298 3.8429e+02     6.3121     -0.140     -0.203    27.2773 0.0000e+00
     -0.141      0.000     6.9351     89.719     44.191  46.178321     5.3266      9.080   187.3611 3.8649e+02     6.3305     -0.139     -0.202    27.2691 0.0000e+00
     -0.141      0.001     6.9195     91.041     44.171  46.153042     5.3266      9.078   187.3049 3.8857e+02     6.3040     -0.138     -0.201    27.2610 0.0000e+00
     -0.141      0.001     6.9450     92.292     44.151  46.128908     5.3232      9.076   186.5520 3.8921e+02     6.1973     -0.139     -0.202    27.2540 0.0000e+00
     -0.141      0.001     7.0111     93.393     44.165  46.140440     5.3185      9.075   185.7438 3.8876e+02     6.0647     -0.138     -0.200    27.2481 0.0000e+00
     -0.141      0.000     7.1133     94.287     44.192  46.165508     5.3104      9.071   186.2230 3.8826e+02     6.0338     -0.138     -0.200    27.2426 0.0000e+00
     -0.141 1.8614e-08     7.2261     94.871     44.206  46.178072     5.3087      9.066   187.6996 3.8727e+02     6.0631     -0.137     -0.199    27.2375 0.0000e+00
     -0.141 2.0475e-07     7.3264     95.131     44.196  46.165383     5.3155      9.062   188.1101 3.8465e+02     6.0429     -0.138     -0.200    27.2336 0.0000e+00
     -0.141 2.0475e-07     7.4148     95.170     44.172  46.139045     5.3011      9.058   187.4008 3.8029e+02     5.9944     -0.138     -0.201    27.2299 0.0000e+00
     -0.141 1.8614e-08     7.4909     95.110     44.149  46.113550     5.2926      9.055   186.6949 3.7487e+02     5.9899     -0.138     -0.200    27.2269 0.0000e+00
     -0.141 1.6947e-09     7.5383     95.077     44.146  46.111041     5.2953      9.052   186.6308 3.7094e+02     6.0215     -0.137     -0.199    27.2246 0.0000e+00
     -0.141 1.8205e-10     7.5546     95.118     44.141  46.108713     5.2921      9.049   186.8835 3.6991e+02     6.0687     -0.138     -0.200    27.2222 0.0000e+00
     -0.141 3.2442e-10     7.5560     95.173     44.117  46.085409     5.3038      9.047   186.7393 3.7014e+02     6.0486     -0.139     -0.201    27.2190 0.0000e+00
     -0.141 3.4161e-09     7.5466     95.188     44.114  46.083195     5.3124      9.046   186.2637 3.7041e+02     5.8811     -0.138     -0.200    27.2174 0.0000e+00
     -0.141 3.7563e-08     7.5420     95.173     44.114  46.081936     5.3042      9.043   185.7796 3.7041e+02     5.7170     -0.138     -0.200    27.2200 0.0000e+00
     -0.141 4.1319e-07     7.5481     95.157     44.105  46.070186     5.2970      9.041   185.3604 3.7005e+02     5.7046     -0.138     -0.200    27.2225 0.0000e+00
     -0.141      0.000     7.5537     95.151     44.105  46.068087     5.3165      9.039   184.8944 3.6970e+02     5.9022     -0.139     -0.201    27.2243 0.0000e+00
     -0.141      0.000     7.5542     95.164     44.096  46.056554     5.3562      9.038   184.2752 3.6985e+02     6.1591     -0.138     -0.200    27.2256 0.0000e+00
     -0.141      0.001     7.5516     95.176     44.100  46.057699     5.3700      9.036   183.5518 3.7053e+02     6.2477     -0.139     -0.201    27.2244 0.0000e+00
     -0.140      0.001     7.5514     95.176     44.126  46.081936     5.3662      9.034   183.4611 3.7148e+02     6.2571     -0.138     -0.200    27.2220 0.0000e+00
     -0.140      0.002     7.5500     95.165     44.141  46.095670     5.3682      9.031   183.7812 3.7223e+02     6.2379     -0.137     -0.198    27.2184 0.0000e+00
     -0.140      0.002     7.5527     95.092     44.143  46.096800     5.3693      9.027   183.3785 3.7240e+02     6.1520     -0.137     -0.199    27.2153 0.0000e+00
     -0.140      0.002     7.5551     94.935     44.142  46.095594     5.3722      9.024   182.2914 3.7263e+02     6.0727     -0.137     -0.199    27.2128 0.0000e+00
     -0.139      0.002     7.5534     94.704     44.131  46.081077     5.3700      9.020   181.0484 3.7393e+02     6.0308     -0.136     -0.197    27.2096 0.0000e+00
     -0.138      0.002     7.5563     94.426     44.104  46.048235     5.3594      9.016   181.4266 3.7618e+02     5.9871     -0.135     -0.196    27.2074 0.0000e+00
     -0.136      0.003     7.5507     94.211     44.079  46.015910     5.3521      9.010   183.4229 3.7739e+02     5.9881     -0.134     -0.194    27.2069 0.0000e+00
     -0.136      0.003     7.5370     94.132     44.075  46.007626     5.3564      9.003   184.3644 3.7728e+02     6.0778     -0.134     -0.194    27.2064 0.0000e+00
     -0.136      0.003     7.5205     94.090     44.080  46.011551     5.3701      8.995   183.6909 3.7676e+02     6.1146     -0.134     -0.194    27.2033 0.0000e+00
     -0.136      0.003     7.4944     93.906     44.068  45.999883     5.3753      8.988   182.5067 3.7531e+02     6.0576     -0.133     -0.193    27.1974 0.0000e+00
     -0.135      0.003     7.4746     93.521     44.061  45.993514     5.3525      8.982   182.7798 3.7445e+02     6.0037     -0.132     -0.192    27.1909 0.0000e+00
     -0.133      0.003     7.4733     93.075     44.065  45.998025     5.3197      8.979   184.5843 3.7467e+02     5.9750     -0.130     -0.188    27.1848 0.0000e+00
     -0.131      0.003     7.4765     92.790     44.060  45.990942     5.3122      8.978   185.3960 3.7506e+02     5.9845     -0.129     -0.187    27.1828 0.0000e+00
     -0.131      0.002     7.4642     92.787     44.044  45.971349     5.3202      8.976   184.9357 3.7634e+02     6.0151     -0.129     -0.187    27.1857 0.0000e+00
     -0.131      0.001     7.4282     93.028     44.027  45.951565     5.3161      8.973   184.0955 3.7793e+02     6.0724     -0.128     -0.186    27.1877 0.0000e+00
     -0.131      0.000     7.3853     93.394     44.020  45.942175     5.2873      8.970   183.4100 3.7963e+02     6.1644     -0.129     -0.187    27.1866 0.0000e+00
     -0.131 2.0783e-08     7.3594     93.791     44.002  45.921296     5.2555      8.968   183.4453 3.8148e+02     6.2396     -0.128     -0.186    27.1844 0.0000e+00
     -0.131 2.2861e-07     7.3610     94.137     43.973  45.889556     5.2561      8.966   183.9200 3.8314e+02     6.2982     -0.128     -0.186    27.1815 0.0000e+00
     -0.131 2.6248e-07     7.3853     94.388     43.962  45.875811     5.2776      8.965   184.4179 3.8497e+02     6.3598     -0.129     -0.187    27.1795 0.0000e+00
     -0.131 4.3028e-07     7.4159     94.497     43.970  45.882065     5.2992      8.965   182.8403 3.8630e+02     6.4387     -0.128     -0.186    27.1770 0.0000e+00
     -0.131      0.000     7.4511     94.399     43.991  45.901682     5.3087      8.963   179.9879 3.8728e+02     6.5008     -0.129     -0.187    27.1747 0.0000e+00
     -0.131      0.000     7.4796     94.153     44.011  45.922557     5.2927      8.960   179.6135 3.8791e+02     6.4961     -0.129     -0.187    27.1733 0.0000e+00
     -0.131      0.001     7.4998     93.868     44.030  45.944023     5.2811      8.957   180.9805 3.8795e+02     6.4844     -0.128     -0.186    27.1703 0.0000e+00
     -0.131      0.001     7.5139     93.606     44.052  45.970789     5.3010      8.952   182.3200 3.8851e+02     6.4960     -0.128     -0.186    27.1671 0.0000e+00
     -0.131      0.001     7.5028     93.410     44.067  45.992266     5.3250      8.948   181.0096 3.8933e+02     6.4988     -0.128     -0.186    27.1644 0.0000e+00
     -0.130      0.001     7.4796     93.293     44.081  46.013256     5.3303      8.943   177.0969 3.9013e+02     6.4840     -0.127     -0.185    27.1637 0.0000e+00
     -0.130      0.001     7.4557     93.208     44.094  46.034146     5.3315      8.937   175.1921 3.9088e+02     6.4205     -0.127     -0.185    27.1668 0.0000e+00
     -0.130      0.001     7.4330     93.118     44.106  46.054416     5.3480      8.931   176.0472 3.9131e+02     6.3445     -0.127     -0.185    27.1714 0.0000e+00
     -0.130      0.001     7.4154     92.993     44.112  46.067914     5.3721      8.927   177.5410 3.9203e+02     6.2827     -0.127     -0.185    27.1776 0.0000e+00
     -0.130      0.002     7.4076     92.745     44.108  46.070399     5.3817      8.924   177.4213 3.9290e+02     6.2547     -0.128     -0.185    27.1853 0.0000e+00
     -0.130      0.002     7.4008     92.311     44.115  46.084474     5.3558      8.922   175.5468 3.9351e+02     6.2796     -0.127     -0.184    27.1938 0.0000e+00
     -0.129      0.003     7.3916     91.685     44.133  46.111135     5.3168      8.921   174.3218 3.9364e+02     6.2757     -0.126     -0.183    27.2027 0.0000e+00
     -0.128      0.003     7.3851     90.878     44.152  46.138845     5.3099      8.918   174.3974 3.9328e+02     6.2763     -0.125     -0.182    27.2107 0.0000e+00
     -0.126      0.003     7.3655     89.897     44.170  46.165610     5.3218      8.914   175.6005 3.9286e+02     6.3216     -0.124     -0.180    27.2187 0.0000e+00
     -0.126      0.002     7.3302     88.778     44.177  46.180834     5.3188      8.910   177.0812 3.9226e+02     6.2765     -0.123     -0.179    27.2262 0.0000e+00
     -0.125      0.002     7.2791     87.610     44.182  46.195963     5.2914      8.907   177.1577 3.9098e+02     6.1402     -0.123     -0.178    27.2337 0.0000e+00
     -0.125      0.001     7.2136     86.427     44.197  46.221590     5.2569      8.902   176.0945 3.8961e+02     6.0400     -0.123     -0.178    27.2425 0.0000e+00
     -0.125      0.001     7.1350     85.249     44.203  46.236775     5.2415      8.898   175.0671 3.8840e+02     6.0224     -0.123     -0.178    27.2522 0.0000e+00
     -0.125      0.000     7.0400     84.098     44.209  46.252617     5.2476      8.896   176.6101 3.8685e+02     6.0635     -0.122     -0.178    27.2623 0.0000e+00
     -0.125      0.000     6.9465     82.974     44.233  46.286188     5.2727      8.895   180.2100 3.8572e+02     6.0584     -0.123     -0.178    27.2729 0.0000e+00
     -0.125      0.000     6.8513     81.965     44.262  46.325279     5.2943      8.895   180.6497 3.8491e+02     5.9947     -0.123     -0.178    27.2837 0.0000e+00
     -0.125      0.001     6.7541     81.112     44.272  46.344387     5.2923      8.895   178.2264 3.8369e+02     5.9764     -0.122     -0.177    27.2939 0.0000e+00
     -0.125      0.001     6.6650     80.345     44.248  46.326797     5.2993      8.895   176.9804 3.8239e+02     6.0428     -0.122     -0.178    27.3037 0.0000e+00
     -0.125      0.002     6.5695     79.617     44.218  46.303051     5.3199      8.894   178.1459 3.8094e+02     6.1138     -0.122     -0.177    27.3139 0.0000e+00
     -0.125      0.003     6.4868     78.941     44.220  46.311220     5.3259      8.894   180.4453 3.7963e+02     6.1168     -0.122     -0.177    27.3240 0.0000e+00
     -0.124      0.004     6.4223     78.374     44.202  46.298613     5.3130      8.895   181.2933 3.7888e+02     6.0454     -0.121     -0.176    27.3335 0.0000e+00
     -0.122      0.005     6.3609     77.923     44.116  46.214112     5.2970      8.898   180.0531 3.7828e+02     5.9686     -0.120     -0.174    27.3429 0.0000e+00
     -0.120      0.009     6.3030     77.536     44.018  46.114786     5.2990      8.903   178.1843 3.7782e+02     6.0431     -0.118     -0.171    27.3511 0.0000e+00
     -0.119      0.014     6.2453     77.130     43.959  46.049892     5.3128      8.910   177.1953 3.7714e+02     6.2279     -0.117     -0.170    27.3575 0.0000e+00
     -0.118      0.021     6.2004     76.670     43.923  46.000808     5.3227      8.913   177.4733 3.7619e+02     6.3241     -0.117     -0.170    27.3643 0.0000e+00
     -0.113      0.031     6.1649     76.234     43.905  45.965668     5.3183      8.903   178.1043 3.7376e+02     6.2839     -0.112     -0.163    27.3721 0.0000e+00
     -0.104      0.040     6.1363     75.877     43.893  45.942392     5.2843      8.882   178.0275 3.5111e+02     6.2537     -0.103     -0.149    27.3776 0.0000e+00
     -0.091      0.049     6.1071     75.545     43.862  45.909804     5.2441      8.857   175.9435 3.0782e+02     6.3342     -0.091     -0.133    27.3742 0.0000e+00
     -0.075      0.056     6.0677     75.162     43.845  45.889048     5.2409      8.832   172.6952 2.7791e+02     6.4383     -0.075     -0.108    27.3619 0.0000e+00
     -0.057      0.061     6.0341     74.760     43.846  45.881873     5.2624      8.812   171.3607 2.6495e+02     6.5217     -0.055     -0.079    27.3372 0.0000e+00
     -0.041      0.062     6.0094     74.397     43.856  45.886517     5.2617      8.798   172.3709 2.5340e+02     6.5572     -0.040     -0.057    27.3208 0.0000e+00
     -0.025      0.061     5.9857     74.030     43.853  45.881711     5.2416      8.787   173.8099 2.3931e+02     6.4570     -0.026     -0.037    27.3304 0.0000e+00
     -0.010      0.059     5.9545     73.676     43.677  45.696799     5.2354      8.777   172.3264 2.2806e+02     6.3014     -0.008     -0.012    27.3297 0.0000e+00
      0.005      0.058     5.9196     74.161     43.436  45.428171     5.2450      8.770   168.5448 2.2421e+02     6.2812      0.006      0.009    27.3128 0.0000e+00
      0.019      0.059     5.8963     78.069     43.429  45.363340     5.2577      8.764   166.9765 2.1994e+02     6.3494      0.019      0.027    27.3079 0.0000e+00
      0.032      0.061     5.8661     87.336     43.509  45.357207     5.2565      8.759   167.9043 2.1502e+02     6.4427      0.032      0.046    27.3056 0.0000e+00
      0.046      0.062     5.8338     99.920     43.526  45.290405     5.2472      8.759   169.4387 2.1046e+02     6.5896      0.043      0.063    27.3063 0.0000e+00
      0.064      0.063     5.7870    112.263     43.552  45.253766     5.2527      8.762   169.6967 2.0272e+02     6.6573      0.061      0.088    27.3091 0.0000e+00
      0.083      0.063     5.9987    122.414     43.576  45.231510     5.2566      8.767   168.4431 1.9385e+02     6.6462      0.083      0.121    27.2391 0.0000e+00
      0.100      0.062     6.8466    129.708     43.589  45.211670     5.2523      8.773   167.6175 1.8825e+02     6.6258      0.099      0.144    27.1102 0.0000e+00
      0.115      0.062     7.9876    134.252     43.603  45.204263     5.2510      8.779   168.0601 1.8493e+02     6.5477      0.113      0.164    27.0104 0.0000e+00
      0.129      0.063     9.0162    136.327     43.616  45.205397     5.2408      8.784   169.0618 1.8021e+02     6.4532      0.128      0.185    26.9406 0.0000e+00
      0.143      0.065     9.8601    136.126     43.638  45.225367     5.2366      8.790   170.0069 1.7496e+02     6.4049      0.139      0.202    26.8865 0.0000e+00
      0.158      0.070    10.4378    134.318     43.661  45.255268     5.2760      8.795   170.7114 1.6971e+02     6.4422      0.153      0.222    26.8496 0.0000e+00
      0.178      0.075    10.7942    132.038     43.646  45.249546     5.3423      8.798   170.9553 1.6334e+02     6.5286      0.173      0.251    26.8266 0.0000e+00
      0.199      0.079    10.9661    130.108     43.606  45.219680     5.3724      8.798   171.0629 1.5703e+02     6.5615      0.194      0.282    26.8110 0.0000e+00
      0.222      0.080    10.9323    128.744     43.596  45.211561     5.3662      8.798   172.3564 1.5177e+02     6.5327      0.217      0.314    26.8085 0.0000e+00
      0.246      0.079    10.7455    127.824     43.604  45.214867     5.3587      8.798   174.8077 1.4672e+02     6.4872      0.242      0.351    26.8173 0.0000e+00
      0.266      0.078    10.5371    127.139     43.594  45.196159     5.3565      8.798   176.1800 1.4256e+02     6.4897      0.262      0.381    26.8304 0.0000e+00
      0.284      0.075    10.3772    126.579     43.582  45.175795     5.3649      8.796   176.0428 1.3956e+02     6.5297      0.278      0.403    26.8471 0.0000e+00
      0.300      0.072    10.2712    126.123     43.576  45.159065     5.3676      8.794   175.6437 1.3641e+02     6.5258      0.294      0.426    26.8514 0.0000e+00
      0.318      0.070    10.2084    125.790     43.551  45.120823     5.3557      8.792   176.1727 1.3201e+02     6.4425      0.311      0.452    26.8401 0.0000e+00
      0.338      0.069    10.1568    125.612     43.544  45.094258     5.3465      8.789   177.4483 1.2786e+02     6.3090      0.333      0.482    26.8308 0.0000e+00
      0.356      0.068    10.1140    125.534     43.568  45.091752     5.3474      8.785   178.0756 1.2464e+02     6.2432      0.350      0.508    26.8239 0.0000e+00
      0.372      0.068    10.0800    125.460     43.591  45.090487     5.3585      8.780   178.0785 1.2120e+02     6.2616      0.364      0.529    26.8096 0.0000e+00
      0.389      0.068    10.0527    125.371     43.595  45.078918     5.3644      8.772   178.0860 1.1820e+02     6.2577      0.381      0.553    26.7983 0.0000e+00
      0.405      0.071    10.0443    125.305     43.602  45.078802     5.3523      8.764   178.1661 1.1560e+02     6.2654      0.398      0.577    26.7792 0.0000e+00
      0.421      0.076    10.0489    125.283     43.616  45.089077     5.3448      8.756   178.1872 1.1255e+02     6.3545      0.412      0.598    26.7408 0.0000e+00
      0.440      0.081    10.0487    125.286     43.607  45.076179     5.3565      8.748   178.0830 1.0881e+02     6.4806      0.431      0.624    26.7094 0.0000e+00
      0.461      0.085    10.0429    125.257     43.587  45.049805     5.3776      8.743   177.8520 1.0472e+02     6.5609      0.451      0.655    26.6924 0.0000e+00
      0.487      0.085    10.0383    125.123     43.569  45.024090     5.4093      8.739   177.5452 1.0051e+02     6.4711      0.477      0.692    26.6851 0.0000e+00
      0.514      0.082    10.0375    124.923     43.570  45.019168     5.4477      8.736   177.6430 9.6725e+01     6.2829      0.506      0.734    26.6838 0.0000e+00
      0.537      0.075    10.0396    124.778     43.547  44.990286     5.4669      8.736   178.0875 9.4006e+01     6.1984      0.529      0.767    26.6794 0.0000e+00
      0.555      0.067    10.0425    124.718     43.433  44.865304     5.4750      8.737   178.1020 9.2028e+01     6.2348      0.546      0.792    26.6718 0.0000e+00
      0.568      0.060    10.0323    124.655     43.249  44.650600     5.4969      8.738   177.6458 9.0588e+01     6.2796      0.560      0.812    26.6611 0.0000e+00
      0.578      0.054    10.0117    124.470     43.090  44.425536     5.5146      8.736   177.0454 8.9430e+01     6.1926      0.567      0.822    26.6560 0.0000e+00
      0.588      0.051    10.0008    124.130     43.067  44.302176     5.5228      8.731   177.7262 8.7714e+01     6.0371      0.575      0.833    26.6507 0.0000e+00
      0.602      0.049     9.9985    123.675     43.175  44.301472     5.5295      8.729   179.6831 8.5716e+01     5.9713      0.590      0.856    26.6502 0.0000e+00
      0.618      0.047    10.0023    123.208     43.300  44.353367     5.5455      8.729   180.5725 8.3875e+01     6.0116      0.606      0.879    26.6294 0.0000e+00
      0.633      0.045    10.0000    122.929     43.322  44.358242     5.5826      8.731   179.9611 8.2526e+01     6.0805      0.622      0.902    26.5603 0.0000e+00
      0.644      0.044     9.9933    122.913     43.239  44.296910     5.6040      8.733   179.0027 8.1919e+01     6.0528      0.633      0.919    26.4375 0.0000e+00
      0.650      0.044     9.9837    122.988     43.182  44.246609     5.6045      8.733   179.3954 8.1189e+01     5.9496      0.637      0.924    26.2810 0.0000e+00
      0.657      0.046     9.9555    123.038     43.185  44.194404     5.6553      8.732   181.0954 7.9944e+01     5.9261      0.643      0.932    26.1828 0.0000e+00
      0.667      0.051     9.9313    123.114     43.206  44.109941     5.7611      8.728   182.2624 7.8370e+01     6.0086      0.653      0.948    26.1693 0.0000e+00
      0.682      0.057     9.9294    123.247     43.253  44.050377     5.8266      8.723   182.5792 7.6487e+01     6.0923      0.668      0.969    26.2222 0.0000e+00
      0.700      0.062     9.9329    123.440     43.329  44.045334     5.8226      8.719   182.5171 7.4582e+01     6.0843      0.686      0.995    26.2607 0.0000e+00
      0.719      0.065     9.9453    123.689     43.387  44.048845     5.8050      8.715   181.5970 7.2721e+01     6.0144      0.704      1.021    26.1860 0.0000e+00
      0.738      0.066     9.9795    123.967     43.398  44.029269     5.7883      8.712   180.3165 7.0848e+01     5.9644      0.724      1.050    26.0355 0.0000e+00
      0.755      0.066    10.0138    124.250     43.382  43.999023     5.7694      8.707   180.7150 6.9298e+01     5.9919      0.742      1.076    25.9037 0.0000e+00
      0.770      0.067    10.0464    124.513     43.328  43.937017     5.7686      8.701   182.1139 6.8136e+01     6.0749      0.755      1.095    25.8101 0.0000e+00
      0.784      0.068    10.0797    124.728     43.258  43.850827     5.7784      8.695   180.8828 6.6844e+01     6.1132      0.768      1.113    25.7469 0.0000e+00
      0.800      0.070    10.1084    124.827     43.220  43.782041     5.7879      8.690   177.4444 6.5129e+01     6.1125      0.783      1.136    25.7138 0.0000e+00
      0.820      0.070    10.1356    124.749     43.210  43.740028     5.8000      8.689   175.9036 6.3296e+01     6.1352      0.803      1.164    25.7005 0.0000e+00
      0.841      0.070    10.1559    124.502     43.216  43.723639     5.8090      8.689   176.8797 6.1576e+01     6.1828      0.826      1.197    25.7031 0.0000e+00
      0.862      0.070    10.1793    124.155     43.217  43.710800     5.8220      8.688   178.4917 6.0170e+01     6.2444      0.847      1.228    25.6876 0.0000e+00
      0.879      0.070    10.1979    123.790     43.226  43.711714     5.8654      8.684   178.1853 5.9103e+01     6.2989      0.863      1.251    25.6437 0.0000e+00
      0.893      0.071    10.1982    123.431     43.255  43.734680     5.9256      8.677   175.9285 5.8091e+01     6.2956      0.875      1.269    25.6034 0.0000e+00
      0.908      0.071    10.1813    123.128     43.262  43.734583     5.9496      8.670   174.6075 5.6975e+01     6.2722      0.889      1.289    25.5781 0.0000e+00
      0.926      0.071    10.1515    122.953     43.248  43.710529     5.9561      8.664   174.5177 5.5483e+01     6.2893      0.906      1.315    25.5626 0.0000e+00
      0.949      0.070    10.1244    122.911     43.248  43.697720     6.1384      8.660   175.1007 5.3723e+01     6.3657      0.929      1.349    25.5541 0.0000e+00
      0.972      0.069    10.0948    123.008     43.266  43.706634     6.4882      8.659   176.0642 5.2251e+01     6.4792      0.955      1.385    25.5486 0.0000e+00
      0.990      0.067    10.0672    123.258     43.253  43.691348     6.6817      8.658   176.1858 5.1375e+01     6.4995      0.974      1.412    25.5417 0.0000e+00
      1.002      0.065    10.0567    123.595     43.208  43.639840     6.7057      8.656   175.7977 5.0811e+01     6.4405      0.983      1.426    25.5290 0.0000e+00
      1.013      0.063    10.0564    123.895     43.173  43.591645     6.8700      8.654   175.6734 5.0011e+01     6.5183      0.991      1.438    25.5115 0.0000e+00
      1.028      0.062    10.0648    124.085     43.152  43.552917     7.1867      8.652   175.6286 4.8930e+01     6.7223      1.007      1.460    25.4999 0.0000e+00
      1.047      0.064    10.0874    124.235     43.167  43.552395     7.3646      8.650   176.9769 4.7874e+01     6.8236      1.026      1.488    25.5018 0.0000e+00
      1.066      0.068    10.1194    124.449     43.212  43.585300     7.3881      8.648   179.3280 4.7069e+01     6.7858      1.045      1.518    25.4995 0.0000e+00
      1.084      0.071    10.1508    124.678     43.210  43.569915     7.3881      8.646   180.1367 4.6472e+01     6.7093      1.063      1.542    25.4795 0.0000e+00
      1.100      0.073    10.1683    124.835     43.149  43.493302     7.3813      8.644   179.4418 4.5910e+01     6.6843      1.078      1.563    25.4565 0.0000e+00
      1.119      0.075    10.1776    124.910     43.097  43.420637     7.3808      8.640   178.4973 4.5411e+01     6.7568      1.097      1.591    25.4400 0.0000e+00
      1.139      0.075    10.2013    124.901     43.096  43.389498     7.3813      8.638   179.0414 4.5004e+01     6.8344      1.117      1.619    25.4263 0.0000e+00
      1.159      0.075    10.2264    124.850     43.109  43.370648     7.3881      8.638   180.9438 4.4576e+01     6.8024      1.135      1.647    25.4114 0.0000e+00
      1.180      0.072    10.2411    124.875     43.081  43.319628     7.4122      8.638   181.7099 4.4121e+01     6.6098      1.157      1.678    25.3948 0.0000e+00
      1.201      0.066    10.2517    125.013     43.054  43.280357     7.4491      8.640   181.0773 4.3788e+01     6.3839      1.179      1.711    25.3747 0.0000e+00
      1.218      0.060    10.2582    125.145     43.055  43.276644     7.4764      8.642   180.2645 4.3628e+01     6.3259      1.196      1.735    25.3368 0.0000e+00
      1.231      0.054    10.2566    125.128     43.065  43.274726     7.4844      8.644   179.9701 4.3569e+01     6.3184      1.209      1.752    25.2926 0.0000e+00
      1.242      0.048    10.2622    124.947     43.072  43.257153     7.4708      8.646   180.1846 4.3532e+01     6.2250      1.219      1.767    25.2658 0.0000e+00
      1.251      0.047    10.2810    124.730     43.038  43.191081     7.4363      8.648   180.4493 4.3416e+01     6.1529      1.226      1.778    25.2517 0.0000e+00
      1.261      0.050    10.2964    124.537     42.995  43.110522     7.4163      8.648   180.5032 4.3171e+01     6.1980      1.236      1.793    25.2536 0.0000e+00
      1.272      0.055    10.2979    124.354     42.971  43.044738     7.4380      8.649   180.3193 4.2735e+01     6.3261      1.248      1.809    25.2467 0.0000e+00
      1.286      0.060    10.2833    124.236     42.932  42.966872     7.5324      8.650   179.7753 4.1949e+01     6.5414      1.260      1.827    25.2084 0.0000e+00
      1.304      0.064    10.2705    124.251     42.864  42.867183     7.6662      8.650   179.2597 4.0825e+01     6.8190      1.278      1.854    25.1740 0.0000e+00
      1.325      0.068    10.2652    124.378     42.752  42.727958     7.7164      8.650   179.2482 3.9668e+01     6.9507      1.300      1.885    25.1316 0.0000e+00
      1.344      0.073    10.2577    124.522     42.616  42.552895     7.7062      8.648   179.2917 3.8641e+01     6.9725      1.320      1.914    25.0778 0.0000e+00
      1.360      0.077    10.2533    124.523     42.456  42.337213     7.7840      8.644   179.1827 3.7654e+01     7.0138      1.334      1.934    25.0323 0.0000e+00
      1.376      0.078    10.2632    124.143     42.338  42.151111     7.9332      8.643   179.3937 3.6494e+01     7.0394      1.346      1.953    24.9930 0.0000e+00
      1.398      0.077    10.2810    123.179     42.342  42.079789     8.0041      8.643   179.8642 3.5106e+01     7.0093      1.369      1.986    24.9722 0.0000e+00
      1.423      0.074    10.3042    121.422     42.374  42.045970     7.9924      8.644   179.9674 3.3830e+01     6.9232      1.397      2.026    24.9287 0.0000e+00
      1.446      0.069    10.3267    118.590     42.374  41.995986     7.9324      8.644   179.5231 3.2915e+01     6.8868      1.421      2.061    24.8569 0.0000e+00
      1.463      0.064    10.3166    114.692     42.399  41.983124     7.8373      8.644   178.9657 3.2293e+01     6.8763      1.437      2.084    24.7778 0.0000e+00
      1.474      0.059    10.2572    110.114     42.461  42.017334     7.7825      8.641   179.5085 3.1743e+01     6.8305      1.445      2.096    24.6797 0.0000e+00
      1.484      0.057    10.1414    105.345     42.484  42.028772     7.7771      8.635   181.2679 3.1057e+01     6.7772      1.454      2.109    24.5961 0.0000e+00
      1.496      0.060     9.9147    100.840     42.474  41.994462     7.7891      8.627   182.6869 3.0248e+01     6.7107      1.466      2.126    24.5459 0.0000e+00
      1.510      0.067     9.5825     96.910     42.535  41.983282     7.8852      8.618   183.1566 2.9320e+01     6.8120      1.480      2.146    24.5014 0.0000e+00
      1.528      0.074     9.1955     93.500     42.677  42.020417     8.0660      8.607   183.1619 2.8171e+01     7.1134      1.496      2.170    24.4594 0.0000e+00
      1.551      0.079     8.7806     89.792     42.820  42.062493     8.1684      8.593   183.2671 2.6920e+01     7.2795      1.521      2.206    24.4606 0.0000e+00
      1.576      0.082     8.3991     84.992     42.963  42.111060     8.1832      8.577   183.9116 2.5754e+01     7.2835      1.547      2.244    24.4600 0.0000e+00
      1.598      0.084     8.0774     79.127     43.114  42.163226     8.2608      8.559   185.9655 2.4733e+01     7.3665      1.569      2.276    24.3607 0.0000e+00
      1.618      0.085     7.8452     72.359     43.244  42.185331     8.4078      8.539   189.2578 2.3842e+01     7.5655      1.588      2.303    24.2163 0.0000e+00
      1.637      0.085     7.5875     64.664     43.362  42.187768     8.4962      8.519   191.4544 2.2970e+01     7.7089      1.605      2.328    24.1071 0.0000e+00
      1.657      0.085     7.1789     55.887     43.497  42.192534     8.5138      8.501   190.9279 2.2050e+01     7.7348      1.625      2.356    24.0069 0.0000e+00
      1.680      0.083     6.7001     46.311     43.622  42.179300     8.5378      8.486   189.9479 2.1094e+01     7.8788      1.647      2.388    23.8948 0.0000e+00
      1.705      0.078     6.1406     36.935     43.717  42.154506     8.5776      8.472   191.1339 2.0154e+01     8.1511      1.672      2.425    23.7727 0.0000e+00
      1.730      0.068     5.5117     28.472     43.784  42.146459     8.6044      8.460   192.9635 1.9418e+01     8.3289      1.699      2.465    23.6469 0.0000e+00
      1.749      0.057     4.7838     21.180     43.806  42.145366     8.6116      8.451   194.7756 1.8990e+01     8.3888      1.718      2.492    23.5013 0.0000e+00
      1.759      0.045     3.9327     15.274     43.777  42.141266     8.5900      8.443   195.3202 1.8760e+01     8.3628      1.727      2.505    23.3341 0.0000e+00
      1.764      0.037     3.1272     11.121     43.708  42.096924     8.5433      8.434   193.2663 1.8603e+01     8.2873      1.731      2.512    23.1868 0.0000e+00
      1.768      0.034     2.4025      9.062     43.728  42.053554     8.5048      8.425   191.9691 1.8458e+01     8.1935      1.734      2.514    23.1037 0.0000e+00
      1.772      0.037     1.7736      8.798     43.872  42.061075     8.4911      8.417   192.1972 1.8245e+01     8.1516      1.736      2.518    23.0799 0.0000e+00
      1.780      0.044     1.2580      9.367     44.012  42.060729     8.5266      8.407   193.0996 1.7841e+01     8.2584      1.742      2.528    23.1127 0.0000e+00
      1.795      0.050     0.8805      9.761     44.158  42.049179     8.5939      8.397   193.8449 1.7264e+01     8.3916      1.758      2.550    23.2052 0.0000e+00
      1.814      0.055     0.7183      9.704     44.348  42.048156     8.6300      8.389   192.9490 1.6672e+01     8.3960      1.780      2.582    23.1154 0.0000e+00
      1.832      0.057     0.7285      9.398     44.548  42.048100     8.6295      8.380   192.4207 1.6201e+01     8.3116      1.799      2.609    22.9105 0.0000e+00
      1.847      0.057     0.8204      8.838     44.734  42.048232     8.6217      8.370   193.3932 1.5843e+01     8.2591      1.812      2.628    22.7925 0.0000e+00
      1.860      0.058     0.8615      7.980     44.916  42.049517     8.6104      8.361   194.6412 1.5529e+01     8.3757      1.824      2.645    22.6219 0.0000e+00
      1.870      0.061     0.8435      6.934     45.119  42.063393     8.5928      8.352   196.3250 1.5243e+01     8.5942      1.834      2.659    22.4073 0.0000e+00
      1.882      0.066     0.8279      5.964     45.320  42.088831     8.5835      8.340   198.1782 1.4863e+01     8.6811      1.843      2.673    22.1796 0.0000e+00
      1.899      0.071     0.7826      5.320     45.478  42.102971     8.5980      8.328   199.0663 1.4270e+01     8.6415      1.860      2.697    21.9884 0.0000e+00
      1.923      0.074     0.7073      5.028     45.598  42.107236     8.8600      8.318   199.3197 1.3578e+01     8.5250      1.884      2.733    21.8140 0.0000e+00
      1.949      0.075     0.6091      4.979     45.727  42.140257     9.3711      8.308   199.5212 1.2976e+01     8.3659      1.912      2.774    21.6005 0.0000e+00
      1.972      0.075     0.5143      5.072     45.853  42.184761     9.6668      8.297   201.8458 1.2559e+01     8.2887      1.936      2.809    21.4156 0.0000e+00
      1.987      0.074     0.4604      5.241     45.953  42.200951     9.7304      8.283   206.0033 1.2299e+01     8.2397      1.950      2.828    21.2763 0.0000e+00
      1.998      0.071     0.4395      5.442     46.055  42.208971    10.0819      8.269   208.0604 1.2021e+01     8.1152      1.958      2.840    21.1581 0.0000e+00
      2.014      0.065     0.4392      5.642     46.146  42.218137    10.7287      8.257   207.9616 1.1602e+01     7.9794      1.972      2.860    21.0652 0.0000e+00
      2.036      0.060     0.4504      5.830     46.219  42.248202    11.0924      8.248   207.3898 1.1108e+01     7.9302      1.995      2.894    20.9973 0.0000e+00
      2.058      0.058     0.4665      5.974     46.301  42.318557    11.1249      8.241   206.9975 1.0748e+01     7.8962      2.022      2.932    20.9204 0.0000e+00
      2.072      0.059     0.4875      6.037     46.446  42.434082    11.0631      8.234   207.8643 1.0620e+01     7.5682      2.035      2.952    20.8178 0.0000e+00
      2.078      0.062     0.5056      6.055     46.671  42.565987    10.9530      8.226   209.8685 1.0526e+01     7.0045      2.037      2.954    20.7197 0.0000e+00
      2.086      0.065     0.5239      6.056     46.889  42.643896    10.9008      8.219   211.0108 1.0271e+01     6.7168      2.042      2.962    20.6845 0.0000e+00
      2.103      0.069     0.5394      6.009     47.056  42.677715    10.9322      8.212   210.9204 9.8037e+00     6.6855      2.058      2.985    20.6988 0.0000e+00
      2.129      0.076     0.5425      5.905     47.210  42.720840    11.2656      8.205   210.3246 9.2751e+00     6.4900      2.087      3.027    20.7035 0.0000e+00
      2.156      0.084     0.5434      5.760     47.391  42.784357    11.8770      8.197   210.3454 8.9018e+00     6.1631      2.118      3.071    20.6209 0.0000e+00
      2.177      0.089     0.5476      5.590     47.610  42.874320    12.2074      8.187   211.6025 8.6169e+00     6.0121      2.135      3.096    20.4619 0.0000e+00
      2.196      0.091     0.5445      5.444     47.835  42.983288    12.2392      8.178   212.3599 8.2958e+00     6.0306      2.152      3.120    20.3293 0.0000e+00
      2.218      0.089     0.5353      5.358     48.048  43.086196    12.3362      8.168   212.2766 7.9835e+00     6.0461      2.175      3.154    20.2454 0.0000e+00
      2.241      0.087     0.5236      5.341     48.248  43.166358    13.3054      8.159   212.0581 7.6756e+00     5.8230      2.197      3.187    20.1440 0.0000e+00
      2.266      0.087     0.5070      5.382     48.445  43.254190    15.0764      8.151   211.6967 7.3596e+00     5.3835      2.223      3.223    20.0102 0.0000e+00
      2.290      0.088     0.4937      5.473     48.684  43.386370    16.0457      8.141   211.5204 7.1133e+00     5.1044      2.250      3.262    19.9213 0.0000e+00
      2.309      0.088     0.4861      5.585     48.924  43.494959    16.1692      8.132   211.7329 6.9204e+00     5.0102      2.266      3.287    19.8433 0.0000e+00
      2.327      0.087     0.4865      5.663     49.131  43.551407    16.6952      8.126   212.2022 6.6619e+00     4.7566      2.278      3.305    19.7211 0.0000e+00
      2.352      0.086     0.4917      5.725     49.347  43.624385    17.6609      8.121   212.5484 6.3522e+00     4.2922      2.305      3.342    19.6292 0.0000e+00
      2.379      0.087     0.4998      5.768     49.605  43.742421    18.1820      8.114   212.6494 6.1280e+00     3.9736      2.337      3.390    19.5709 0.0000e+00
      2.400      0.090     0.5162      5.722     49.909  43.899354    18.1943      8.105   212.6479 5.9683e+00     3.8759      2.355      3.416    19.4589 0.0000e+00
      2.419      0.090     0.5221      5.619     50.214  44.061774    17.9171      8.098   212.6169 5.7765e+00     3.8283      2.370      3.437    19.3086 0.0000e+00
      2.442      0.088     0.5277      5.528     50.463  44.182660    17.4195      8.091   212.8767 5.5610e+00     3.7732      2.394      3.472    19.1933 0.0000e+00
      2.467      0.084     0.5393      5.466     50.691  44.281756    17.1546      8.084   213.6381 5.3463e+00     3.7228      2.420      3.510    19.0903 0.0000e+00
      2.492      0.082     0.5327      5.452     50.981  44.434604    17.1197      8.078   214.5948 5.1696e+00     3.6969      2.446      3.546    18.9709 0.0000e+00
      2.513      0.083     0.5211      5.471     51.317  44.634099    16.9649      8.070   215.3240 5.0557e+00     3.5966      2.466      3.577    18.8652 0.0000e+00
      2.529      0.084     0.5146      5.460     51.536  44.725900    16.6974      8.062   215.8309 4.9472e+00     3.4666      2.480      3.597    18.7765 0.0000e+00
      2.544      0.084     0.5084      5.395     51.572  44.655743    16.5566      8.054   216.4210 4.7954e+00     3.4570      2.492      3.615    18.6747 0.0000e+00
      2.565      0.084     0.5080      5.275     51.538  44.547438    16.5364      8.047   216.6949 4.6094e+00     3.4810      2.512      3.645    18.5689 0.0000e+00
      2.594      0.085     0.5148      5.084     51.603  44.558893    16.4785      8.042   216.6478 4.4305e+00     3.5174      2.544      3.689    18.4878 0.0000e+00
      2.621      0.087     0.5143      4.859     51.911  44.794183    16.3720      8.036   217.2277 4.3180e+00     3.5904      2.575      3.735    18.3931 0.0000e+00
      2.641      0.088     0.5090      4.674     52.266  45.043568    16.2977      8.030   218.2853 4.2557e+00     3.6460      2.591      3.758    18.2795 0.0000e+00
      2.657      0.087     0.5004      4.547     52.384  45.034966    16.2708      8.023   219.0247 4.1762e+00     3.6772      2.602      3.774    18.2013 0.0000e+00
      2.678      0.085     0.4815      4.482     52.447  44.943957    16.0963      8.015   218.1667 4.0768e+00     3.6607      2.626      3.808    18.1622 0.0000e+00
      2.702      0.081     0.4561      4.483     52.707  45.022151    15.7603      8.008   216.2572 3.9661e+00     3.6164      2.650      3.844    18.1520 0.0000e+00
      2.727      0.079     0.4396      4.489     52.989  45.154986    15.5716      8.002   215.6398 3.8641e+00     3.5859      2.674      3.878    18.1094 0.0000e+00
      2.749      0.076     0.4292      4.464     53.129  45.216840    15.5379      7.996   216.4666 3.8116e+00     3.5986      2.699      3.914    17.9930 0.0000e+00
      2.767      0.072     0.4218      4.408     53.191  45.262100    15.5022      7.990   217.6491 3.7951e+00     3.6680      2.715      3.939    17.8425 0.0000e+00
      2.780      0.068     0.4277      4.288     53.250  45.321344    15.2149      7.983   217.0316 3.7867e+00     3.7755      2.726      3.954    17.6930 0.0000e+00
      2.794      0.065     0.4300      4.075     53.330  45.361850    14.6695      7.976   214.6798 3.7755e+00     3.8396      2.738      3.971    17.5865 0.0000e+00
      2.812      0.061     0.4268      3.786     53.355  45.307456    14.3598      7.969   213.7342 3.7737e+00     3.8286      2.757      3.998    17.5316 0.0000e+00
      2.831      0.058     0.4233      3.458     53.226  45.107935    14.3093      7.963   214.9766 3.8102e+00     3.8127      2.777      4.028    17.5332 0.0000e+00
      2.848      0.056     0.4132      3.135     53.016  44.853730    14.2415      7.958   217.0545 3.9142e+00     3.8875      2.794      4.051    17.5676 0.0000e+00
      2.860      0.056     0.3917      2.834     52.856  44.646024    14.1480      7.952   218.3808 4.1016e+00     4.0493      2.806      4.070    17.5468 0.0000e+00
      2.870      0.056     0.3638      2.570     52.864  44.564327    14.0940      7.946   218.4509 4.3394e+00     4.1288      2.815      4.083    17.4582 0.0000e+00
      2.880      0.060     0.3312      2.416     53.209  44.754518    14.0454      7.940   217.9009 4.6061e+00     4.0976      2.824      4.095    17.3600 0.0000e+00
      2.894      0.066     0.2998      2.433     53.741  45.104590    13.6942      7.933   217.4097 4.8760e+00     4.2536      2.836      4.114    17.2955 0.0000e+00
      2.913      0.074     0.2725      2.622     54.164  45.369018    13.0690      7.925   218.6210 5.0885e+00     4.6137      2.855      4.141    17.2390 0.0000e+00
      2.937      0.080     0.2434      2.941     54.469  45.539345    12.7369      7.919   220.6738 5.2428e+00     4.8304      2.881      4.178    17.1491 0.0000e+00
      2.961      0.082     0.2269      3.287     54.684  45.640346    12.7331      7.914   221.0633 5.3593e+00     4.8927      2.904      4.211    17.0497 0.0000e+00
      2.984      0.082     0.2295      3.513     54.768  45.637899    12.8068      7.909   221.1798 5.4328e+00     4.8888      2.925      4.243    16.9588 0.0000e+00
      3.005      0.081     0.2492      3.543     54.696  45.509661    12.9202      7.903   221.3941 5.4790e+00     4.8518      2.949      4.277    16.8755 0.0000e+00
      3.024      0.080     0.2837      3.388     54.527  45.295894    12.9812      7.895   222.5356 5.4922e+00     4.8213      2.968      4.304    16.7983 0.0000e+00
      3.040      0.078     0.3243      3.099     54.372  45.084563    13.0362      7.887   225.6033 5.4057e+00     4.8271      2.980      4.322    16.7242 0.0000e+00
      3.059      0.076     0.3496      2.759     54.191  44.858775    13.5098      7.880   227.1673 5.1660e+00     5.0244      2.997      4.346    16.6588 0.0000e+00
      3.082      0.076     0.3512      2.444     53.946  44.597161    14.3464      7.875   226.2168 4.8171e+00     5.3278      3.024      4.386    16.5996 0.0000e+00
      3.104      0.078     0.3355      2.170     53.691  44.333535    14.7864      7.871   224.8655 4.4731e+00     5.4889      3.048      4.421    16.5383 0.0000e+00
      3.120      0.081     0.3047      1.950     53.476  44.083391    14.8343      7.867   225.4561 4.1457e+00     5.5044      3.059      4.437    16.4528 0.0000e+00
      3.137      0.081     0.2683      1.830     53.342  43.857793    15.1176      7.861   227.6790 3.7680e+00     5.5150      3.074      4.458    16.3764 0.0000e+00
      3.160      0.079     0.2383      1.809     53.242  43.636949    18.2449      7.855   228.6834 3.3825e+00     5.8902      3.098      4.493    16.3282 0.0000e+00
      3.185      0.077     0.2119      1.834     53.166  43.444241    23.9650      7.851   227.9637 3.0669e+00     6.5565      3.125      4.533    16.2863 0.0000e+00
      3.208      0.076     0.1874      1.882     53.136  43.304930    27.0827      7.848   226.2052 2.8205e+00     6.8756      3.147      4.565    16.2351 0.0000e+00
      3.225      0.073     0.1758      1.927     53.086  43.158436    27.4507      7.843   222.3916 2.6272e+00     6.9138      3.164      4.589    16.1153 0.0000e+00
      3.240      0.072     0.1781      1.944     52.945  42.942354    28.4306      7.838   216.8726 2.4844e+00     7.0859      3.178      4.609    15.9673 0.0000e+00
      3.255      0.073     0.1805      1.973     52.696  42.659852    30.1749      7.833   212.7333 2.3745e+00     7.3509      3.192      4.629    15.8489 0.0000e+00
      3.271      0.075     0.1860      2.021     52.538  42.471972    31.1034      7.828   210.9758 2.2647e+00     7.4540      3.207      4.651    15.7415 0.0000e+00
      3.291      0.075     0.1946      2.070     52.666  42.511334    31.1095      7.823   210.6798 2.1139e+00     7.4111      3.226      4.678    15.6468 0.0000e+00
      3.318      0.074     0.1921      2.102     52.726  42.500981    30.4990      7.820   209.9281 1.9294e+00     7.4468      3.253      4.718    15.5434 0.0000e+00
      3.344      0.074     0.1962      2.095     52.786  42.473660    29.3735      7.816   208.0819 1.7923e+00     7.5773      3.283      4.762    15.4589 0.0000e+00
      3.360      0.074     0.2025      2.075     53.337  42.752149    28.7454      7.812   207.2856 1.7352e+00     7.6922      3.299      4.785    15.4274 0.0000e+00
      3.369      0.074     0.2067      2.083     53.962  43.011699    28.5316      7.808   207.9583 1.6886e+00     7.7431      3.301      4.788    15.3513 0.0000e+00
      3.383      0.074     0.2134      2.114     54.183  42.945729    26.7800      7.804   209.0740 1.5890e+00     7.8843      3.313      4.804    15.2929 0.0000e+00
      3.407      0.074     0.2100      2.132     54.237  42.779369    23.5876      7.802   209.2462 1.4790e+00     8.1703      3.341      4.846    15.2726 0.0000e+00
      3.432      0.077     0.2079      2.143     54.471  42.777260    21.8529      7.799   208.3192 1.4170e+00     8.3653      3.367      4.885    15.1067 0.0000e+00
      3.452      0.078     0.2089      2.168     54.796  42.856547    21.5868      7.796   207.5887 1.3884e+00     8.4661      3.386      4.912    14.8455 0.0000e+00
      3.471      0.075     0.2163      2.185     54.989  42.849195    20.1285      7.793   207.0388 1.3544e+00     8.6029      3.403      4.935    14.6116 0.0000e+00
      3.490      0.071     0.2184      2.190     54.998  42.751650    17.4703      7.789   206.8324 1.2973e+00     8.7215      3.423      4.964    14.4268 0.0000e+00
      3.507      0.068     0.2176      2.186     54.884  42.629124    16.0308      7.785   207.0719 1.2440e+00     8.7727      3.442      4.992    14.2623 0.0000e+00
      3.522      0.068     0.2243      2.172     54.839  42.573692    15.8915      7.781   207.1820 1.1931e+00     8.8119      3.455      5.011    14.0997 0.0000e+00
      3.537      0.069     0.2255      2.167     55.122  42.716133    15.7278      7.777   207.2164 1.1159e+00     8.8540      3.467      5.030    13.9423 0.0000e+00
      3.555      0.070     0.2265      2.167     55.859  43.145292    14.1431      7.773   206.1979 1.0218e+00     9.1455      3.485      5.054    13.8309 0.0000e+00
      3.575      0.073     0.2270      2.154     56.640  43.573155    11.2544      7.768   201.8369 9.2452e-01     9.7746      3.506      5.085    13.8277 0.0000e+00
      3.594      0.075     0.2237      2.144     57.048  43.699849     9.6814      7.763   194.6680 8.3873e-01    10.1744      3.526      5.114    13.8385 0.0000e+00
      3.614      0.075     0.2238      2.138     57.139  43.597854     9.5069      7.757   188.0063 7.7514e-01    10.2566      3.543      5.139    13.7677 0.0000e+00
      3.634      0.073     0.2267      2.136     56.899  43.291874     8.9784      7.751   182.9815 7.1684e-01    10.4272      3.562      5.167    13.6257 0.0000e+00
      3.655      0.070     0.2238      2.154     56.417  42.856510     8.0015      7.744   179.0838 6.6316e-01    10.6317      3.586      5.201    13.4661 0.0000e+00
      3.673      0.068     0.2242      2.154     56.189  42.650089     7.4587      7.739   175.9834 6.3429e-01    10.7127      3.604      5.228    13.2968 0.0000e+00
      3.686      0.066     0.2253      2.120     56.282  42.700224     7.3510      7.734   172.5115 6.1578e-01    10.8268      3.615      5.243    13.1273 0.0000e+00
      3.700      0.066     0.2228      2.102     56.161  42.574048     6.6825      7.728   168.8545 5.8441e-01    11.7032      3.628      5.261    13.0224 0.0000e+00
      3.716      0.069     0.2282      2.102     55.685  42.140025     5.4690      7.722   166.6124 5.4237e-01    13.2475      3.645      5.287    12.9680 0.0000e+00
      3.734      0.074     0.2298      2.092     55.184  41.641563     4.8046      7.715   165.9661 5.1143e-01    14.0251      3.661      5.311    12.9451 0.0000e+00
      3.753      0.078     0.2220      2.082     55.005  41.370816     4.7253      7.709   165.9439 4.8985e-01    13.9995      3.680      5.337    12.9352 0.0000e+00
      3.775      0.076     0.2210      2.060     55.196  41.405077     4.6687      7.702   164.6224 4.6053e-01    13.9620      3.700      5.366    12.9116 0.0000e+00
      3.801      0.068     0.2238      2.033     55.381  41.484481     4.6028      7.696   161.6042 4.3800e-01    13.9824      3.727      5.405    12.8535 0.0000e+00
      3.826      0.058     0.2205      2.024     55.423  41.505716     4.5860      7.690   159.1346 4.2052e-01    14.0412      3.757      5.450    12.7327 0.0000e+00
      3.839      0.047     0.2223      2.004     55.266  41.407938     4.5821      7.685   157.9073 4.1822e-01    14.0587      3.770      5.467    12.5914 0.0000e+00
      3.842      0.036     0.2205      1.980     54.873  41.127376     4.5054      7.680   157.0028 4.4565e-01    14.1252      3.767      5.464    12.4888 0.0000e+00
      3.844      0.026     0.2144      1.978     54.771  41.033035     4.3996      7.675   156.6304 4.6011e-01    14.3322      3.769      5.466    12.4338 0.0000e+00
      3.848      0.019     0.2177      1.984     54.974  41.155797     4.3520      7.671   156.2439 4.4421e-01    14.4784      3.772      5.471    12.4300 0.0000e+00
      3.854      0.018     0.2140      1.987     54.815  41.024947     4.3460      7.668   154.7394 4.2376e-01    14.5269      3.778      5.480    12.4620 0.0000e+00
      3.861      0.021     0.2090      1.977     54.427  40.720292     4.3432      7.665   153.3247 4.1707e-01    14.5426      3.789      5.496    12.4865 0.0000e+00
      3.866      0.029     0.2115      1.979     54.285  40.582141     4.3273      7.662   152.6462 4.2312e-01    14.6339      3.793      5.501    12.4623 0.0000e+00
      3.867      0.040     0.2111      2.012     54.278  40.560419     4.2953      7.657   153.5050 4.1768e-01    14.8448      3.791      5.498    12.4151 0.0000e+00
      3.873      0.055     0.2133      2.040     54.039  40.394160     4.2726      7.653   155.6215 3.9430e-01    14.9744      3.795      5.505    12.4194 0.0000e+00
      3.888      0.072     0.2109      2.086     53.664  40.095112     4.2601      7.650   156.2097 3.6865e-01    15.0401      3.808      5.525    12.4185 0.0000e+00
      3.912      0.088     0.2085      2.217     53.562  39.927525     4.0456      7.648   155.7122 3.3633e-01    15.4336      3.834      5.560    12.3690 0.0000e+00
      3.943      0.099     0.2171      2.498     53.675  39.890943     3.6173      7.646   154.8548 2.8954e-01    16.1458      3.866      5.606    12.3414 0.0000e+00
      3.976      0.103     0.2174      3.125     53.829  39.906514     3.3853      7.644   153.8454 2.4716e-01    16.6147      3.899      5.655    12.3840 0.0000e+00
      4.007      0.101     0.2191      4.497     54.039  39.988764     3.3623      7.641   155.8972 2.1766e-01    16.7305      3.931      5.702    12.3906 0.0000e+00
      4.031      0.096     0.2328      6.923     54.221  40.060294     3.2565      7.637   160.4757 1.9184e-01    16.7261      3.955      5.736    12.2760 0.0000e+00
      4.050      0.088     0.2583     10.343     54.316  40.073197     3.0712      7.634   163.0875 1.6817e-01    16.6981      3.972      5.762    12.1450 0.0000e+00
      4.069      0.078     0.3084     14.484     54.384  40.081245     2.9692      7.631   162.9542 1.5214e-01    16.6653      3.988      5.786    12.0565 0.0000e+00
      4.090      0.069     0.4396     19.054     54.436  40.094087     2.9552      7.628   162.0476 1.4464e-01    16.6368      4.011      5.818    11.9949 0.0000e+00
      4.111      0.062     0.7094     23.834     54.475  40.101508     2.9194      7.626   162.7951 1.3746e-01    16.5938      4.034      5.851    11.9390 0.0000e+00
      4.126      0.059     1.0896     28.486     54.512  40.107487     2.8610      7.624   165.2810 1.3686e-01    16.5202      4.049      5.872    11.8799 0.0000e+00
      4.136      0.060     1.5527     32.506     54.529  40.102888     2.8394      7.622   167.3255 1.3839e-01    16.4305      4.056      5.883    11.8408 0.0000e+00
      4.145      0.065     2.0524     35.590     54.553  40.109352     2.8165      7.619   168.4141 1.3032e-01    16.2945      4.063      5.893    11.8240 0.0000e+00
      4.157      0.075     2.5800     37.720     54.584  40.122164     2.5337      7.615   168.8925 1.2406e-01    15.8322      4.075      5.910    11.8055 0.0000e+00
      4.177      0.085     3.1131     39.087     54.613  40.130845     2.0252      7.613   168.3776 1.2357e-01    15.0764      4.093      5.937    11.7824 0.0000e+00
      4.204      0.093     3.5576     39.864     54.659  40.150840     1.7542      7.611   167.6954 1.2357e-01    14.6705      4.121      5.978    11.7669 0.0000e+00
      4.237      0.099     3.8949     40.134     54.707  40.173508     1.7376      7.608   168.4725 1.2352e-01    14.5804      4.156      6.027    11.7586 0.0000e+00
      4.268      0.100     4.1157     40.076     54.777  40.214513     1.7243      7.604   170.4606 1.2345e-01    14.4314      4.190      6.075    11.7508 0.0000e+00
      4.291      0.096     4.2563     39.887     54.861  40.265827     1.6360      7.600   172.6324 1.2342e-01    13.7231      4.210      6.107    11.7386 0.0000e+00
      4.311      0.088     4.3448     39.687     54.900  40.286201     1.4936      7.596   172.3616 1.2347e-01    12.4716      4.224      6.128    11.7243 0.0000e+00
      4.333      0.078     4.3644     39.510     54.882  40.270449     1.4259      7.594   170.5417 1.2355e-01    11.8024      4.248      6.161    11.7132 0.0000e+00
      4.356      0.071     4.3516     39.321     54.876  40.265754     1.4330      7.592   171.1920 1.2353e-01    11.7459      4.275      6.200    11.7045 0.0000e+00
      4.372      0.069     4.3278     39.097     54.920  40.292912     1.4373      7.590   173.0834 1.2347e-01    11.5846      4.290      6.221    11.6954 0.0000e+00
      4.384      0.069     4.3052     38.848     54.917  40.281480     1.4533      7.587   175.0836 1.2344e-01    11.3551      4.297      6.233    11.6853 0.0000e+00
      4.398      0.072     4.2891     38.594     54.894  40.254444     1.4765      7.583   176.0175 1.2342e-01    11.2928      4.311      6.252    11.6834 0.0000e+00
      4.416      0.080     4.2690     38.356     54.946  40.283338     1.4854      7.579   174.7388 1.2344e-01    11.2754      4.331      6.281    11.6878 0.0000e+00
      4.436      0.089     4.2444     38.156     54.996  40.313501     1.5188      7.575   174.2505 1.2346e-01    11.0429      4.350      6.309    11.6823 0.0000e+00
      4.461      0.095     4.2176     38.008     54.986  40.301798     1.5724      7.573   175.2751 1.2343e-01    10.6684      4.371      6.340    11.6715 0.0000e+00
      4.491      0.097     4.1904     37.956     54.944  40.268765     1.6015      7.571   176.9756 1.2345e-01    10.5045      4.403      6.387    11.6626 0.0000e+00
      4.523      0.095     4.1638     38.051     54.896  40.231430     1.6115      7.567   179.0655 1.2347e-01    10.5640      4.439      6.437    11.6538 0.0000e+00
      4.549      0.091     4.1432     38.257     54.897  40.231171     1.6018      7.564   179.9795 1.2347e-01    10.5339      4.464      6.474    11.6472 0.0000e+00
      4.567      0.084     4.1261     38.516     54.946  40.265636     1.5675      7.561   179.7665 1.2353e-01    10.3802      4.479      6.497    11.6439 0.0000e+00
      4.583      0.074     4.1162     38.790     54.951  40.267351     1.5388      7.557   180.1049 1.2358e-01    10.2759      4.493      6.517    11.6420 0.0000e+00
      4.601      0.067     4.1299     39.003     54.933  40.251901     1.5380      7.554   181.2316 1.2359e-01    10.2989      4.512      6.544    11.6406 0.0000e+00
      4.621      0.064     4.1551     39.118     54.959  40.269224     1.5235      7.551   182.4621 1.2359e-01    10.3851      4.533      6.575    11.6397 0.0000e+00
      4.636      0.065     4.1829     39.182     54.984  40.286406     1.4722      7.548   183.9697 1.2358e-01    10.4632      4.548      6.597    11.6384 0.0000e+00
      4.647      0.068     4.2174     39.196     54.962  40.269242     1.4257      7.545   185.5213 1.2355e-01    10.4921      4.557      6.608    11.6366 0.0000e+00
      4.661      0.071     4.2434     39.137     54.940  40.252094     1.4021      7.542   186.4242 1.2353e-01    10.4611      4.568      6.625    11.6343 0.0000e+00
      4.681      0.072     4.2515     39.053     54.965  40.269469     1.3861      7.539   186.8851 1.2358e-01    10.3607      4.588      6.655    11.6320 0.0000e+00
      4.705      0.075     4.2589     38.989     54.994  40.288925     1.3578      7.536   187.3937 1.2362e-01    10.2011      4.615      6.693    11.6316 0.0000e+00
      4.729      0.077     4.2636     38.969     55.009  40.296937     1.3353      7.532   188.6163 1.2359e-01    10.1026      4.641      6.731    11.6306 0.0000e+00
      4.747      0.077     4.2533     39.017     55.022  40.302864     1.3215      7.530   190.1385 1.2354e-01    10.0585      4.657      6.754    11.6293 0.0000e+00
      4.763      0.075     4.2428     39.129     55.018  40.297114     1.2994      7.528   190.9135 1.2353e-01    10.0095      4.670      6.773    11.6296 0.0000e+00
      4.781      0.072     4.2356     39.269     55.013  40.290883     1.2586      7.526   191.3615 1.2356e-01    10.0563      4.688      6.800    11.6287 0.0000e+00
      4.801      0.070     4.2323     39.429     55.015  40.290989     1.1941      7.523   191.9407 1.2356e-01    10.2141      4.708      6.830    11.6253 0.0000e+00
      4.820      0.068     4.2376     39.602     55.027  40.298395     1.1527      7.520   192.4971 1.2350e-01    10.3460      4.726      6.855    11.6214 0.0000e+00
      4.838      0.067     4.2529     39.748     55.054  40.316958     1.1403      7.517   192.9268 1.2349e-01    10.3532      4.744      6.881    11.6184 0.0000e+00
      4.854      0.067     4.2679     39.838     55.066  40.325032     1.0948      7.514   193.2640 1.2352e-01    10.4726      4.763      6.907    11.6167 0.0000e+00
      4.869      0.067     4.2848     39.861     55.077  40.332551     1.0350      7.512   193.7344 1.2356e-01    10.8329      4.775      6.925    11.6152 0.0000e+00
      4.883      0.068     4.3067     39.840     55.095  40.344406     1.0257      7.509   194.5704 1.2356e-01    11.0541      4.786      6.943    11.6137 0.0000e+00
      4.902      0.070     4.3231     39.805     55.091  40.341426     1.0327      7.505   195.2852 1.2350e-01    11.0635      4.807      6.971    11.6131 0.0000e+00
      4.922      0.073     4.3337     39.725     55.117  40.359989     0.9945      7.502   195.4071 1.2348e-01    11.0836      4.828      7.002    11.6130 0.0000e+00
      4.941      0.074     4.3354     39.588     55.144  40.378451     0.9298      7.499   195.5283 1.2354e-01    11.1611      4.846      7.029    11.6122 0.0000e+00
      4.961      0.074     4.3307     39.451     55.139  40.374251     0.8993      7.497   195.8908 1.2357e-01    11.2486      4.864      7.054    11.6112 0.0000e+00
      4.981      0.073     4.3289     39.310     55.137  40.372674     0.9013      7.495   196.1759 1.2354e-01    11.2528      4.885      7.085    11.6105 0.0000e+00
      5.001      0.073     4.3231     39.130     55.119  40.359375     0.8953      7.492   196.4798 1.2356e-01    11.1783      4.906      7.116    11.6102 0.0000e+00
      5.017      0.072     4.3022     38.932     55.094  40.340385     0.8845      7.488   197.5008 1.2361e-01    11.1337      4.919      7.135    11.6094 0.0000e+00
      5.033      0.070     4.2890     38.728     55.085  40.333471     0.8867      7.484   198.8842 1.2361e-01    11.1914      4.934      7.156    11.6082 0.0000e+00
      5.052      0.067     4.2770     38.520     55.092  40.339245     0.8970      7.482   199.4407 1.2354e-01    11.2951      4.955      7.187    11.6081 0.0000e+00
      5.072      0.066     4.2539     38.334     55.098  40.346726     0.8850      7.480   199.2377 1.2349e-01    11.3628      4.975      7.215    11.6079 0.0000e+00
      5.088      0.066     4.2333     38.190     55.114  40.360459     0.8500      7.477   198.9257 1.2348e-01    11.3957      4.990      7.238    11.6076 0.0000e+00
      5.102      0.067     4.2111     38.090     55.140  40.378354     0.8401      7.474   200.6590 1.2349e-01    11.4190      5.004      7.258    11.6066 0.0000e+00
      5.117      0.069     4.1871     38.027     55.136  40.372704     0.8482      7.472   204.1048 1.2351e-01    11.4730      5.018      7.276    11.6072 0.0000e+00
      5.133      0.073     4.1658     37.992     55.114  40.355601     0.8392      7.469   205.0542 1.2351e-01    11.5365      5.032      7.298    11.6117 0.0000e+00
      5.153      0.078     4.1496     37.972     55.124  40.361958     0.8148      7.466   203.7928 1.2347e-01    11.6067      5.052      7.328    11.6145 0.0000e+00
      5.176      0.080     4.1397     37.953     55.159  40.386097     0.7862      7.464   203.3073 1.2346e-01    11.7411      5.076      7.361    11.6122 0.0000e+00
      5.199      0.079     4.1332     37.938     55.170  40.393597     0.7772      7.461   205.1218 1.2353e-01    11.8635      5.099      7.394    11.6087 0.0000e+00
      5.222      0.074     4.1298     37.913     55.165  40.389185     0.7882      7.459   208.4378 1.2352e-01    11.8917      5.121      7.428    11.6074 0.0000e+00
      5.242      0.069     4.1291     37.854     55.176  40.396209     0.8116      7.455   210.2751 1.2344e-01    11.9452      5.144      7.460    11.6068 0.0000e+00
      5.257      0.064     4.1258     37.746     55.202  40.415050     0.8343      7.451   210.6445 1.2346e-01    12.0648      5.159      7.483    11.6062 0.0000e+00
      5.267      0.060     4.1253     37.606     55.219  40.426590     0.8306      7.449   210.3234 1.2350e-01    12.1089      5.164      7.490    11.6058 0.0000e+00
      5.278      0.056     4.1235     37.455     55.194  40.408809     0.8167      7.446   210.0059 1.2349e-01    12.1034      5.173      7.503    11.6048 0.0000e+00
      5.295      0.054     4.1182     37.312     55.169  40.390456     0.7992      7.443   211.1079 1.2352e-01    12.1342      5.192      7.530    11.6041 0.0000e+00
      5.313      0.058     4.1057     37.205     55.174  40.395086     0.7684      7.441   212.4620 1.2358e-01    12.2081      5.213      7.560    11.6040 0.0000e+00
      5.328      0.065     4.0888     37.133     55.179  40.401329     0.7439      7.438   213.1282 1.2355e-01    12.2455      5.228      7.582    11.6031 0.0000e+00
      5.338      0.072     4.0733     37.086     55.179  40.402474     0.7286      7.435   213.4845 1.2350e-01    12.2106      5.232      7.589    11.6028 0.0000e+00
      5.353      0.077     4.0548     37.077     55.188  40.408933     0.7170      7.431   212.8122 1.2350e-01    12.3336      5.244      7.606    11.6026 0.0000e+00
      5.378      0.082     4.0440     37.104     55.198  40.415957     0.7120      7.429   211.6244 1.2354e-01    12.6387      5.273      7.648    11.6041 0.0000e+00
      5.406      0.087     4.0368     37.137     55.212  40.423932     0.7171      7.427   211.7710 1.2360e-01    12.8249      5.303      7.691    11.6074 0.0000e+00
      5.430      0.092     4.0303     37.165     55.240  40.441884     0.7207      7.424   212.6064 1.2355e-01    12.8429      5.325      7.724    11.6081 0.0000e+00
      5.452      0.093     4.0293     37.193     55.240  40.442613     0.7141      7.421   213.7229 1.2342e-01    12.7535      5.346      7.754    11.6085 0.0000e+00
      5.475      0.092     4.0340     37.204     55.222  40.432747     0.7196      7.419   215.2049 1.2338e-01    12.6321      5.369      7.786    11.6076 0.0000e+00
      5.497      0.090     4.0389     37.213     55.242  40.449537     0.7378      7.416   214.0906 1.2344e-01    12.6391      5.391      7.818    11.6047 0.0000e+00
      5.520      0.089     4.0401     37.229     55.252  40.455212     0.7507      7.413   210.9195 1.2351e-01    12.7015      5.413      7.850    11.6022 0.0000e+00
      5.543      0.086     4.0459     37.211     55.234  40.437900     0.7424      7.410   210.5900 1.2354e-01    12.6693      5.437      7.885    11.6027 0.0000e+00
      5.567      0.082     4.0449     37.136     55.229  40.430608     0.7130      7.408   212.6022 1.2352e-01    12.6251      5.459      7.918    11.6069 0.0000e+00
      5.589      0.079     4.0444     37.034     55.232  40.430513     0.6945      7.406   213.6528 1.2353e-01    12.7145      5.483      7.953    11.6100 0.0000e+00
      5.607      0.077     4.0495     36.947     55.242  40.436746     0.6938      7.403   212.8816 1.2353e-01    12.8618      5.501      7.979    11.6084 0.0000e+00
      5.622      0.076     4.0485     36.865     55.251  40.442511     0.6959      7.400   211.1936 1.2347e-01    12.9367      5.512      7.996    11.6031 0.0000e+00
      5.639      0.076     4.0403     36.777     55.242  40.436747     0.6950      7.398   210.8815 1.2348e-01    12.9708      5.527      8.016    11.5991 0.0000e+00
      5.661      0.077     4.0251     36.693     55.232  40.430514     0.6826      7.395   211.9465 1.2355e-01    13.0348      5.551      8.051    11.5986 0.0000e+00
      5.684      0.080     4.0184     36.653     55.233  40.430610     0.6799      7.392   212.7999 1.2355e-01    13.0964      5.576      8.087    11.5972 0.0000e+00
      5.704      0.082     4.0093     36.664     55.246  40.437912     0.6957      7.389   213.4560 1.2356e-01    13.1356      5.595      8.114    11.5956 0.0000e+00
      5.724      0.082     3.9998     36.674     55.273  40.455330     0.6898      7.386   213.7705 1.2358e-01    13.2351      5.613      8.141    11.5974 0.0000e+00
      5.745      0.080     3.9886     36.672     55.270  40.450805     0.6587      7.383   213.5063 1.2355e-01    13.3436      5.635      8.173    11.5985 0.0000e+00
      5.766      0.076     3.9824     36.652     55.265  40.446663     0.6361      7.381   213.6168 1.2348e-01    13.3533      5.656      8.203    11.5975 0.0000e+00
      5.786      0.070     3.9891     36.618     55.292  40.468711     0.6335      7.379   214.2462 1.2346e-01    13.3523      5.673      8.228    11.5953 0.0000e+00
      5.806      0.063     3.9885     36.589     55.279  40.463528     0.6352      7.376   215.0933 1.2353e-01    13.4341      5.695      8.260    11.5926 0.0000e+00
      5.824      0.055     3.9895     36.562     55.253  40.447465     0.6321      7.374   216.1155 1.2350e-01    13.5566      5.713      8.286    11.5912 0.0000e+00
      5.835      0.049     3.9877     36.526     55.277  40.464899     0.6286      7.371   216.8836 1.2340e-01    13.6041      5.723      8.300    11.5901 0.0000e+00
      5.843      0.047     3.9817     36.485     55.304  40.483929     0.6262      7.368   217.3251 1.2341e-01    13.5645      5.730      8.311    11.5918 0.0000e+00
      5.850      0.050     3.9792     36.455     55.311  40.487155     0.6536      7.366   217.5815 1.2347e-01    13.5564      5.737      8.321    11.5976 0.0000e+00
      5.859      0.057     3.9761     36.451     55.339  40.503897     0.7094      7.364   217.5749 1.2350e-01    13.6089      5.743      8.330    11.6005 0.0000e+00
      5.873      0.066     3.9723     36.453     55.333  40.495948     0.7438      7.361   217.3317 1.2358e-01    13.6526      5.756      8.348    11.5994 0.0000e+00
      5.895      0.072     3.9676     36.447     55.280  40.454513     0.7442      7.357   217.2225 1.2363e-01    13.6404      5.779      8.382    11.5991 0.0000e+00
      5.922      0.074     3.9625     36.439     55.272  40.447166     0.7316      7.354   217.6308 1.2355e-01    13.5977      5.808      8.424    11.5973 0.0000e+00
      5.947      0.072     3.9643     36.419     55.305  40.470574     0.7325      7.352   218.3961 1.2350e-01    13.6143      5.835      8.463    11.5932 0.0000e+00
      5.964      0.068     3.9659     36.369     55.324  40.483674     0.7467      7.350   218.9037 1.2353e-01    13.6710      5.852      8.487    11.5899 0.0000e+00
      5.975      0.063     3.9635     36.290     55.316  40.478622     0.7540      7.348   218.6054 1.2351e-01    13.6677      5.861      8.500    11.5880 0.0000e+00
      5.985      0.061     3.9646     36.215     55.306  40.472966     0.7462      7.346   217.8010 1.2351e-01    13.6086      5.868      8.512    11.5865 0.0000e+00
      5.998      0.064     3.9625     36.169     55.312  40.478750     0.7098      7.344   217.5244 1.2356e-01    13.5373      5.880      8.529    11.5853 0.0000e+00
      6.016      0.069     3.9578     36.133     55.322  40.485087     0.6637      7.341   217.7560 1.2359e-01    13.5226      5.898      8.553    11.5846 0.0000e+00
      6.036      0.075     3.9477     36.098     55.326  40.486127     0.6466      7.338   217.9345 1.2355e-01    13.5679      5.919      8.584    11.5857 0.0000e+00
      6.058      0.080     3.9366     36.066     55.335  40.491320     0.6444      7.336   218.4780 1.2355e-01    13.6062      5.941      8.617    11.5880 0.0000e+00
      6.081      0.084     3.9347     36.051     55.326  40.484402     0.6203      7.334   218.9927 1.2359e-01    13.6100      5.964      8.650    11.5886 0.0000e+00
      6.101      0.089     3.9297     36.054     55.301  40.465945     0.5798      7.332   218.3922 1.2354e-01    13.5803      5.984      8.678    11.5873 0.0000e+00
      6.121      0.093     3.9269     36.046     55.292  40.458559     0.5633      7.330   217.4992 1.2350e-01    13.5886      6.002      8.705    11.5859 0.0000e+00
      6.143      0.095     3.9226     36.017     55.292  40.458568     0.5707      7.327   217.3153 1.2355e-01    13.6413      6.022      8.734    11.5850 0.0000e+00
      6.170      0.094     3.9202     35.992     55.303  40.466049     0.5772      7.325   219.0082 1.2350e-01    13.7742      6.049      8.774    11.5843 0.0000e+00
      6.201      0.089     3.9230     36.010     55.330  40.485547     0.5752      7.322   221.6207 1.2341e-01    13.9662      6.082      8.822    11.5838 0.0000e+00
      6.229      0.079     3.9219     36.058     55.355  40.503911     0.5629      7.319   221.9718 1.2343e-01    14.0150      6.113      8.866    11.5839 0.0000e+00
      6.249      0.067     3.9187     36.102     55.346  40.497688     0.5619      7.316   220.6718 1.2345e-01    13.9880      6.131      8.893    11.5837 0.0000e+00
      6.260      0.052     3.9125     36.120     55.312  40.473769     0.5795      7.313   219.4969 1.2345e-01    13.9824      6.140      8.906    11.5832 0.0000e+00
      6.268      0.040     3.9161     36.103     55.300  40.468577     0.5935      7.310   221.0174 1.2349e-01    13.9122      6.147      8.916    11.5831 0.0000e+00
      6.274      0.031     3.9233     36.090     55.332  40.498384     0.5893      7.308   225.0308 1.2346e-01    13.8231      6.154      8.925    11.5828 0.0000e+00
      6.279      0.028     3.9278     36.083     55.348  40.516842     0.5706      7.307   226.9817 1.2341e-01    13.7928      6.157      8.930    11.5830 0.0000e+00
      6.285      0.030     3.9319     36.050     55.318  40.501347     0.5661      7.304   226.1073 1.2346e-01    13.8192      6.163      8.939    11.5836 0.0000e+00
      6.293      0.033     3.9262     36.008     55.305  40.501451     0.5849      7.302   224.5254 1.2351e-01    13.8689      6.172      8.951    11.5866 0.0000e+00
      6.301      0.037     3.9240     35.979     55.316  40.518105     0.5979      7.301   224.8913 1.2352e-01    13.9159      6.178      8.961    11.5925 0.0000e+00
      6.311      0.040     3.9264     35.970     55.314  40.512324     0.5906      7.298   227.2616 1.2349e-01    13.9095      6.187      8.974    11.5991 0.0000e+00
      6.323      0.041     3.9196     35.979     55.307  40.495012     0.5723      7.296   228.8356 1.2343e-01    13.8253      6.201      8.994    11.6027 0.0000e+00
      6.337      0.041     3.9138     35.987     55.323  40.499175     0.5683      7.294   228.9513 1.2341e-01    13.7863      6.215      9.014    11.6125 0.0000e+00
      6.349      0.042     3.9092     35.981     55.327  40.499177     0.5830      7.292   228.4879 1.2345e-01    13.8476      6.227      9.033    11.6281 0.0000e+00
      6.358      0.043     3.9085     35.964     55.327  40.495034     0.5922      7.290   227.7932 1.2347e-01    13.8826      6.236      9.044    11.6208 0.0000e+00
      6.364      0.045     3.9125     35.952     55.359  40.512547     0.5873      7.288   227.0906 1.2350e-01    13.8342      6.239      9.049    11.6025 0.0000e+00
      6.374      0.048     3.9140     35.952     55.376  40.520521     0.5993      7.286   227.0488 1.2354e-01    13.8425      6.248      9.062    11.5978 0.0000e+00
      6.389      0.052     3.9135     35.952     55.390  40.527965     0.6456      7.284   227.7173 1.2354e-01    13.9838      6.265      9.086    11.5987 0.0000e+00
      6.406      0.056     3.9109     35.950     55.407  40.539089     0.6815      7.281   228.4623 1.2349e-01    14.1075      6.283      9.112    11.5945 0.0000e+00
      6.422      0.060     3.9098     35.936     55.394  40.528089     0.6833      7.279   228.5708 1.2348e-01    14.1087      6.298      9.135    11.5873 0.0000e+00
      6.437      0.063     3.9113     35.895     55.386  40.521896     0.6588      7.278   227.5668 1.2349e-01    14.0325      6.313      9.157    11.5829 0.0000e+00
      6.451      0.065     3.9113     35.838     55.395  40.527666     0.6272      7.275   226.3895 1.2348e-01    14.0060      6.326      9.174    11.5808 0.0000e+00
      6.466      0.068     3.9109     35.774     55.404  40.534384     0.6258      7.273   226.2960 1.2349e-01    14.0612      6.339      9.194    11.5797 0.0000e+00
      6.484      0.072     3.9116     35.697     55.411  40.539663     0.6413      7.270   226.7804 1.2352e-01    14.1188      6.358      9.221    11.5786 0.0000e+00
      6.505      0.074     3.9058     35.627     55.395  40.528018     0.6398      7.267   227.0829 1.2350e-01    14.1223      6.378      9.251    11.5781 0.0000e+00
      6.526      0.074     3.8984     35.571     55.385  40.520528     0.6251      7.264   227.2009 1.2347e-01    14.0695      6.401      9.283    11.5781 0.0000e+00
      6.547      0.072     3.8937     35.536     55.375  40.512561     0.6211      7.263   227.4333 1.2347e-01    14.0270      6.422      9.314    11.5778 0.0000e+00
      6.565      0.067     3.8825     35.531     55.352  40.495151     0.6331      7.262   227.9131 1.2353e-01    14.0518      6.438      9.338    11.5777 0.0000e+00
      6.581      0.063     3.8758     35.538     55.360  40.500429     0.6290      7.259   228.2697 1.2358e-01    14.0969      6.454      9.361    11.5778 0.0000e+00
      6.595      0.062     3.8696     35.568     55.377  40.512914     0.5962      7.256   228.3907 1.2350e-01    14.0600      6.468      9.382    11.5779 0.0000e+00
      6.608      0.062     3.8643     35.624     55.386  40.519165     0.5612      7.253   228.8596 1.2346e-01    13.9811      6.479      9.398    11.5777 0.0000e+00
      6.622      0.066     3.8662     35.688     55.376  40.512550     0.5469      7.251   229.9813 1.2358e-01    13.9630      6.493      9.417    11.5771 0.0000e+00
      6.638      0.072     3.8654     35.735     55.353  40.496400     0.5485      7.250   231.1128 1.2360e-01    14.0116      6.509      9.440    11.5762 0.0000e+00
      6.658      0.079     3.8687     35.764     55.378  40.514286     0.5556      7.249   231.7852 1.2353e-01    14.1250      6.528      9.468    11.5758 0.0000e+00
      6.680      0.088     3.8756     35.776     55.411  40.538414     0.5659      7.246   232.0885 1.2348e-01    14.2402      6.550      9.500    11.5761 0.0000e+00
      6.704      0.096     3.8839     35.768     55.406  40.534262     0.5651      7.244   231.7684 1.2343e-01    14.2441      6.573      9.533    11.5765 0.0000e+00
      6.729      0.102     3.8887     35.751     55.397  40.527542     0.5626      7.241   231.1848 1.2344e-01    14.2066      6.599      9.571    11.5771 0.0000e+00
      6.756      0.105     3.8915     35.737     55.388  40.520642     0.5771      7.238   231.4844 1.2349e-01    14.2991      6.625      9.609    11.5771 0.0000e+00
      6.786      0.105     3.8935     35.733     55.380  40.514298     0.5896      7.235   232.6376 1.2354e-01    14.5075      6.654      9.652    11.5765 0.0000e+00
      6.816      0.104     3.8918     35.721     55.380  40.514299     0.5810      7.233   233.8572 1.2357e-01    14.6086      6.686      9.697    11.5763 0.0000e+00
      6.842      0.103     3.8895     35.691     55.389  40.520654     0.5650      7.232   232.9803 1.2357e-01    14.5654      6.711      9.735    11.5763 0.0000e+00
      6.865      0.103     3.8877     35.676     55.400  40.527668     0.5630      7.230   230.2092 1.2357e-01    14.4979      6.731      9.763    11.5761 0.0000e+00
      6.888      0.101     3.8879     35.696     55.412  40.535632     0.5731      7.227   229.1757 1.2356e-01    14.4753      6.753      9.794    11.5756 0.0000e+00
      6.913      0.097     3.8882     35.722     55.437  40.553481     0.5878      7.225   230.4645 1.2357e-01    14.5318      6.778      9.831    11.5755 0.0000e+00
      6.942      0.092     3.8823     35.716     55.437  40.553075     0.5903      7.223   232.3691 1.2358e-01    14.5316      6.808      9.875    11.5757 0.0000e+00
      6.971      0.086     3.8797     35.672     55.407  40.530716     0.5788      7.220   233.3616 1.2361e-01    14.4389      6.839      9.920    11.5749 0.0000e+00
      6.993      0.081     3.8841     35.627     55.416  40.537015     0.5735      7.218   232.0541 1.2366e-01    14.3326      6.861      9.951    11.5739 0.0000e+00
      7.007      0.079     3.8878     35.582     55.454  40.565768     0.5765      7.215   229.4661 1.2367e-01    14.2715      6.873      9.968    11.5736 0.0000e+00
      7.020      0.081     3.8892     35.524     55.448  40.561034     0.5811      7.213   228.3977 1.2361e-01    14.3149      6.883      9.983    11.5731 0.0000e+00
      7.035      0.089     3.8803     35.451     55.424  40.543243     0.5795      7.211   229.4612 1.2354e-01    14.3791      6.897     10.003    11.5726 0.0000e+00
      7.058      0.099     3.8769     35.373     55.421  40.541049     0.5739      7.209   231.2266 1.2354e-01    14.4327      6.918     10.034    11.5727 0.0000e+00
      7.089      0.109     3.8724     35.334     55.413  40.534514     0.5715      7.208   231.4158 1.2353e-01    14.4853      6.950     10.081    11.5733 0.0000e+00
      7.125      0.114     3.8652     35.334     55.405  40.527692     0.5751      7.205   229.8564 1.2349e-01    14.5026      6.989     10.136    11.5735 0.0000e+00
      7.160      0.113     3.8590     35.339     55.398  40.522031     0.5761      7.203   228.8051 1.2352e-01    14.5048      7.024     10.187    11.5733 0.0000e+00
      7.190      0.103     3.8459     35.328     55.408  40.529531     0.5675      7.200   228.8576 1.2355e-01    14.6143      7.052     10.228    11.5729 0.0000e+00
      7.216      0.089     3.8435     35.307     55.441  40.554908     0.5615      7.197   229.3726 1.2354e-01    14.8361      7.077     10.264    11.5721 0.0000e+00
      7.237      0.074     3.8448     35.298     55.464  40.574995     0.5625      7.195   230.5572 1.2352e-01    14.9322      7.100     10.297    11.5713 0.0000e+00
      7.252      0.064     3.8463     35.287     55.468  40.582009     0.5706      7.193   231.9093 1.2349e-01    14.9225      7.115     10.319    11.5709 0.0000e+00
      7.260      0.059     3.8450     35.247     55.454  40.576244     0.6102      7.193   232.2135 1.2350e-01    14.8209      7.120     10.326    11.5705 0.0000e+00
      7.268      0.061     3.8408     35.187     55.440  40.568762     0.6665      7.191   231.8258 1.2356e-01    14.5923      7.126     10.335    11.5718 0.0000e+00
      7.283      0.070     3.8404     35.141     55.423  40.555022     0.6856      7.189   231.5243 1.2351e-01    14.4810      7.140     10.356    11.5747 0.0000e+00
      7.303      0.083     3.8406     35.109     55.404  40.537043     0.6738      7.188   232.7829 1.2345e-01    14.4665      7.161     10.386    11.5782 0.0000e+00
      7.326      0.097     3.8358     35.075     55.417  40.541769     0.6577      7.185   235.1703 1.2351e-01    14.5190      7.182     10.417    11.5838 0.0000e+00
      7.355      0.107     3.8259     35.033     55.432  40.548688     0.6492      7.183   236.0410 1.2360e-01    14.6713      7.210     10.458    11.5873 0.0000e+00
      7.388      0.108     3.8221     34.988     55.447  40.557228     0.6373      7.181   235.4807 1.2362e-01    14.7371      7.245     10.508    11.5854 0.0000e+00
      7.422      0.102     3.8198     34.965     55.482  40.581555     0.6141      7.178   234.9351 1.2357e-01    14.7337      7.280     10.558    11.5802 0.0000e+00
      7.452      0.089     3.8166     34.964     55.492  40.588959     0.5928      7.176   235.4673 1.2348e-01    14.6990      7.311     10.603    11.5751 0.0000e+00
      7.475      0.076     3.8125     34.958     55.484  40.583280     0.5802      7.174   236.7533 1.2346e-01    14.6241      7.334     10.637    11.5718 0.0000e+00
      7.488      0.066     3.8060     34.947     55.474  40.576362     0.5864      7.172   237.2330 1.2346e-01    14.5804      7.346     10.654    11.5698 0.0000e+00
      7.494      0.063     3.8035     34.941     55.461  40.568777     0.5842      7.169   236.8795 1.2342e-01    14.5458      7.349     10.659    11.5688 0.0000e+00
      7.500      0.069     3.8057     34.938     55.441  40.555036     0.5535      7.167   236.6092 1.2342e-01    14.5818      7.352     10.663    11.5685 0.0000e+00
      7.515      0.080     3.8046     34.945     55.418  40.537160     0.5235      7.165   236.6332 1.2348e-01    14.7079      7.364     10.682    11.5688 0.0000e+00
      7.541      0.095     3.8022     34.956     55.428  40.543030     0.5214      7.164   236.6531 1.2351e-01    14.8069      7.392     10.721    11.5698 0.0000e+00
      7.574      0.110     3.8025     34.971     55.457  40.562543     0.5356      7.164   236.4187 1.2349e-01    14.8221      7.428     10.772    11.5724 0.0000e+00
      7.608      0.119     3.8007     34.988     55.486  40.582690     0.5298      7.162   236.0363 1.2348e-01    14.7547      7.462     10.823    11.5734 0.0000e+00
      7.641      0.119     3.8025     34.980     55.504  40.596215     0.5258      7.159   235.8156 1.2352e-01    14.7778      7.493     10.868    11.5710 0.0000e+00
      7.674      0.111     3.8040     34.940     55.505  40.599146     0.5541      7.156   235.8142 1.2355e-01    14.9314      7.526     10.915    11.5691 0.0000e+00
      7.705      0.097     3.8048     34.926     55.525  40.618129     0.5807      7.154   236.1927 1.2350e-01    15.0059      7.557     10.963    11.5682 0.0000e+00
      7.730      0.081     3.8083     34.942     55.543  40.635344     0.5894      7.153   236.6912 1.2345e-01    14.9952      7.583     10.999    11.5674 0.0000e+00
      7.748      0.064     3.8094     34.937     55.513  40.616886     0.5839      7.150   236.5935 1.2345e-01    14.9040      7.600     11.022    11.5672 0.0000e+00
      7.759      0.049     3.8003     34.932     55.466  40.585361     0.5720      7.147   235.9578 1.2344e-01    14.7574      7.610     11.037    11.5696 0.0000e+00
      7.766      0.040     3.7974     34.927     55.439  40.571523     0.5715      7.145   235.3713 1.2347e-01    14.7605      7.617     11.047    11.5738 0.0000e+00
      7.770      0.037     3.8048     34.909     55.437  40.576507     0.5856      7.144   236.7298 1.2353e-01    14.8386      7.621     11.053    11.5778 0.0000e+00
      7.775      0.042     3.7993     34.896     55.444  40.582158     0.6014      7.142   239.6498 1.2356e-01    14.8141      7.624     11.056    11.5813 0.0000e+00
      7.784      0.053     3.8003     34.915     55.447  40.576383     0.5958      7.140   240.8217 1.2361e-01    14.7375      7.630     11.067    11.5818 0.0000e+00
      7.798      0.067     3.8005     34.959     55.451  40.570141     0.5757      7.139   239.7136 1.2363e-01    14.6985      7.645     11.089    11.5863 0.0000e+00
      7.818      0.082     3.7957     34.968     55.461  40.570142     0.5749      7.137   238.1253 1.2363e-01    14.7181      7.667     11.119    11.5972 0.0000e+00
      7.843      0.095     3.7943     34.958     55.477  40.576386     0.5780      7.134   239.2560 1.2367e-01    14.7691      7.691     11.155    11.5977 0.0000e+00
      7.872      0.105     3.7948     34.973     55.489  40.582161     0.5545      7.132   242.7150 1.2362e-01    14.8024      7.720     11.196    11.5872 0.0000e+00
      7.903      0.108     3.8067     34.963     55.484  40.576500     0.5240      7.130   244.5000 1.2350e-01    14.7795      7.751     11.241    11.5785 0.0000e+00
      7.934      0.107     3.8064     34.909     55.478  40.571403     0.5090      7.129   244.1465 1.2345e-01    14.7309      7.781     11.285    11.5723 0.0000e+00
      7.963      0.102     3.8008     34.848     55.496  40.584001     0.5404      7.128   243.0023 1.2346e-01    14.7614      7.810     11.326    11.5675 0.0000e+00
      7.989      0.094     3.8085     34.796     55.521  40.601887     0.6033      7.125   242.4528 1.2349e-01    14.9095      7.837     11.366    11.5646 0.0000e+00
      8.011      0.084     3.8075     34.751     55.515  40.597257     0.6373      7.122   243.2665 1.2351e-01    15.0185      7.858     11.397    11.5630 0.0000e+00
      8.031      0.074     3.7989     34.706     55.508  40.591492     0.6351      7.120   244.2367 1.2353e-01    14.9862      7.875     11.422    11.5622 0.0000e+00
      8.047      0.065     3.7928     34.669     55.512  40.595645     0.6016      7.119   244.5477 1.2356e-01    14.8949      7.893     11.447    11.5619 0.0000e+00
      8.062      0.060     3.7864     34.635     55.493  40.584002     0.5570      7.118   244.7032 1.2354e-01    14.8365      7.906     11.467    11.5617 0.0000e+00
      8.076      0.059     3.7829     34.610     55.483  40.577656     0.5365      7.117   243.4493 1.2349e-01    14.8268      7.919     11.486    11.5615 0.0000e+00
      8.088      0.062     3.7763     34.582     55.490  40.582381     0.5290      7.114   241.4321 1.2356e-01    14.8465      7.931     11.503    11.5607 0.0000e+00
      8.100      0.070     3.7738     34.528     55.485  40.577662     0.5160      7.112   241.4798 1.2366e-01    14.8353      7.942     11.519    11.5613 0.0000e+00
      8.117      0.081     3.7687     34.477     55.496  40.584066     0.5292      7.110   242.2191 1.2361e-01    14.8967      7.957     11.541    11.5644 0.0000e+00
      8.139      0.094     3.7658     34.440     55.515  40.596344     0.5722      7.108   242.5414 1.2354e-01    15.1097      7.980     11.574    11.5660 0.0000e+00
      8.167      0.106     3.7661     34.421     55.521  40.599172     0.5943      7.106   243.0539 1.2354e-01    15.2250      8.008     11.614    11.5653 0.0000e+00
      8.197      0.115     3.7568     34.427     55.550  40.618262     0.5965      7.103   242.3054 1.2359e-01    15.1984      8.038     11.658    11.5640 0.0000e+00
      8.231      0.118     3.7519     34.429     55.576  40.636744     0.5913      7.101   240.4615 1.2358e-01    15.1292      8.071     11.706    11.5622 0.0000e+00
      8.265      0.116     3.7481     34.411     55.570  40.632239     0.5808      7.101   239.7735 1.2351e-01    15.0371      8.106     11.757    11.5606 0.0000e+00
      8.297      0.111     3.7445     34.380     55.565  40.627256     0.5866      7.100   240.2679 1.2346e-01    15.0069      8.139     11.804    11.5591 0.0000e+00
      8.324      0.101     3.7482     34.335     55.583  40.639957     0.5951      7.099   240.9326 1.2342e-01    15.0026      8.165     11.841    11.5575 0.0000e+00
      8.347      0.089     3.7486     34.290     55.608  40.658873     0.5914      7.096   241.2718 1.2343e-01    14.9511      8.186     11.872    11.5565 0.0000e+00
      8.369      0.078     3.7456     34.238     55.615  40.665574     0.5836      7.092   241.2724 1.2349e-01    14.8975      8.208     11.905    11.5561 0.0000e+00
      8.388      0.070     3.7436     34.179     55.599  40.657512     0.5755      7.090   241.4560 1.2358e-01    14.9009      8.229     11.935    11.5556 0.0000e+00
      8.402      0.067     3.7368     34.117     55.547  40.624863     0.5691      7.089   241.6846 1.2357e-01    14.9575      8.242     11.953    11.5550 0.0000e+00
      8.412      0.068     3.7334     34.060     55.495  40.588157     0.5636      7.088   241.8853 1.2352e-01    14.9671      8.248     11.963    11.5558 0.0000e+00
      8.427      0.073     3.7271     34.043     55.508  40.594504     0.5678      7.086   242.3343 1.2355e-01    14.9145      8.261     11.981    11.5564 0.0000e+00
      8.447      0.083     3.7198     34.045     55.573  40.638130     0.5781      7.086   242.9831 1.2357e-01    14.9017      8.283     12.013    11.5594 0.0000e+00
      8.471      0.094     3.7141     34.036     55.621  40.671370     0.5793      7.084   243.7071 1.2355e-01    14.9491      8.306     12.047    11.5674 0.0000e+00
      8.497      0.103     3.7032     34.035     55.634  40.679068     0.5661      7.081   244.4631 1.2354e-01    15.0779      8.330     12.082    11.5686 0.0000e+00
      8.527      0.107     3.7045     34.045     55.620  40.667728     0.5351      7.080   245.1548 1.2353e-01    15.1950      8.360     12.126    11.5630 0.0000e+00
      8.559      0.105     3.7072     34.062     55.611  40.661192     0.5210      7.079   244.4984 1.2352e-01    15.1698      8.395     12.177    11.5594 0.0000e+00
      8.589      0.097     3.7035     34.098     55.612  40.663516     0.5282      7.077   243.1523 1.2352e-01    15.1147      8.426     12.220    11.5580 0.0000e+00
      8.614      0.085     3.7045     34.135     55.565  40.632365     0.5145      7.075   243.5055 1.2355e-01    15.1098      8.450     12.255    11.5571 0.0000e+00
      8.634      0.073     3.7058     34.141     55.520  40.601880     0.5059      7.073   244.3801 1.2358e-01    15.1094      8.469     12.284    11.5562 0.0000e+00
      8.649      0.066     3.7066     34.136     55.532  40.612255     0.5149      7.070   244.9516 1.2358e-01    15.0764      8.483     12.305    11.5552 0.0000e+00
      8.658      0.068     3.7109     34.146     55.557  40.630878     0.5144      7.068   244.1347 1.2353e-01    15.0178      8.491     12.316    11.5565 0.0000e+00
      8.668      0.077     3.7177     34.153     55.568  40.636643     0.5094      7.067   241.3865 1.2348e-01    14.9820      8.497     12.324    11.5614 0.0000e+00
      8.684      0.087     3.7161     34.153     55.549  40.618497     0.5119      7.065   240.2022 1.2352e-01    14.9856      8.512     12.345    11.5621 0.0000e+00
      8.711      0.093     3.7138     34.151     55.529  40.601870     0.5276      7.063   240.7423 1.2355e-01    15.0272      8.540     12.386    11.5632 0.0000e+00
      8.748      0.094     3.7166     34.152     55.561  40.625998     0.5250      7.060   241.7225 1.2354e-01    15.0416      8.577     12.440    11.5662 0.0000e+00
      8.784      0.093     3.7172     34.165     55.599  40.656368     0.5054      7.058   241.7295 1.2351e-01    15.0225      8.619     12.501    11.5623 0.0000e+00
      8.808      0.091     3.7177     34.198     55.589  40.651738     0.4901      7.057   239.5358 1.2352e-01    15.0013      8.646     12.540    11.5577 0.0000e+00
      8.817      0.090     3.7172     34.233     55.564  40.633484     0.4654      7.056   237.9981 1.2356e-01    14.9562      8.647     12.542    11.5564 0.0000e+00
      8.825      0.090     3.7173     34.252     55.557  40.626061     0.4569      7.054   237.9366 1.2353e-01    14.9548      8.647     12.542    11.5557 0.0000e+00
      8.847      0.090     3.7175     34.255     55.560  40.625446     0.4701      7.052   238.5342 1.2343e-01    14.9841      8.671     12.576    11.5588 0.0000e+00
      8.883      0.090     3.7217     34.233     55.565  40.626051     0.4673      7.051   239.7177 1.2340e-01    14.9697      8.712     12.636    11.5631 0.0000e+00
      8.920      0.088     3.7270     34.202     55.578  40.633370     0.4480      7.049   240.7163 1.2347e-01    14.9514      8.752     12.694    11.5623 0.0000e+00
      8.945      0.080     3.7281     34.192     55.602  40.650470     0.4448      7.046   241.1436 1.2350e-01    15.0009      8.777     12.730    11.5596 0.0000e+00
      8.959      0.066     3.7301     34.197     55.589  40.642406     0.4617      7.044   240.6691 1.2352e-01    15.0561      8.787     12.745    11.5571 0.0000e+00
      8.968      0.052     3.7272     34.208     55.529  40.599335     0.4940      7.044   239.9690 1.2353e-01    15.0049      8.794     12.754    11.5541 0.0000e+00
      8.976      0.046     3.7215     34.223     55.495  40.573960     0.5360      7.043   239.9922 1.2350e-01    14.9277      8.803     12.767    11.5526 0.0000e+00
      8.983      0.051     3.7218     34.219     55.519  40.589470     0.5606      7.041   241.6375 1.2352e-01    14.9078      8.809     12.777    11.5521 0.0000e+00
      8.992      0.066     3.7227     34.208     55.530  40.596475     0.5675      7.039   244.2034 1.2357e-01    14.9350      8.815     12.785    11.5531 0.0000e+00
      9.007      0.086     3.7226     34.220     55.530  40.595183     0.5614      7.037   244.6880 1.2358e-01    14.9839      8.830     12.807    11.5552 0.0000e+00
      9.031      0.107     3.7268     34.230     55.588  40.637312     0.5361      7.036   243.7108 1.2357e-01    15.1582      8.854     12.842    11.5544 0.0000e+00
      9.064      0.122     3.7259     34.242     55.621  40.661577     0.5111      7.034   243.5733 1.2356e-01    15.4704      8.884     12.886    11.5518 0.0000e+00
      9.104      0.125     3.7218     34.288     55.584  40.634699     0.5015      7.032   244.4888 1.2358e-01    15.6504      8.925     12.943    11.5503 0.0000e+00
      9.150      0.118     3.7262     34.348     55.576  40.629675     0.4935      7.030   245.4877 1.2359e-01    15.6954      8.976     13.018    11.5496 0.0000e+00
      9.190      0.108     3.7272     34.399     55.621  40.664295     0.4814      7.028   245.3254 1.2355e-01    15.5695      9.020     13.082    11.5495 0.0000e+00
      9.210      0.100     3.7251     34.438     56.065  40.989822     0.4636      7.027   244.6779 1.2347e-01    15.2223      9.040     13.110    11.5494 0.0000e+00
      9.214      0.093     3.7327     34.428     59.916  43.803981     0.4456      7.026   244.3699 1.2341e-01    14.9813      9.034     13.104    11.5497 0.0000e+00
      9.224      0.087     3.7404     34.379     67.004  48.979244     0.4385      7.024   244.0967 1.2344e-01    14.9443      9.036     13.107    11.5504 0.0000e+00
      9.253      0.083     3.7437     34.311     70.216  51.314762     0.4437      7.021   243.7835 1.2352e-01    14.9789      9.071     13.156    11.5519 0.0000e+00
      9.289      0.081     3.7516     34.169     69.841  51.029202     0.4585      7.018   243.5944 1.2361e-01    15.0244      9.113     13.219    11.5535 0.0000e+00
      9.318      0.078     3.7498     33.797     73.700  53.844885     0.4599      7.016   243.5319 1.2366e-01    15.0166      9.143     13.260    11.5525 0.0000e+00
      9.335      0.069     3.7413     32.809     83.812  61.224762     0.4519      7.015   243.7164 1.2363e-01    14.9873      9.158     13.282    11.5493 0.0000e+00
      9.344      0.058     3.7398     30.896    100.213  73.177835     0.4538      7.013   243.9311 1.2360e-01    15.0461      9.164     13.290    11.5380 0.0000e+00
      9.350      0.049     3.7268     28.249    129.247  94.326836     0.4492      7.011   243.6335 1.2360e-01    15.1806      9.168     13.296    11.5258 0.0000e+00
      9.360      0.046     3.7032     25.093    159.276 116.185670     0.4382      7.008   243.3873 1.2355e-01    15.2466      9.178     13.310    11.5274 0.0000e+00
      9.374      0.046     3.6175     21.393    175.062 127.651749     0.4452      7.005   243.6207 1.2350e-01    15.2296      9.193     13.333    11.5285 0.0000e+00
      9.389      0.047     3.3926     17.135    184.214 134.301315     0.4663      7.003   243.9609 1.2351e-01    15.2131      9.207     13.355    11.5132 0.0000e+00
      9.403      0.047     3.0928     12.477    201.874 147.177764     0.4694      7.002   244.4034 1.2355e-01    15.0817      9.221     13.374    11.4923 0.0000e+00
      9.414      0.047     2.7595      7.969    249.114 181.616497     0.4663      7.001   244.7552 1.2355e-01    14.9400      9.233     13.392    11.4714 0.0000e+00
      9.424      0.046     2.3532      4.275    298.476 217.572418     0.4619      6.998   244.7723 1.2350e-01    14.9676      9.243     13.405    11.4522 0.0000e+00
      9.434      0.044     1.8902      1.636    317.484 231.374671     0.4416      6.995   244.2655 1.2347e-01    14.9720      9.250     13.416    11.4474 0.0000e+00
      9.446      0.041     1.3579      0.015    332.611 242.364200     0.4371      6.992   243.2745 1.2344e-01    14.9242      9.262     13.434    11.4499 0.0000e+00
      9.460      0.038     0.8305     -0.709    351.042 255.788304     0.4488      6.990   242.4264 1.2341e-01    14.9371      9.279     13.458    11.4525 0.0000e+00
      9.471      0.033     0.4253     -0.731    362.397 264.064249     0.4584      6.987   242.0999 1.2344e-01    14.9912      9.289     13.473    11.4472 0.0000e+00
      9.478      0.027     0.1395     -0.320    360.665 262.814480     0.4702      6.984   242.3379 1.2350e-01    15.0317      9.295     13.481    11.4332 0.0000e+00
      9.483      0.019    -0.0328      0.247    329.627 240.217743     0.4749      6.982   243.0666 1.2351e-01    15.0502      9.300     13.489    11.4294 0.0000e+00
      9.487      0.012    -0.1046      0.745    283.297 206.478699     0.4737      6.981   243.8549 1.2348e-01    15.0784      9.305     13.494    11.4301 0.0000e+00
      9.489      0.005    -0.0963      1.044    248.762 181.333574     0.4720      6.979   244.4695 1.2346e-01    15.1002      9.306     13.496    11.4294 0.0000e+00
      9.489      0.000    -0.0399      1.134    219.084 159.726531     0.4714      6.977   245.1639 1.2342e-01    15.1762      9.305     13.496    11.4314 0.0000e+00
      9.488     -0.005     0.0298      1.038    187.018 136.376576     0.4743      6.976   245.6258 1.2342e-01    15.2802      9.305     13.496    11.4353 0.0000e+00
      9.487     -0.010     0.0906      0.787    159.150 116.082774     0.4728      6.975   245.8383 1.2345e-01    15.2646      9.303     13.493    11.4397 0.0000e+00
      9.483     -0.014     0.1218      0.490    141.999 103.599784     0.4707      6.974   245.8398 1.2348e-01    15.2274      9.300     13.489    11.4444 0.0000e+00
      9.478     -0.016     0.1301      0.266    134.646  98.261544     0.4652      6.972   245.3863 1.2348e-01    15.2395      9.295     13.482    11.4508 0.0000e+00
      9.472     -0.016     0.1206      0.141    128.773  94.001136     0.4569      6.971   245.4315 1.2346e-01    15.2064      9.288     13.472    11.4586 0.0000e+00
      9.466     -0.017     0.0878      0.151    122.673  89.571067     0.4537      6.970   245.8703 1.2347e-01    15.1685      9.282     13.463    11.4677 0.0000e+00
      9.463     -0.023     0.0489      0.413    110.863  80.968198     0.4514      6.969   245.7883 1.2350e-01    15.1917      9.279     13.458    11.4767 0.0000e+00
      9.461     -0.034     0.0256      1.030     90.910  66.414373     0.4539      6.968   245.6439 1.2356e-01    15.2140      9.278     13.457    11.4863 0.0000e+00
      9.459     -0.045     0.0119      2.026     74.964  54.786433     0.4674      6.968   245.7583 1.2356e-01    15.1308      9.278     13.457    11.4966 0.0000e+00
      9.449     -0.052     0.0067      3.380     70.110  51.263128     0.4809      6.968   245.9672 1.2353e-01    15.0051      9.274     13.450    11.5061 0.0000e+00
      9.424     -0.053     0.0304      5.015     73.185  53.537776     0.4844      6.967   246.0192 1.2351e-01    14.9576      9.247     13.411    11.5150 0.0000e+00
      9.394     -0.053     0.0979      6.830     76.688  56.125014     0.4926      6.965   246.0430 1.2346e-01    15.0013      9.207     13.353    11.5256 0.0000e+00
      9.376     -0.058     0.2065      8.797     74.756  54.729583     0.5053      6.964   246.6849 1.2344e-01    15.0552      9.188     13.326    11.5396 0.0000e+00
      9.375     -0.078     0.3565     10.957     68.021  49.811528     0.5051      6.964   247.5857 1.2351e-01    14.9941      9.193     13.334    11.5557 0.0000e+00
      9.378     -0.118     0.5405     13.367     61.935  45.365893     0.4978      6.962   248.1588 1.2357e-01    14.9116      9.201     13.343    11.5736 0.0000e+00
      9.368     -0.179     0.7371     15.952     59.915  43.899267     0.4928      6.961   248.4513 1.2351e-01    14.9458      9.197     13.338    11.5914 0.0000e+00
      9.326     -0.252     0.9502     18.472     59.099  43.316132     0.4868      6.961   248.4548 1.2340e-01    15.0664      9.164     13.291    11.6045 0.0000e+00
      9.240     -0.326     1.1805     20.760     57.885  42.441214     0.4744      6.960   248.2873 1.2339e-01    15.2083      9.075     13.163    11.6128 0.0000e+00
      9.118     -0.390     1.4432     22.787     57.120  41.889789     0.4598      6.960   248.0604 1.2341e-01    15.2601      8.943     12.971    11.6208 0.0000e+00
      8.987     -0.438     1.7378     24.604     56.721  41.599754     0.4607      6.961   247.9484 1.2341e-01    15.2152      8.809     12.776    11.6307 0.0000e+00
      8.866     -0.471     2.0166     26.257     56.381  41.346311     0.4684      6.961   248.1385 1.2346e-01    15.1100      8.690     12.604    11.6438 0.0000e+00
      8.754     -0.488     2.2648     27.714     56.157  41.173808     0.4772      6.962   248.3805 1.2352e-01    15.0130      8.584     12.450    11.6586 0.0000e+00
      8.640     -0.497     2.4823     29.000     56.072  41.100761     0.5005      6.963   248.4645 1.2353e-01    15.0320      8.480     12.299    11.6684 0.0000e+00
      8.512     -0.504     2.6754     30.230     55.993  41.034320     0.5089      6.963   248.4662 1.2351e-01    15.0323      8.354     12.118    11.6689 0.0000e+00
      8.369     -0.514     2.8593     31.466     55.963  41.005154     0.4957      6.963   248.5731 1.2350e-01    14.9487      8.206     11.902    11.6654 0.0000e+00
      8.228     -0.527     3.0175     32.627     55.967  41.001985     0.4898      6.964   248.8962 1.2352e-01    14.9084      8.065     11.698    11.6583 0.0000e+00
      8.096     -0.542     3.1512     33.580     55.792  40.869058     0.4958      6.966   249.1894 1.2354e-01    14.9555      7.938     11.513    11.6467 0.0000e+00
      7.968     -0.551     3.2831     34.303     55.610  40.730760     0.5104      6.967   249.3657 1.2351e-01    15.0402      7.817     11.338    11.6385 0.0000e+00
      7.833     -0.554     3.4203     34.804     55.696  40.789597     0.5164      6.967   249.4788 1.2348e-01    15.0436      7.689     11.153    11.6329 0.0000e+00
      7.681     -0.555     3.5562     35.106     55.825  40.882313     0.5025      6.965   249.1793 1.2349e-01    14.9282      7.534     10.929    11.6272 0.0000e+00
      7.524     -0.558     3.6577     35.276     55.846  40.899776     0.4917      6.964   248.7559 1.2350e-01    14.8069      7.372     10.692    11.6243 0.0000e+00
      7.378     -0.563     3.7362     35.315     55.808  40.873812     0.5024      6.964   248.9199 1.2350e-01    14.7724      7.229     10.485    11.6192 0.0000e+00
      7.246     -0.563     3.7930     35.213     55.739  40.822266     0.5157      6.964   249.5269 1.2350e-01    14.8192      7.105     10.304    11.6135 0.0000e+00
      7.115     -0.556     3.8190     35.031     55.692  40.784286     0.5110      6.963   250.1594 1.2351e-01    14.8259      6.985     10.131    11.6131 0.0000e+00
      6.970     -0.548     3.8399     34.851     55.711  40.795396     0.5040      6.961   249.5115 1.2350e-01    14.7506      6.841      9.922    11.6157 0.0000e+00
      6.815     -0.548     3.8447     34.691     55.760  40.829666     0.5057      6.959   247.9740 1.2350e-01    14.6943      6.675      9.682    11.6181 0.0000e+00
      6.672     -0.555     3.8310     34.515     55.742  40.817844     0.5057      6.959   247.6594 1.2349e-01    14.6915      6.535      9.479    11.6170 0.0000e+00
      6.544     -0.563     3.8075     34.350     55.687  40.779399     0.5044      6.958   248.0304 1.2349e-01    14.6494      6.420      9.311    11.6127 0.0000e+00
      6.414     -0.566     3.7866     34.256     55.642  40.745635     0.4979      6.957   248.5875 1.2352e-01    14.4580      6.297      9.132    11.6098 0.0000e+00
      6.267     -0.565     3.7739     34.234     55.621  40.726948     0.4942      6.956   248.3730 1.2354e-01    14.2569      6.152      8.925    11.6086 0.0000e+00
      6.106     -0.564     3.7523     34.255     55.647  40.743856     0.5021      6.955   246.7273 1.2355e-01    14.1982      5.987      8.683    11.6102 0.0000e+00
      5.947     -0.562     3.7301     34.298     55.669  40.759673     0.5096      6.954   245.8121 1.2350e-01    14.1242      5.824      8.447    11.6135 0.0000e+00
      5.806     -0.556     3.7215     34.344     55.625  40.727795     0.5181      6.953   245.8247 1.2346e-01    13.9776      5.690      8.253    11.6120 0.0000e+00
      5.676     -0.546     3.7204     34.382     55.552  40.675763     0.5218      6.951   246.2776 1.2351e-01    13.8937      5.566      8.073    11.6082 0.0000e+00
      5.549     -0.532     3.7236     34.412     55.500  40.638297     0.5205      6.946   246.9002 1.2357e-01    13.8273      5.443      7.894    11.6062 0.0000e+00
      5.414     -0.523     3.7291     34.455     55.176  40.401745     0.5447      6.941   246.4691 1.2357e-01    13.6533      5.315      7.709    11.6059 0.0000e+00
      5.272     -0.520     3.7345     34.542     54.849  40.163846     0.5983      6.938   245.6257 1.2352e-01    13.4632      5.166      7.493    11.6067 0.0000e+00
      5.136     -0.520     3.7385     34.655     55.119  40.363980     0.6362      6.937   245.3062 1.2348e-01    13.4085      5.031      7.295    11.6075 0.0000e+00
      5.010     -0.523     3.7411     34.736     55.438  40.600272     0.6366      6.938   245.3594 1.2349e-01    13.3672      4.917      7.131    11.6079 0.0000e+00
      4.883     -0.523     3.7440     34.806     55.446  40.609151     0.6271      6.938   245.7534 1.2348e-01    13.1687      4.789      6.947    11.6086 0.0000e+00
      4.751     -0.523     3.7529     34.920     55.426  40.598271     0.6380      6.938   247.3165 1.2344e-01    12.8540      4.661      6.761    11.6099 0.0000e+00
      4.614     -0.525     3.7703     35.070     55.328  40.532205     0.6687      6.938   249.2870 1.2347e-01    12.6355      4.529      6.570    11.6125 0.0000e+00
      4.472     -0.530     3.7767     35.232     55.111  40.381556     0.6902      6.937   249.0155 1.2361e-01    12.6106      4.380      6.352    11.6151 0.0000e+00
      4.337     -0.534     3.7803     35.385     54.724  40.109601     0.6907      6.935   247.3898 1.2448e-01    12.6211      4.250      6.165    11.6174 0.0000e+00
      4.209     -0.536     3.7947     35.537     54.522  39.973039     0.6993      6.934   246.9247 1.3415e-01    12.4891      4.133      5.995    11.6206 0.0000e+00
      4.074     -0.536     3.8104     35.725     54.886  40.253550     0.7353      6.934   248.7260 1.7387e-01    12.2451      3.996      5.796    11.6251 0.0000e+00
      3.933     -0.536     3.8291     35.933     55.219  40.518395     0.7776      6.933   251.1880 2.5526e-01    12.1294      3.857      5.594    11.6329 0.0000e+00
      3.793     -0.536     3.8445     36.088     55.260  40.573216     0.8114      6.931   250.4496 3.7144e-01    12.1489      3.719      5.394    11.6447 0.0000e+00
      3.654     -0.535     3.8575     36.151     55.263  40.599086     0.9359      6.928   247.4554 5.1901e-01    12.0722      3.580      5.193    11.6545 0.0000e+00
      3.519     -0.530     3.8773     36.111     55.289  40.640807     1.1579      6.924   245.5294 8.0629e-01    11.9187      3.452      5.007    11.6637 0.0000e+00
      3.384     -0.525     3.9028     35.970     55.388  40.760360     1.2906      6.918   245.4891 1.2752e+00    11.8652      3.317      4.812    11.6848 0.0000e+00
      3.252     -0.520     3.9178     35.737     55.431  40.902230     1.4161      6.913   246.2800 1.7662e+00    11.9377      3.185      4.619    11.7087 0.0000e+00
      3.124     -0.516     3.9235     35.413     55.386  41.023454     2.6428      6.909   246.0583 2.2675e+00    12.3508      3.069      4.451    11.7313 0.0000e+00
      2.991     -0.513     3.9176     35.013     55.436  41.210761     4.8783      6.905   245.1312 2.8139e+00    13.0002      2.935      4.257    11.7478 0.0000e+00
      2.857     -0.512     3.8997     34.540     55.517  41.453464     6.0970      6.900   243.8465 3.3503e+00    13.2992      2.795      4.053    11.7650 0.0000e+00
      2.729     -0.517     3.8663     33.963     55.622  41.800205     6.3172      6.895   241.9675 3.9627e+00    13.1992      2.678      3.884    11.8703 0.0000e+00
      2.602     -0.524     3.8141     33.241     55.645  42.229955     7.5655      6.891   240.3951 4.7629e+00    12.0644      2.554      3.704    12.0497 0.0000e+00
      2.471     -0.527     3.7625     32.403     55.141  42.397437     9.8214      6.886   238.8591 5.7930e+00    10.0307      2.423      3.515    12.1533 0.0000e+00
      2.336     -0.525     3.6994     31.487     54.501  42.366048    11.0453      6.881   237.9359 7.2255e+00     8.9349      2.299      3.334    12.3019 0.0000e+00
      2.191     -0.521     3.6220     30.374     54.247  42.422228    11.2025      6.877   238.0953 9.1571e+00     8.7893      2.149      3.117    12.5381 0.0000e+00
      2.047     -0.516     3.5179     28.840     54.158  42.569208    11.8133      6.874   236.3133 1.1378e+01     8.3728      1.996      2.896    12.8551 0.0000e+00
      1.921     -0.512     3.3777     26.831     53.908  42.747013    12.9372      6.874   233.5116 1.3894e+01     7.6565      1.883      2.731    13.4914 0.0000e+00
      1.803     -0.508     3.2515     24.570     53.123  42.858713    13.5716      6.874   232.9565 1.6867e+01     7.3019      1.769      2.566    13.9765 0.0000e+00
      1.683     -0.499     3.1412     22.374     51.931  42.905095    13.6249      6.872   232.8714 2.0476e+01     7.2619      1.652      2.395    14.0811 0.0000e+00
      1.556     -0.488     2.9744     20.387     50.879  42.864805    13.5809      6.869   228.4387 2.5369e+01     7.1737      1.536      2.229    14.2713 0.0000e+00
      1.416     -0.479     2.7436     18.486     50.146  42.753441    13.2561      6.869   218.8533 3.1194e+01     6.9869      1.387      2.011    14.5045 0.0000e+00
      1.282     -0.472     2.4644     16.601     49.642  42.701719    12.6696      6.871   210.4141 3.6586e+01     6.7113      1.244      1.804    15.1856 0.0000e+00
      1.171     -0.470     2.1769     14.909     49.175  42.620746    12.3482      6.873   204.8687 4.1955e+01     6.5396      1.146      1.664    16.4383 0.0000e+00
      1.070     -0.473     1.9567     13.669     48.547  42.472989    12.2668      6.877   200.1573 4.8578e+01     6.4826      1.053      1.528    17.2784 0.0000e+00
      0.963     -0.473     1.7663     13.146     47.733  42.439023    11.6691      6.881   193.8025 5.7081e+01     6.4316      0.947      1.373    17.6260 0.0000e+00
      0.842     -0.464     1.5634     13.551     46.925  42.528345    10.5894      6.884   181.8083 6.9246e+01     6.4026      0.835      1.211    18.0429 0.0000e+00
      0.700     -0.454     1.3868     14.978     46.330  42.602027    10.0072      6.894   169.5679 8.6393e+01     6.4381      0.692      1.004    18.3360 0.0000e+00
      0.555     -0.448     1.2556     17.678     45.922  42.632558     9.9235      6.915   163.9360 1.0298e+02     6.5195      0.526      0.763    18.5807 0.0000e+00
      0.447     -0.440     1.1778     22.053     45.514  42.644141     9.4864      6.943   162.4127 1.1376e+02     6.5325      0.419      0.607    19.3876 0.0000e+00
      0.375     -0.428     1.1909     28.110     45.079  42.615677     8.6834      6.967   161.9043 1.2777e+02     6.4592      0.379      0.549    20.4399 0.0000e+00
      0.286     -0.410     1.2976     35.425     44.820  42.606309     8.2380      6.983   162.6068 1.5813e+02     6.4183      0.299      0.433    21.0770 0.0000e+00
      0.164     -0.386     1.5073     43.374     44.765  42.658152     8.1790      6.993   163.5079 2.0344e+02     6.4489      0.159      0.230    21.3874 0.0000e+00
      0.040     -0.362     1.8797     51.290     44.761  42.734859     7.9879      6.998   162.3027 2.4176e+02     6.4528      0.030      0.044    21.8243 0.0000e+00
     -0.065     -0.340     2.4029     58.769     44.756  42.835697     7.6337      7.009   160.1660 2.5515e+02     6.3631     -0.070     -0.103    22.3537 0.0000e+00
     -0.145     -0.317     3.0407     65.338     44.742  42.988921     7.4245      7.034   160.1293 2.5326e+02     6.4233     -0.154     -0.225    22.5809 0.0000e+00
     -0.195     -0.288     3.7522     70.428     44.613  43.127859     7.2977      7.060   162.3757 2.5071e+02     8.4104     -0.198     -0.287    22.6372 0.0000e+00
     -0.238     -0.256     4.4336     73.919     44.293  43.119590     6.1588      7.080   165.5588 2.4565e+02    30.4575     -0.218     -0.315    22.7232 0.0000e+00
     -0.308     -0.222     5.0798     76.093     43.962  43.016344     4.0828      7.101   168.6743 2.3416e+02    70.8365     -0.289     -0.420    22.8304 0.0000e+00
     -0.399     -0.188     5.6568     77.426     43.741  42.895389     2.9469      7.124   171.2219 2.2497e+02    92.8658     -0.406     -0.589    22.9855 0.0000e+00
     -0.464     -0.159     6.0535     78.236     43.572  42.736279     2.8378      7.139   174.9381 2.2366e+02    95.1691     -0.475     -0.688    23.3012 0.0000e+00
     -0.485     -0.137     6.2958     78.575     43.566  42.679349     2.8880      7.136   184.0082 2.2611e+02    99.5054     -0.482     -0.698    23.7217 0.0000e+00
     -0.485     -0.117     6.4302     78.442     44.661  43.666792     3.5536      7.122   199.6672 2.2930e+02   145.7735     -0.476     -0.690    23.9731 0.0000e+00
     -0.485     -0.101     6.5210     77.841     48.110  46.931135     4.7680      7.111   216.5404 2.2947e+02   230.5715     -0.469     -0.679    24.0617 0.0000e+00
     -0.508     -0.094     6.5934     76.925     51.305  49.898172     5.4361      7.104   228.5891 2.2075e+02   276.8519     -0.481     -0.699    24.0570 0.0000e+00
     -0.563     -0.094     6.6266     75.939     50.965  49.321105     5.5314      7.099   235.6472 2.0489e+02   281.8369     -0.555     -0.806    23.9884 0.0000e+00
     -0.613     -0.089     6.6325     74.998     49.441  47.510066     5.9695      7.097   239.5012 1.9312e+02   291.9383     -0.620     -0.898    23.8879 0.0000e+00
     -0.632     -0.074     6.5878     74.025     49.112  46.857730     6.7884      7.095   225.4572 1.9130e+02   309.8993     -0.622     -0.903    23.7807 0.0000e+00
     -0.634     -0.049     6.5164     73.110     45.200  42.893466     7.2430      7.093   195.0730 1.9530e+02   319.6305     -0.620     -0.899    23.6697 0.0000e+00
     -0.634     -0.023     6.4582     72.626     31.630  29.910526     7.1957      7.097   183.0745 2.0232e+02   319.8263     -0.621     -0.902    23.4107 0.0000e+00
     -0.634     -0.006     6.4305     72.741     16.220  15.293883     6.0081      7.105   192.8372 2.0820e+02   311.9594     -0.620     -0.900    23.0331 0.0000e+00
     -0.634     -0.000     6.3912     73.306      9.888   9.297306     3.8035      7.106   205.3059 2.0294e+02   297.3399     -0.622     -0.902    22.6757 0.0000e+00
     -0.634 -3.596e-08     6.3273     74.093      8.994   8.444464     2.5975      7.101   215.5291 1.8019e+02   288.8558     -0.622     -0.902    22.3858 0.0000e+00
     -0.634 -3.956e-07     6.3061     74.940      8.219   7.706824     2.4459      7.096   222.8342 1.4938e+02   281.7623     -0.622     -0.902    22.1864 0.0000e+00
     -0.634 -3.956e-07     6.3379     75.763      7.713   7.221660     1.8872      7.092   227.6383 1.2991e+02   211.1637     -0.622     -0.902    22.0630 0.0000e+00
     -0.634 -3.596e-08     6.4047     76.483      7.503   7.013647     0.8694      7.089   231.3707 1.2481e+02    81.8575     -0.621     -0.901    21.9876 0.0000e+00
     -0.634 -3.260e-09     6.4850     77.017      7.259   6.775728     0.3273      7.087   235.6114 1.2410e+02    11.3691     -0.622     -0.902    21.9339 0.0000e+00
     -0.634 -2.013e-10     6.5678     77.321      6.905   6.435805     0.3014      7.085   239.6783 1.2256e+02     4.9857     -0.622     -0.902    21.8786 0.0000e+00
     -0.634 1.0281e-09     6.6518     77.456      6.592   6.134900     0.3974      7.083   240.6213 1.2091e+02     4.2326     -0.622     -0.902    21.8081 0.0000e+00
     -0.634 1.1604e-08     6.7269     77.532      6.444   5.988554     0.5816      7.083   241.2484 1.2167e+02     3.8343     -0.622     -0.902    21.7327 0.0000e+00
     -0.634 1.2767e-07     6.7856     77.576      6.326   5.870096     0.6971      7.084   245.7982 1.2129e+02     3.6538     -0.621     -0.901    21.6646 0.0000e+00
     -0.634 2.3406e-07     6.8186     77.584      5.963   5.526244     0.7207      7.084   248.3966 1.1874e+02     3.6558     -0.622     -0.902    21.5995 0.0000e+00
     -0.634 1.2767e-07     6.8337     77.581      5.468   5.062129     0.7089      7.085   248.2305 1.1999e+02     3.6888     -0.622     -0.902    21.5309 0.0000e+00
     -0.634 1.1607e-08     6.8513     77.577      5.007   4.629915     0.6206      7.075   111.8923 1.2908e+02     4.3598     -0.622     -0.902    21.4578 0.0000e+00
     -0.634 1.0551e-09     6.8644     77.549      4.647   4.291548     0.4850      7.057    -6.1352 1.5288e+02     5.6879     -0.622     -0.902    21.3892 0.0000e+00
     -0.634 9.5920e-11     6.8721     77.567      4.554   4.201865     0.4091      7.046   179.1268 2.0085e+02     6.4239     -0.621     -0.901    21.3301 0.0000e+00
     -0.634 8.7200e-12     6.8780     77.666      4.878   4.495835     0.3774      7.022   356.5437 2.5672e+02     6.3250     -0.622     -0.902    21.2736 0.0000e+00
     -0.634 7.9275e-13     6.8878     77.639      5.837   5.375164     0.2524      6.986   366.1584 2.9405e+02     5.0050     -0.622     -0.903    21.2187 0.0000e+00
     -0.634 7.2065e-14     6.8899     77.322      6.757   6.217684     0.0463      6.961   365.0691 3.2327e+02     2.6930     -0.622     -0.902    21.1693 0.0000e+00
     -0.634 6.5515e-15     6.8905     76.732      6.736   6.193210    -0.0593      6.949   365.1409 3.4730e+02     1.4615     -0.622     -0.902    21.1248 0.0000e+00
     -0.634 5.9560e-16     6.9180     75.938      6.287   5.776189    -0.0748      6.947   363.3268 3.5857e+02     1.3542     -0.622     -0.902    21.0829 0.0000e+00
     -0.634 5.4145e-17     6.9261     75.044      6.112   5.610434    -0.0835      6.950   362.7513 3.6942e+02     1.3621     -0.622     -0.902    21.0418 0.0000e+00
     -0.634 4.9223e-18     6.9002     74.138      5.949   5.456196    -0.0730      6.954   363.0012 3.7748e+02     1.3854     -0.622     -0.903    21.0024 0.0000e+00
     -0.634 4.4748e-19     6.8521     73.313      5.581   5.115033    -0.0728      6.961   357.3141 3.7874e+02     1.3291     -0.622     -0.902    20.9656 0.0000e+00
     -0.634 4.0680e-20     6.7806     72.623      5.151   4.716486    -0.0890      6.971   331.0719 3.7808e+02     1.2624     -0.621     -0.901    20.9291 0.0000e+00
     -0.634 3.6982e-21     6.7052     72.092      4.712   4.311833    -0.0852      6.985   237.8346 3.7654e+02     1.2958     -0.622     -0.901    20.8921 0.0000e+00
     -0.634 3.3620e-22     6.6242     71.742      4.332   3.960129    -0.0697      7.004   114.2159 3.7448e+02     1.3227     -0.622     -0.902    20.8547 0.0000e+00
     -0.634 3.0563e-23     6.5544     71.552      4.114   3.758265    -0.0757      7.019    57.9076 3.7187e+02     1.2802     -0.622     -0.902    20.8174 0.0000e+00
     -0.634 2.7785e-24     6.4976     71.491      4.132   3.771594    -0.0920      7.019    46.8369 3.6899e+02     1.2600     -0.623     -0.903    20.7802 0.0000e+00
     -0.634 2.5259e-25     6.4520     71.501      4.241   3.867892    -0.0912      7.010    38.4384 3.6022e+02     1.2842     -0.622     -0.902    20.7432 0.0000e+00
     -0.634 2.2963e-26     6.4283     71.546      4.290   3.909004    -0.0742      7.005    24.5047 3.4759e+02     1.3327     -0.622     -0.902    20.7061 0.0000e+00
     -0.634 2.0875e-27     6.4146     71.603      4.340   3.951919    -0.0698      7.015   -47.8126 3.4084e+02     1.3339     -0.622     -0.902    20.6695 0.0000e+00
     -0.635 1.8978e-28     6.4177     71.660      4.404   4.006677    -0.0886      7.044  -240.8106 3.3540e+02     1.2651     -0.623     -0.903    20.6328 0.0000e+00
     -0.635 1.7252e-29     6.4234     71.733      4.471   4.064274    -0.0935      7.077  -495.3094 3.2654e+02     1.2531     -0.623     -0.903    20.5950 0.0000e+00
     -0.634 1.5684e-30     6.4328     71.794      4.559   4.141519    -0.0875      7.077  -615.6871 3.1869e+02     1.2914     -0.622     -0.902    20.5579 0.0000e+00
     -0.634 1.4258e-31     6.4439     71.804      4.465   4.053741    -0.1068      7.059  -675.0008 3.1694e+02     1.2839     -0.622     -0.902    20.5226 0.0000e+00
     -0.635 1.2962e-32     6.4511     71.788      4.218   3.826487    -0.1272      7.081  -854.1129 3.1491e+02     1.2979     -0.623     -0.903    20.4877 0.0000e+00
     -0.635 1.1784e-33     6.4640     71.804      4.193   3.801091    -0.1258      7.102  -963.8232 3.0865e+02     1.3586     -0.623     -0.903    20.4529 0.0000e+00
     -0.635 1.0712e-34     6.4752     71.862      4.276   3.873384    -0.1236      7.065  -928.2451 3.1243e+02     1.3691     -0.623     -0.904    20.4185 0.0000e+00
     -0.635 9.7385e-36     6.4804     71.966      4.143   3.750332    -0.1344      7.007  -890.2740 3.2114e+02     1.3225     -0.622     -0.903    20.3848 0.0000e+00
     -0.635 8.8530e-37     6.4790     72.092      3.888   3.516903    -0.1469      6.960  -812.9965 3.1082e+02     1.3073     -0.623     -0.903    20.3522 0.0000e+00
     -0.635 8.0490e-38     6.4863     72.212      3.687   3.331564    -0.1422      6.919  -666.6298 2.8612e+02     1.3560     -0.623     -0.903    20.3202 0.0000e+00
     -0.635 7.3770e-39     6.4946     72.328      3.567   3.219799    -0.1186      6.895  -555.6157 2.6692e+02     1.3640     -0.623     -0.903    20.2881 0.0000e+00
     -0.635 1.3303e-39     6.5083     72.385      3.523   3.179120    -0.1036      6.890  -524.8867 2.5463e+02     1.3364     -0.622     -0.903    20.2578 0.0000e+00
     -0.635 -9.990e-29     6.5277 -9.990e-29 -9.990e-29 -9.990e-29 -9.990e-29 -9.990e-29 -9.990e-29 2.4590e+02 -9.990e-29     -0.622     -0.903    20.2172 0.0000e+00
     -0.635 -9.990e-29     6.5412 -9.990e-29 -9.990e-29 -9.990e-29 -9.990e-29 -9.990e-29 -9.990e-29 2.3966e+02 -9.990e-29     -0.622     -0.903    20.1746 0.0000e+00
     -0.635 -9.990e-29     6.5615 -9.990e-29 -9.990e-29 -9.990e-29 -9.990e-29 -9.990e-29 -9.990e-29 2.3438e+02 -9.990e-29     -0.623     -0.903    20.1257 0.0000e+00
     -0.635 -9.990e-29     6.5741 -9.990e-29 -9.990e-29 -9.990e-29 -9.990e-29 -9.990e-29 -9.990e-29 2.3211e+02 -9.990e-29     -0.622     -0.903    20.0930 0.0000e+00
