* Sea-Bird SBE19plus  Data File:
* FileName = C:\R\Reservoirs\Data\DataNotYetUploadedToEDI\Raw_CTD\RawDownloads\082624_fcr50_S7809_0005.hex
* Software version 2.8.0.119
* Temperature SN = 7809
* Conductivity SN = 7809
* System UpLoad Time = Aug 27 2024 14:10:27
* <ApplicationData>
* <Seaterm232>
* <SoftwareVersion>2.8.0.119</SoftwareVersion>
* <BuildDate>07-Nov-2018</BuildDate>
* </Seaterm232>
* </ApplicationData>
* <InstrumentState>
* <HardwareData DeviceType='SBE19plus' SerialNumber='01907809'>
*
*    <Manufacturer>Sea-Bird Electronics, Inc.</Manufacturer>
*
*    <FirmwareVersion>3.1.8</FirmwareVersion>
*
*    <FirmwareDate>Mar  9 2016 16:22:29</FirmwareDate>
*
*    <CommandSetVersion>1.4</CommandSetVersion>
*
*    <PCBAssembly PCBSerialNum='120721' AssemblyNum='41054J'/>
*
*    <PCBAssembly PCBSerialNum='120715' AssemblyNum='41967A'/>
*
*    <PCBAssembly PCBSerialNum='116699' AssemblyNum='41606'/>
*
*    <PCBAssembly PCBSerialNum='120719' AssemblyNum='41059D'/>
*
*    <MfgDate>28-Apr-2017</MfgDate>
*
*    <InternalSensors>
*
*       <Sensor id='Main Temperature'>
*
*          <type>temperature0</type>
*
*          <SerialNumber>01907809</SerialNumber>
*
*       </Sensor>
*
*       <Sensor id='Main Conductivity'>
*
*          <type>conductivity-0</type>
*
*          <SerialNumber>01907809</SerialNumber>
*
*       </Sensor>
*
*       <Sensor id='Main Pressure'>
*
*          <type>strain-0</type>
*
*          <SerialNumber>10586018</SerialNumber>
*
*       </Sensor>
*
*    </InternalSensors>
*
*    <ExternalSensors>
*
*       <Sensor id='volt 0'>
*
*          <type>pH</type>
*
*          <SerialNumber>27-0363</SerialNumber>
*
*       </Sensor>
*
*       <Sensor id='volt 1'>
*
*          <type>ORP</type>
*
*          <SerialNumber>27-0363</SerialNumber>
*
*       </Sensor>
*
*       <Sensor id='volt 2'>
*
*          <type>OXY</type>
*
*          <SerialNumber>43-0434</SerialNumber>
*
*       </Sensor>
*
*       <Sensor id='volt 3'>
*
*          <type>PAR</type>
*
*          <SerialNumber>1122</SerialNumber>
*
*       </Sensor>
*
*       <Sensor id='volt 4'>
*
*          <type>ECO AFL/FL</type>
*
*          <SerialNumber>FLNTURT-2496</SerialNumber>
*
*       </Sensor>
*
*       <Sensor id='volt 5'>
*
*          <type>ECO-NTU</type>
*
*          <SerialNumber>FLNTURT-2496</SerialNumber>
*
*       </Sensor>
*
*       <Sensor id='serial'>
*
*          <type>not assigned</type>
*
*          <SerialNumber>not assigned</SerialNumber>
*
*       </Sensor>
*
*    </ExternalSensors>
*
* </HardwareData>
* <StatusData DeviceType='SBE19plus' SerialNumber='01907809'>
*
*    <DateTime>2024-08-27T14:07:46</DateTime>
*
*    <LoggingState>not logging</LoggingState>
*
*    <EventSummary numEvents='0'/>
*
*    <Power>
*
*       <vMain>12.4</vMain>
*
*       <vLith>8.4</vLith>
*
*       <iMain>63.1</iMain>
*
*       <iPump>52.8</iPump>
*
*       <iExt01>20.8</iExt01>
*
*       <iExt2345>39.5</iExt2345>
*
*    </Power>
*
*    <MemorySummary>
*
*       <Bytes>110400</Bytes>
*
*       <Samples>4800</Samples>
*
*       <SamplesFree>2855988</SamplesFree>
*
*       <SampleLength>23</SampleLength>
*
*       <Profiles>5</Profiles>
*
*    </MemorySummary>
*
* </StatusData>
* <ConfigurationData DeviceType='SBE19plus' SerialNumber='01907809'>
*
*    <ProfileMode>
*
*       <ScansToAverage>1</ScansToAverage>
*
*       <MinimumCondFreq>0</MinimumCondFreq>
*
*       <PumpDelay>45</PumpDelay>
*
*       <AutoRun>no</AutoRun>
*
*       <IgnoreSwitch>no</IgnoreSwitch>
*
*    </ProfileMode>
*
*    <Battery>
*
*       <Type>alkaline</Type>
*
*       <CutOff>7.5</CutOff>
*
*    </Battery>
*
*    <DataChannels>
*
*       <ExtVolt0>yes</ExtVolt0>
*
*       <ExtVolt1>yes</ExtVolt1>
*
*       <ExtVolt2>yes</ExtVolt2>
*
*       <ExtVolt3>yes</ExtVolt3>
*
*       <ExtVolt4>yes</ExtVolt4>
*
*       <ExtVolt5>yes</ExtVolt5>
*
*       <SBE38>no</SBE38>
*
*       <WETLABS>no</WETLABS>
*
*       <OPTODE>no</OPTODE>
*
*       <SBE63>no</SBE63>
*
*       <SeaFET>no</SeaFET>
*
*       <GTD>no</GTD>
*
*    </DataChannels>
*
*    <EchoCharacters>yes</EchoCharacters>
*
*    <OutputExecutedTag>yes</OutputExecutedTag>
*
*    <OutputFormat>raw HEX</OutputFormat>
*
* </ConfigurationData>
* <CalibrationCoefficients DeviceType='SBE19plus' SerialNumber='01907809'>
*
*    <Calibration format='TEMP1' id='Main Temperature'>
*
*       <SerialNum>01907809</SerialNum>
*
*       <CalDate>31-Jan-23</CalDate>
*
*       <TA0>1.218232e-03</TA0>
*
*       <TA1>2.815090e-04</TA1>
*
*       <TA2>-1.578887e-06</TA2>
*
*       <TA3>1.972343e-07</TA3>
*
*       <TOFFSET>0.000000e+00</TOFFSET>
*
*    </Calibration>
*
*    <Calibration format='WBCOND0' id='Main Conductivity'>
*
*       <SerialNum>01907809</SerialNum>
*
*       <CalDate>31-Jan-23</CalDate>
*
*       <G>-1.005652e+00</G>
*
*       <H>1.267963e-01</H>
*
*       <I>-1.561708e-04</I>
*
*       <J>2.645944e-05</J>
*
*       <CPCOR>-9.570000e-08</CPCOR>
*
*       <CTCOR>3.250000e-06</CTCOR>
*
*       <CSLOPE>1.000000e+00</CSLOPE>
*
*    </Calibration>
*
*    <Calibration format='STRAIN0' id='Main Pressure'>
*
*       <SerialNum>10586018</SerialNum>
*
*       <CalDate>20-Jan-23</CalDate>
*
*       <PA0>4.416439e-02</PA0>
*
*       <PA1>4.850502e-04</PA1>
*
*       <PA2>-3.090426e-12</PA2>
*
*       <PTCA0>5.254757e+05</PTCA0>
*
*       <PTCA1>1.050255e+01</PTCA1>
*
*       <PTCA2>-2.922435e-01</PTCA2>
*
*       <PTCB0>2.516687e+01</PTCB0>
*
*       <PTCB1>3.750000e-04</PTCB1>
*
*       <PTCB2>0.000000e+00</PTCB2>
*
*       <PTEMPA0>-5.470820e+01</PTEMPA0>
*
*       <PTEMPA1>5.485421e+01</PTEMPA1>
*
*       <PTEMPA2>-3.446578e-01</PTEMPA2>
*
*       <POFFSET>8.500000e-01</POFFSET>
*
*       <PRANGE>1.600000e+02</PRANGE>
*
*    </Calibration>
*
*    <Calibration format='VOLT0' id='Volt 0'>
*
*       <OFFSET>-4.920000e-02</OFFSET>
*
*       <SLOPE>1.248122e+00</SLOPE>
*
*    </Calibration>
*
*    <Calibration format='VOLT0' id='Volt 1'>
*
*       <OFFSET>-4.784000e-02</OFFSET>
*
*       <SLOPE>1.248871e+00</SLOPE>
*
*    </Calibration>
*
*    <Calibration format='VOLT0' id='Volt 2'>
*
*       <OFFSET>-4.864632e-02</OFFSET>
*
*       <SLOPE>1.248714e+00</SLOPE>
*
*    </Calibration>
*
*    <Calibration format='VOLT0' id='Volt 3'>
*
*       <OFFSET>-4.743790e-02</OFFSET>
*
*       <SLOPE>1.248571e+00</SLOPE>
*
*    </Calibration>
*
*    <Calibration format='VOLT0' id='Volt 4'>
*
*       <OFFSET>-4.671263e-02</OFFSET>
*
*       <SLOPE>1.248951e+00</SLOPE>
*
*    </Calibration>
*
*    <Calibration format='VOLT0' id='Volt 5'>
*
*       <OFFSET>-4.871053e-02</OFFSET>
*
*       <SLOPE>1.249136e+00</SLOPE>
*
*    </Calibration>
*
*    <Calibration format='FREQ0' id='external frequency channel'>
*
*       <EXTFREQSF>1.000014e+00</EXTFREQSF>
*
*    </Calibration>
*
* </CalibrationCoefficients>
* <EventCounters DeviceType='SBE19plus' SerialNumber='01907809'>
*
*    <EventSummary numEvents='0'/>
*
* </EventCounters></InstrumentState>
* <Headers>
*
* cast   5 26 Aug 2024 12:38:41 samples 3755 to 4800, avg = 1, stop = mag switch
*
# nquan = 15
# nvalues = 560                         
# units = specified
# name 0 = depFM: Depth [fresh water, m]
# name 1 = dz/dtM: Descent Rate [m/s]
# name 2 = sbeox0Mg/L: Oxygen, SBE 43 [mg/l]
# name 3 = sbeox0PS: Oxygen, SBE 43 [% saturation]
# name 4 = specc: Specific Conductance [uS/cm]
# name 5 = c0uS/cm: Conductivity [uS/cm]
# name 6 = flECO-AFL: Fluorescence, WET Labs ECO-AFL/FL [mg/m^3]
# name 7 = ph: pH
# name 8 = orp: Oxidation Reduction Potential [mV]
# name 9 = par/sat/log: PAR/Logarithmic, Satlantic
# name 10 = turbWETntu0: Turbidity, WET Labs ECO [NTU]
# name 11 = prdM: Pressure, Strain Gauge [db]
# name 12 = prdE: Pressure, Strain Gauge [psi]
# name 13 = tv290C: Temperature [ITS-90, deg C]
# name 14 = flag:  0.000e+00
# span 0 =     -0.572,      5.980       
# span 1 =     -0.094,      0.173       
# span 2 =     0.1258,     8.8494       
# span 3 =      1.357,    105.533       
# span 4 =      1.323,     89.384       
# span 5 =   1.266848,  75.028010       
# span 6 =    -0.0821,    49.0816       
# span 7 =      7.410,      7.999       
# span 8 =    86.0236,   293.4254       
# span 9 = 1.2358e-01, 2.4756e+03       
# span 10 =     0.6401,   399.6534      
# span 11 =     -0.561,      5.864      
# span 12 =     -0.814,      8.506      
# span 13 =    12.7513,    26.1149      
# span 14 = 0.0000e+00, 0.0000e+00      
# interval = seconds: 0.25
# start_time = Aug 26 2024 12:38:41 [Instrument's time stamp, header]
# bad_flag = -9.990e-29
# <Sensors count="9" >
#   <sensor Channel="1" >
#     <!-- Count, Temperature -->
#     <TemperatureSensor SensorID="58" >
#       <SerialNumber>7809</SerialNumber>
#       <CalibrationDate>31-Jan-23</CalibrationDate>
#       <A0>1.21823180e-003</A0>
#       <A1>2.81508993e-004</A1>
#       <A2>-1.57888696e-006</A2>
#       <A3>1.97234302e-007</A3>
#       <Slope>1.00000000</Slope>
#       <Offset>0.0000</Offset>
#     </TemperatureSensor>
#   </sensor>
#   <sensor Channel="2" >
#     <!-- Frequency 0, Conductivity -->
#     <ConductivitySensor SensorID="3" >
#       <SerialNumber>7809</SerialNumber>
#       <CalibrationDate>31-Jan-23</CalibrationDate>
#       <UseG_J>1</UseG_J>
#       <!-- Cell const and series R are applicable only for wide range sensors. -->
#       <SeriesR>0.0000</SeriesR>
#       <CellConst>2000.0000</CellConst>
#       <ConductivityType>0</ConductivityType>
#       <Coefficients equation="0" >
#         <A>0.00000000e+000</A>
#         <B>0.00000000e+000</B>
#         <C>0.00000000e+000</C>
#         <D>0.00000000e+000</D>
#         <M>0.0</M>
#         <CPcor>-9.57000000e-008</CPcor>
#       </Coefficients>
#       <Coefficients equation="1" >
#         <G>-1.00565232e+000</G>
#         <H>1.26796307e-001</H>
#         <I>-1.56170788e-004</I>
#         <J>2.64594368e-005</J>
#         <CPcor>-9.57000000e-008</CPcor>
#         <CTcor>3.2500e-006</CTcor>
#         <!-- WBOTC not applicable unless ConductivityType = 1. -->
#         <WBOTC>0.00000000e+000</WBOTC>
#       </Coefficients>
#       <Slope>1.00000000</Slope>
#       <Offset>0.00000</Offset>
#     </ConductivitySensor>
#   </sensor>
#   <sensor Channel="3" >
#     <!-- Count, Pressure, Strain Gauge -->
#     <PressureSensor SensorID="46" >
#       <SerialNumber>7809</SerialNumber>
#       <CalibrationDate>20-Jan-23</CalibrationDate>
#       <PA0>4.41643944e-002</PA0>
#       <PA1>4.85050239e-004</PA1>
#       <PA2>-3.09042623e-012</PA2>
#       <PTEMPA0>-5.47081996e+001</PTEMPA0>
#       <PTEMPA1>5.48542136e+001</PTEMPA1>
#       <PTEMPA2>-3.44657813e-001</PTEMPA2>
#       <PTCA0>5.25475731e+005</PTCA0>
#       <PTCA1>1.05025484e+001</PTCA1>
#       <PTCA2>-2.92243463e-001</PTCA2>
#       <PTCB0>2.51668750e+001</PTCB0>
#       <PTCB1>3.75000000e-004</PTCB1>
#       <PTCB2>0.00000000e+000</PTCB2>
#       <Offset>0.000000</Offset>
#     </PressureSensor>
#   </sensor>
#   <sensor Channel="4" >
#     <!-- A/D voltage 0, Oxygen, SBE 43 -->
#     <OxygenSensor SensorID="38" >
#       <SerialNumber>0434</SerialNumber>
#       <CalibrationDate>18-Feb-23</CalibrationDate>
#       <Use2007Equation>1</Use2007Equation>
#       <CalibrationCoefficients equation="0" >
#         <!-- Coefficients for Owens-Millard equation. -->
#         <Boc>0.0000</Boc>
#         <Soc>0.0000e+000</Soc>
#         <offset>0.0000</offset>
#         <Pcor>0.00e+000</Pcor>
#         <Tcor>0.0000</Tcor>
#         <Tau>0.0</Tau>
#       </CalibrationCoefficients>
#       <CalibrationCoefficients equation="1" >
#         <!-- Coefficients for Sea-Bird equation - SBE calibration in 2007 and later. -->
#         <Soc>5.1878e-001</Soc>
#         <offset>-0.5046</offset>
#         <A>-4.2788e-003</A>
#         <B> 1.5372e-004</B>
#         <C>-2.1853e-006</C>
#         <D0> 2.5826e+000</D0>
#         <D1> 1.92634e-004</D1>
#         <D2>-4.64803e-002</D2>
#         <E> 3.6000e-002</E>
#         <Tau20> 0.9900</Tau20>
#         <H1>-3.3000e-002</H1>
#         <H2> 5.0000e+003</H2>
#         <H3> 1.4500e+003</H3>
#       </CalibrationCoefficients>
#     </OxygenSensor>
#   </sensor>
#   <sensor Channel="5" >
#     <!-- A/D voltage 1, PAR/Logarithmic, Satlantic -->
#     <PARLog_SatlanticSensor SensorID="76" >
#       <SerialNumber>1122</SerialNumber>
#       <CalibrationDate>08-Sep-2021</CalibrationDate>
#       <a0>9.6751e-001</a0>
#       <a1>8.0992e-001</a1>
#       <Im>1.3589e+000</Im>
#       <Multiplier>1.0000e+000</Multiplier>
#     </PARLog_SatlanticSensor>
#   </sensor>
#   <sensor Channel="6" >
#     <!-- A/D voltage 2, pH -->
#     <pH_Sensor SensorID="43" >
#       <SerialNumber>0363</SerialNumber>
#       <CalibrationDate>28-Feb-23</CalibrationDate>
#       <Slope>4.7364</Slope>
#       <Offset>2.5433</Offset>
#     </pH_Sensor>
#   </sensor>
#   <sensor Channel="7" >
#     <!-- A/D voltage 3, Oxidation Reduction Potential -->
#     <OxidationReductionPotentialSensor SensorID="41" >
#       <SerialNumber>0363</SerialNumber>
#       <CalibrationDate>28-Feb-23</CalibrationDate>
#       <B>2.499480</B>
#       <M>-0.496195</M>
#       <Offset>0.0</Offset>
#     </OxidationReductionPotentialSensor>
#   </sensor>
#   <sensor Channel="8" >
#     <!-- A/D voltage 4, Fluorometer, WET Labs ECO-AFL/FL -->
#     <FluoroWetlabECO_AFL_FL_Sensor SensorID="20" >
#       <SerialNumber>FLNTURT-2496</SerialNumber>
#       <CalibrationDate>02-Sep-2021</CalibrationDate>
#       <ScaleFactor>4.80000000e+001</ScaleFactor>
#       <!-- Dark output -->
#       <Vblank>0.0550</Vblank>
#     </FluoroWetlabECO_AFL_FL_Sensor>
#   </sensor>
#   <sensor Channel="9" >
#     <!-- A/D voltage 5, Turbidity Meter, WET Labs, ECO-NTU -->
#     <TurbidityMeter SensorID="67" >
#       <SerialNumber>FLNTURT--2496</SerialNumber>
#       <CalibrationDate>02-Sep-2021</CalibrationDate>
#       <ScaleFactor>197.000000</ScaleFactor>
#       <!-- Dark output -->
#       <DarkVoltage>0.070000</DarkVoltage>
#     </TurbidityMeter>
#   </sensor>
# </Sensors>
# datcnv_date = Aug 27 2024 14:15:00, 7.26.7.129 [datcnv_vars = 14]
# datcnv_in = C:\R\Reservoirs\Data\DataNotYetUploadedToEDI\Raw_CTD\RawDownloads\082624_fcr40_S7809_0005.hex C:\R\Reservoirs\Data\DataNotYetUploadedToEDI\Raw_CTD\RawDownloads\SBE19plusV2_7809_start20230701.xmlcon
# datcnv_skipover = 0
# datcnv_ox_hysteresis_correction = yes
# datcnv_ox_tau_correction = yes
# filter_date = Aug 27 2024 14:15:34, 7.26.7.129
# filter_in = C:\R\Reservoirs\Data\DataNotYetUploadedToEDI\Raw_CTD\RawDownloads\082624_fcr40_S7809_0005.cnv
# filter_low_pass_tc_A = 0.030
# filter_low_pass_tc_B = 0.150
# filter_low_pass_A_vars = sbeox0Mg/L prdM prdE tv290C
# filter_low_pass_B_vars = depFM dz/dtM sbeox0PS specc c0uS/cm flECO-AFL ph orp par/sat/log turbWETntu0
# alignctd_date = Aug 27 2024 14:16:21, 7.26.7.129
# alignctd_in = C:\R\Reservoirs\Data\DataNotYetUploadedToEDI\Raw_CTD\RawDownloads\082624_fcr40_S7809_0005.cnv
# alignctd_adv = dz/dtM 1.000, sbeox0PS 1.000, specc 1.000, c0uS/cm 1.000, flECO-AFL 1.000, ph 1.000, orp 1.000, turbWETntu0 1.000                                                                                                   
# file_type = ascii
*END*
     -0.572 7.4581e-20     7.9877     92.867      1.330   1.273963    -0.0630      7.428   256.5154 1.9759e+03     0.7154     -0.561     -0.813    22.8729 0.0000e+00
     -0.571 3.4979e-19     7.9854     92.847      1.323   1.266848    -0.0682      7.412   281.7835 1.9516e+03     0.6829     -0.560     -0.812    22.8705 0.0000e+00
     -0.571 3.8049e-18     7.9873     92.837      1.371   1.313183    -0.0821      7.410   288.0827 1.9295e+03     0.6401     -0.560     -0.812    22.8681 0.0000e+00
     -0.571 4.1850e-17     7.9882     92.832      1.452   1.390811    -0.0716      7.419   284.3241 1.8913e+03     0.6413     -0.560     -0.812    22.8700 0.0000e+00
     -0.572 4.6035e-16     7.9841     92.837      1.509   1.445360    -0.0501      7.431   283.0576 1.4759e+03     0.6983     -0.561     -0.813    22.8762 0.0000e+00
     -0.572 5.0639e-15     7.9812     92.838      1.530   1.465994    -0.0554      7.440   285.8476 7.0108e+02     0.7146     -0.561     -0.813    22.8820 0.0000e+00
     -0.572 5.5703e-14     7.9809     92.817      1.514   1.450271    -0.0779      7.444   287.4285 2.6861e+02     0.6675     -0.561     -0.813    22.8844 0.0000e+00
     -0.571 6.1273e-13     7.9794     92.795      1.509   1.445274    -0.0801      7.440   287.9749 2.1788e+02     0.6756     -0.560     -0.812    22.8857 0.0000e+00
     -0.571 6.7400e-12     7.9799     92.773      1.533   1.468920    -0.0652      7.432   290.8192 2.0338e+02     0.7092     -0.560     -0.812    22.8869 0.0000e+00
     -0.572 7.4140e-11     7.9818     92.721      1.548   1.482815    -0.0641      7.427   293.4254 1.9219e+02     0.6644     -0.561     -0.813    22.8874 0.0000e+00
     -0.572 8.1554e-10     7.9779     92.645      1.552   1.486591    -0.0751      7.427   292.1261 1.8373e+02     0.6801     -0.561     -0.814    22.8871 0.0000e+00
     -0.572 8.9710e-09     7.9761     92.572      1.581   1.514572    -0.0581      7.430   288.8759 1.8307e+02     1.0021     -0.561     -0.813    22.8864 0.0000e+00
     -0.572 9.8680e-08     7.9765     92.514      1.637   1.567775    -0.0242      7.430   287.6831 1.9210e+02     1.4835     -0.561     -0.813    22.8853 0.0000e+00
     -0.572      0.000     7.9717     92.471      1.695   1.623129    -0.0145      7.429   288.7176 2.1004e+02     1.6839     -0.561     -0.814    22.8839 0.0000e+00
     -0.572      0.000     7.9637     92.374      1.751   1.677113     0.0262      7.432   286.1541 2.3761e+02     1.7850     -0.561     -0.813    22.8819 0.0000e+00
     -0.572      0.000     7.9587     92.245      1.790   1.713758     0.4345      7.440   279.3172 2.9016e+02     3.0143     -0.561     -0.814    22.8803 0.0000e+00
     -0.572      0.001     7.9516     92.210      1.892   1.812847     1.1600      7.450   273.9377 4.6958e+02     5.2058     -0.561     -0.813    22.8781 0.0000e+00
     -0.572      0.006     7.9526     92.228      2.389   2.305101     1.5657      7.462   267.5719 6.5434e+02     6.4196     -0.561     -0.814    22.8766 0.0000e+00
     -0.572      0.015     7.9462     92.264      6.525   6.398713     1.6188      7.459   228.6775 7.5719e+02     6.5882     -0.561     -0.814    22.8735 0.0000e+00
     -0.572      0.028     7.9246     92.344     14.915  14.745703     1.6525      7.454   159.8715 1.2032e+03     6.6302     -0.561     -0.814    22.8730 0.0000e+00
     -0.568      0.043     7.9288     92.417     22.588  22.493443     1.6990      7.490   123.6992 1.5246e+03     6.6201     -0.561     -0.812    22.8688 0.0000e+00
     -0.554      0.058     7.9295     92.456     30.340  30.414588     1.7142      7.555   122.5730 1.5143e+03     6.5682     -0.547     -0.793    22.8797 0.0000e+00
     -0.530      0.073     7.8609     92.491     38.275  38.529408     1.7197      7.607   122.7658 1.9720e+03     6.5839     -0.520     -0.755    23.3326 0.0000e+00
     -0.505      0.083     7.7457     92.521     41.730  42.131994     1.7409      7.641   121.4698 2.4195e+03     6.6733     -0.493     -0.716    24.1965 0.0000e+00
     -0.481      0.089     7.6685     92.560     42.056  42.566520     1.7784      7.657   117.6591 2.4685e+03     6.6923     -0.473     -0.686    24.7772 0.0000e+00
     -0.457      0.094     7.6270     92.824     42.176  42.767865     1.8237      7.654   112.8266 2.4756e+03     6.6430     -0.448     -0.650    25.0851 0.0000e+00
     -0.435      0.104     7.5946     93.419     42.203  42.852855     1.8401      7.638   110.1041 2.4747e+03     6.5900     -0.424     -0.615    25.3285 0.0000e+00
     -0.416      0.118     7.5791     93.915     42.124  42.832558     1.8604      7.623   109.0054 2.4708e+03     6.5971     -0.407     -0.591    25.4831 0.0000e+00
     -0.394      0.132     7.5568     94.051     42.060  42.839895     2.0356      7.613   108.8342 2.4708e+03     6.6262     -0.392     -0.569    25.6099 0.0000e+00
     -0.355      0.145     7.5526     94.195     41.974  42.814731     2.3347      7.600   108.6369 2.4733e+03     6.6008     -0.356     -0.517    25.7114 0.0000e+00
     -0.300      0.156     7.6159     94.547     41.777  42.655331     2.4889      7.584   108.0823 2.4708e+03     6.5633     -0.290     -0.420    25.7605 0.0000e+00
     -0.251      0.167     7.6622     94.933     41.595  42.499425     2.5016      7.569   108.1515 2.4695e+03     6.5145     -0.239     -0.347    25.8227 0.0000e+00
     -0.213      0.173     7.6354     95.293     41.533  42.453014     2.6376      7.559   108.6120 2.4702e+03     6.4884     -0.212     -0.306    25.9295 0.0000e+00
     -0.176      0.172     7.6299     95.631     41.625  42.538496     2.9096      7.555   108.8323 2.4502e+03     6.5216     -0.175     -0.253    26.0068 0.0000e+00
     -0.132      0.168     7.6661     95.950     41.824  42.707863     3.0692      7.556   108.8372 2.3830e+03     6.5751     -0.132     -0.191    26.0473 0.0000e+00
     -0.083      0.164     7.6892     96.305     41.966  42.787068     3.0868      7.557   108.7565 2.1390e+03     6.5882     -0.080     -0.116    26.0851 0.0000e+00
     -0.037      0.156     7.7148     96.695     42.006  42.734408     3.0888      7.561   108.9752 1.6801e+03     6.6117     -0.032     -0.046    26.1149 0.0000e+00
      0.003      0.138     7.7456     97.025     42.006  42.642248     3.1100      7.566   109.5023 1.4350e+03     6.7223      0.003      0.003    26.0983 0.0000e+00
      0.040      0.113     7.7726     97.230     42.003  42.561223     3.1346      7.569   109.8814 1.2330e+03     6.7986      0.040      0.058    26.0639 0.0000e+00
      0.071      0.084     7.8121     97.362     42.028  42.516268     3.1448      7.572   110.0315 6.3742e+02     6.8159      0.076      0.111    25.9901 0.0000e+00
      0.088      0.055     7.8659     97.435     42.052  42.479404     3.1586      7.576   110.1129 2.2088e+02     6.7610      0.091      0.132    25.8571 0.0000e+00
      0.092      0.028     7.9135     97.411     42.041  42.432760     3.1845      7.579   110.2625 1.7660e+02     6.6139      0.091      0.132    25.7430 0.0000e+00
      0.091      0.008     7.9374     97.295     42.011  42.396537     3.2082      7.583   110.6364 1.7360e+02     6.5734      0.090      0.131    25.6580 0.0000e+00
      0.087     -0.004     7.9612     97.122     41.967  42.358785     3.2202      7.587   111.1055 1.7465e+02     6.6470      0.086      0.126    25.5738 0.0000e+00
      0.080     -0.009     7.9813     96.944     41.958  42.357125     3.2138      7.591   111.4601 1.8155e+02     6.6170      0.077      0.113    25.4897 0.0000e+00
      0.075     -0.010     7.9857     96.790     42.031  42.439955     3.1804      7.596   111.5693 1.9463e+02     6.5173      0.070      0.101    25.4426 0.0000e+00
      0.075     -0.009     7.9743     96.654     42.118  42.535175     3.1409      7.601   111.5657 2.0154e+02     6.5000      0.073      0.106    25.4493 0.0000e+00
      0.077     -0.006     7.9564     96.519     42.144  42.556390     3.1284      7.606   111.8472 2.0109e+02     6.5448      0.078      0.113    25.4625 0.0000e+00
      0.075     -0.002     7.9400     96.357     42.115  42.506046     3.1371      7.610   112.3052 1.9976e+02     6.5806      0.074      0.108    25.4674 0.0000e+00
      0.071      0.000     7.9260     96.217     42.078  42.434196     3.1299      7.614   112.6297 1.9844e+02     6.5907      0.068      0.098    25.4809 0.0000e+00
      0.070      0.000     7.9131     96.122     42.068  42.385773     3.0990      7.620   112.9306 1.9939e+02     6.5988      0.067      0.098    25.4946 0.0000e+00
      0.073      0.001     7.9034     95.725     42.082  42.364794     3.0720      7.625   113.2758 2.0033e+02     6.5773      0.072      0.105    25.4918 0.0000e+00
      0.076      0.002     7.8950     94.705     42.112  42.370905     3.0698      7.628   113.7059 1.9987e+02     6.5696      0.076      0.110    25.4638 0.0000e+00
      0.076      0.003     7.8817     93.153     42.149  42.396159     3.0965      7.631   115.1202 1.9979e+02     6.6077      0.075      0.109    25.4191 0.0000e+00
      0.075      0.004     7.8961     91.176     42.170  42.416236     3.1289      7.636   128.9983 1.9890e+02     6.6278      0.074      0.107    25.3693 0.0000e+00
      0.075      0.006     7.8864     89.056     42.173  42.423248     3.1286      7.644   154.3391 1.9707e+02     6.6078      0.073      0.106    25.3248 0.0000e+00
      0.075      0.006     7.7936     87.241     42.159  42.417471     3.1092      7.654   167.8707 1.9251e+02     6.5369      0.072      0.105    25.2959 0.0000e+00
      0.078      0.005     7.6699     85.740     42.139  42.409874     3.1190      7.663   168.6252 1.8398e+02     6.5219      0.075      0.108    25.2836 0.0000e+00
      0.083      0.004     7.5025     84.416     42.108  42.394880     3.1478      7.669   168.0209 1.7637e+02     6.5971      0.082      0.119    25.2840 0.0000e+00
      0.088      0.002     7.3023     83.416     42.063  42.363145     3.1573      7.675   166.4157 1.7387e+02     6.6269      0.089      0.130    25.2897 0.0000e+00
      0.086      0.001     7.1595     83.001     42.035  42.343532     3.1510      7.680   156.3578 1.7522e+02     6.6085      0.087      0.126    25.2991 0.0000e+00
      0.080      0.000     7.0413     83.171     42.034  42.348161     3.1298      7.681   138.2158 1.7686e+02     6.6137      0.077      0.111    25.3137 0.0000e+00
      0.077     -0.001     6.9230     83.566     42.033  42.355651     3.1092      7.681   127.3998 1.7469e+02     6.6558      0.073      0.106    25.3344 0.0000e+00
      0.080     -0.001     6.8295     83.884     42.038  42.370638     3.1104      7.681   125.2172 1.6889e+02     6.7083      0.078      0.113    25.3543 0.0000e+00
      0.084      0.000     6.7901     83.992     42.059  42.402453     3.1105      7.683   124.0434 1.6281e+02     6.7012      0.082      0.120    25.3620 0.0000e+00
      0.085      0.002     6.8219     83.814     42.071  42.422980     3.1014      7.683   123.0161 1.5873e+02     6.6387      0.084      0.122    25.3662 0.0000e+00
      0.085      0.007     6.8599     83.345     42.072  42.428432     3.1005      7.683   122.3462 1.5838e+02     6.5665      0.084      0.122    25.3757 0.0000e+00
      0.083      0.017     6.8865     82.606     42.053  42.404913     3.1171      7.681   122.1378 1.6057e+02     6.5451      0.081      0.119    25.3903 0.0000e+00
      0.080      0.030     6.8977     81.683     41.990  42.329011     3.1361      7.681   121.9593 1.5977e+02     6.5855      0.075      0.110    25.4029 0.0000e+00
      0.085      0.040     6.8796     80.698     41.948  42.272330     3.1468      7.682   121.4788 1.5184e+02     6.5780      0.077      0.112    25.4142 0.0000e+00
      0.103      0.046     6.8417     79.793     41.976  42.290781     3.1627      7.685   121.1471 1.3811e+02     6.5225      0.097      0.140    25.4215 0.0000e+00
      0.130      0.050     6.7780     79.195     42.049  42.361686     3.1788      7.689   121.3046 1.2278e+02     6.4942      0.130      0.189    25.4162 0.0000e+00
      0.152      0.051     6.7009     79.098     42.123  42.431471     3.1914      7.693   121.6612 1.1039e+02     6.5433      0.157      0.227    25.4001 0.0000e+00
      0.158      0.048     6.6203     79.448     42.140  42.436371     3.2064      7.697   121.9312 1.0221e+02     6.6383      0.157      0.228    25.3760 0.0000e+00
      0.158      0.041     6.5391     79.907     42.145  42.420910     3.2020      7.702   122.0744 9.7232e+01     6.6518      0.150      0.218    25.3664 0.0000e+00
      0.165      0.033     6.4834     80.154     42.179  42.434901     3.1717      7.706   122.1022 9.4899e+01     6.5707      0.158      0.231    25.3668 0.0000e+00
      0.180      0.029     6.4757     80.103     42.174  42.415102     3.1392      7.709   122.0947 9.5132e+01     6.5110      0.178      0.258    25.3633 0.0000e+00
      0.192      0.030     6.5194     79.856     42.142  42.371916     3.1348      7.713   122.2413 9.6766e+01     6.5452      0.193      0.280    25.3493 0.0000e+00
      0.197      0.029     6.5716     79.566     42.139  42.357019     3.1348      7.717   122.4978 9.7644e+01     6.6082      0.195      0.283    25.3191 0.0000e+00
      0.199      0.022     6.5961     79.213     42.156  42.361899     3.1059      7.721   122.6150 9.7315e+01     6.6242      0.192      0.279    25.2927 0.0000e+00
      0.205      0.012     6.5914     78.720     42.171  42.367428     3.0766      7.724   122.7123 9.6782e+01     6.6013      0.199      0.289    25.2775 0.0000e+00
      0.214      0.006     6.5639     78.180     42.168  42.360384     3.0637      7.726   122.9858 9.6288e+01     6.5718      0.214      0.310    25.2671 0.0000e+00
      0.216      0.003     6.5442     77.798     42.150  42.340198     3.0747      7.728   123.2551 9.5520e+01     6.5743      0.217      0.315    25.2558 0.0000e+00
      0.209      0.001     6.5222     77.677     42.128  42.313771     3.1015      7.731   123.3868 9.5191e+01     6.5976      0.205      0.297    25.2364 0.0000e+00
      0.203     -0.002     6.4791     77.626     42.114  42.294722     3.1134      7.735   123.3741 9.5660e+01     6.6139      0.195      0.284    25.2234 0.0000e+00
      0.204     -0.003     6.4282     77.392     42.121  42.300278     3.0939      7.739   123.2735 9.6350e+01     6.6013      0.198      0.287    25.2221 0.0000e+00
      0.208     -0.001     6.3909     76.997     42.136  42.317477     3.0656      7.742   123.2885 9.7048e+01     6.5474      0.206      0.298    25.2207 0.0000e+00
      0.209      0.003     6.3894     76.651     42.126  42.312273     3.0703      7.746   123.4695 9.7662e+01     6.5426      0.207      0.300    25.2158 0.0000e+00
      0.208      0.004     6.3975     76.520     42.111  42.300835     3.0913      7.748   123.6558 9.7728e+01     6.6113      0.204      0.294    25.2066 0.0000e+00
      0.208      0.003     6.3759     76.570     42.114  42.306120     3.0949      7.751   123.8199 9.7119e+01     6.6605      0.202      0.293    25.2034 0.0000e+00
      0.211      0.003     6.3355     76.648     42.117  42.312705     3.0898      7.754   124.0772 9.6204e+01     6.6259      0.207      0.300    25.2078 0.0000e+00
      0.213      0.008     6.3003     76.732     42.118  42.316993     3.0957      7.755   124.5293 9.5242e+01     6.5336      0.211      0.306    25.2151 0.0000e+00
      0.211      0.016     6.2895     76.842     42.096  42.294500     3.1171      7.755   124.9844 9.4494e+01     6.5011      0.206      0.299    25.2204 0.0000e+00
      0.210      0.023     6.3020     76.875     42.039  42.231156     3.1403      7.756   125.1919 9.3957e+01     6.5748      0.203      0.294    25.2205 0.0000e+00
      0.217      0.027     6.3066     76.709     41.999  42.185782     3.1509      7.759   125.3174 9.3202e+01     6.6393      0.210      0.304    25.2260 0.0000e+00
      0.232      0.028     6.3099     76.353     42.003  42.190167     3.1464      7.761   125.4699 9.2313e+01     6.5982      0.227      0.329    25.2328 0.0000e+00
      0.247      0.026     6.3237     75.943     42.032  42.220704     3.1354      7.763   125.5726 9.1368e+01     6.5208      0.246      0.357    25.2339 0.0000e+00
      0.257      0.022     6.3320     75.699     42.049  42.237659     3.1339      7.766   125.7848 8.9948e+01     6.5239      0.256      0.372    25.2237 0.0000e+00
      0.257      0.016     6.3194     75.814     42.018  42.204763     3.1453      7.768   126.2283 8.8374e+01     6.6014      0.254      0.367    25.2116 0.0000e+00
      0.252      0.011     6.2850     76.246     41.957  42.140307     3.1401      7.771   126.5478 8.7225e+01     6.6380      0.246      0.357    25.2164 0.0000e+00
      0.251      0.007     6.2446     76.721     41.914  42.093012     3.1040      7.775   126.7227 8.6677e+01     6.5903      0.244      0.354    25.2218 0.0000e+00
      0.255      0.006     6.2168     76.978     41.902  42.077192     3.0663      7.778   127.0512 8.6900e+01     6.5375      0.249      0.361    25.2175 0.0000e+00
      0.260      0.006     6.2277     76.927     41.905  42.075961     3.0590      7.781   127.3374 8.7608e+01     6.5796      0.256      0.371    25.2157 0.0000e+00
      0.265      0.006     6.2741     76.589     41.916  42.078130     3.0833      7.783   127.5157 8.8133e+01     6.6557      0.261      0.379    25.2129 0.0000e+00
      0.267      0.004     6.3226     76.048     41.950  42.103404     3.1017      7.784   127.6574 8.8201e+01     6.6378      0.263      0.382    25.2045 0.0000e+00
      0.265      0.002     6.3457     75.447     41.977  42.127652     3.0903      7.786   127.8468 8.7825e+01     6.5688      0.260      0.378    25.2033 0.0000e+00
      0.262      0.002     6.3405     74.885     41.966  42.117434     3.0700      7.789   128.1708 8.7168e+01     6.5387      0.257      0.372    25.2012 0.0000e+00
      0.261      0.003     6.3130     74.363     41.956  42.106797     3.0807      7.792   128.4773 8.6680e+01     6.5120      0.255      0.370    25.1853 0.0000e+00
      0.262      0.004     6.2645     73.882     41.979  42.125975     3.1200      7.795   128.7138 8.6188e+01     6.4505      0.256      0.371    25.1720 0.0000e+00
      0.266      0.004     6.2113     73.430     42.017  42.158906     3.1378      7.797   128.7928 8.5679e+01     6.4109      0.260      0.377    25.1715 0.0000e+00
      0.271      0.000     6.1665     72.974     42.049  42.187607     3.1291      7.799   128.8304 8.5566e+01     6.3752      0.266      0.386    25.1761 0.0000e+00
      0.274     -0.004     6.1228     72.540     42.079  42.219117     3.1234      7.801   129.1684 8.5679e+01     6.3258      0.270      0.391    25.1752 0.0000e+00
      0.272     -0.007     6.0838     72.270     42.079  42.222539     3.1274      7.802   129.6097 8.5606e+01     6.3268      0.270      0.391    25.1693 0.0000e+00
      0.264     -0.009     6.0495     72.304     42.021  42.165523     3.1435      7.801   129.6932 8.5389e+01     6.3531      0.260      0.377    25.1621 0.0000e+00
      0.254     -0.018     6.0116     72.576     41.961  42.100963     3.1609      7.800   129.5756 8.5627e+01     6.3362      0.245      0.356    25.1580 0.0000e+00
      0.252     -0.035     5.9720     72.980     41.939  42.076640     3.1615      7.798   129.5636 8.7732e+01     6.2934      0.242      0.351    25.1581 0.0000e+00
      0.258     -0.056     5.9414     73.685     41.928  42.061840     3.1347      7.798   129.5482 9.4396e+01     6.3131      0.255      0.370    25.1669 0.0000e+00
      0.255     -0.074     5.9473     74.904     41.920  42.048945     3.0954      7.799   129.4753 1.1162e+02     6.4725      0.260      0.379    25.1687 0.0000e+00
      0.226     -0.087     5.9787     76.452     41.923  42.047660     3.0851      7.802   129.2852 1.6830e+02     6.6154      0.231      0.335    25.1580 0.0000e+00
      0.179     -0.094     6.0044     77.847     41.925  42.046295     3.0932      7.805   128.8840 4.8139e+02     6.6056      0.172      0.251    25.1587 0.0000e+00
      0.136     -0.094     6.0516     78.707     41.915  42.032438     3.0937      7.809   128.4101 9.4369e+02     6.5594      0.123      0.180    25.1555 0.0000e+00
      0.113     -0.086     6.1605     78.969     41.890  42.007050     3.0998      7.814   128.2015 1.1175e+03     6.5347      0.104      0.151    25.1452 0.0000e+00
      0.106     -0.072     6.3054     78.819     41.876  41.993201     3.1246      7.819   128.3407 1.2305e+03     6.5460      0.104      0.150    25.1435 0.0000e+00
      0.102     -0.058     6.4331     78.374     41.877  41.991932     3.1522      7.825   128.5444 1.4730e+03     6.5940      0.103      0.149    25.1389 0.0000e+00
      0.091     -0.049     6.5068     77.624     41.879  41.991703     3.1588      7.831   128.6850 1.7062e+03     6.6358      0.091      0.131    25.1309 0.0000e+00
      0.074     -0.047     6.5191     76.636     41.882  41.990436     3.1465      7.836   128.9221 1.9375e+03     6.6420      0.072      0.105    25.1337 0.0000e+00
      0.055     -0.048     6.5020     75.581     41.873  41.976597     3.1289      7.841   129.9496 1.9885e+03     6.6008      0.053      0.077    25.1365 0.0000e+00
      0.041     -0.050     6.4703     74.583     41.851  41.951314     3.1293      7.846   139.4729 1.8173e+03     6.5817      0.037      0.053    25.1304 0.0000e+00
      0.033     -0.051     6.4054     73.627     41.839  41.938612     3.1511      7.853   151.2313 1.6292e+03     6.6158      0.032      0.047    25.1277 0.0000e+00
      0.027     -0.050     6.3193     72.749     41.852  41.949952     3.1594      7.862   146.8467 1.5630e+03     6.6374      0.030      0.043    25.1253 0.0000e+00
      0.014     -0.047     6.2272     72.014     41.867  41.961482     3.1455      7.870   136.9636 1.6101e+03     6.6036      0.016      0.022    25.1158 0.0000e+00
     -0.005     -0.043     6.1493     71.366     41.860  41.951076     3.1335      7.875   134.4662 1.6891e+03     6.5489     -0.006     -0.009    25.1114 0.0000e+00
     -0.022     -0.036     6.0695     70.783     41.863  41.951075     3.1221      7.877   133.8597 1.7434e+03     6.5568     -0.025     -0.035    25.1150 0.0000e+00
     -0.032     -0.026     5.9903     70.200     41.875  41.961460     3.1166      7.879   132.9854 1.7773e+03     6.5964     -0.034     -0.048    25.1122 0.0000e+00
     -0.035     -0.014     5.9390     69.569     41.865  41.949702     3.1243      7.881   132.3278 1.8006e+03     6.5839     -0.036     -0.052    25.1058 0.0000e+00
     -0.034     -0.003     5.8809     68.915     41.853  41.935846     3.1245      7.884   131.7588 1.7986e+03     6.5427     -0.034     -0.050    25.1024 0.0000e+00
     -0.029      0.005     5.8383     68.246     41.840  41.920854     3.1190      7.886   131.4398 1.7854e+03     6.5419     -0.028     -0.041    25.0984 0.0000e+00
     -0.025      0.012     5.7923     67.591     41.817  41.895372     3.1405      7.886   131.5684 1.7754e+03     6.6088     -0.023     -0.034    25.0957 0.0000e+00
     -0.023      0.020     5.7370     66.960     41.807  41.881610     3.1842      7.882   132.1099 1.7673e+03     6.6673     -0.022     -0.032    25.0949 0.0000e+00
     -0.023      0.030     5.6859     66.377     41.809  41.881391     3.1987      7.878   132.6514 1.6914e+03     6.6351     -0.023     -0.034    25.0936 0.0000e+00
     -0.018      0.042     5.6271     65.842     41.824  41.892721     3.1825      7.875   132.8672 1.5962e+03     6.5615     -0.020     -0.028    25.0913 0.0000e+00
     -0.005      0.055     5.5759     65.347     41.826  41.891662     3.1632      7.875   133.0847 1.5570e+03     6.5625     -0.007     -0.009    25.0870 0.0000e+00
      0.014      0.066     5.5217     64.937     41.806  41.868577     3.1564      7.875   133.3881 1.4312e+03     6.6815      0.013      0.018    25.0827 0.0000e+00
      0.038      0.075     5.4743     64.598     41.808  41.867465     3.1672      7.874   133.6097 1.2935e+03     6.8048      0.037      0.054    25.0798 0.0000e+00
      0.062      0.078     5.4324     64.252     41.822  41.878213     3.1603      7.873   133.8717 1.2338e+03     6.7897      0.062      0.090    25.0770 0.0000e+00
      0.084      0.075     5.3882     63.883     41.818  41.871596     3.1321      7.874   134.0606 1.0866e+03     6.6698      0.083      0.120    25.0723 0.0000e+00
      0.102      0.069     5.3556     63.518     41.799  41.850930     3.1172      7.876   134.0010 9.8974e+02     6.5847      0.101      0.146    25.0676 0.0000e+00
      0.118      0.061     5.3319     63.158     41.768  41.818738     3.1297      7.879   133.9261 8.9029e+02     6.5797      0.116      0.168    25.0644 0.0000e+00
      0.132      0.055     5.3036     62.819     41.749  41.799698     3.1503      7.881   134.0156 5.3997e+02     6.6097      0.131      0.190    25.0613 0.0000e+00
      0.145      0.051     5.2714     62.494     41.760  41.811125     3.1337      7.883   134.1359 2.4862e+02     6.6061      0.142      0.206    25.0579 0.0000e+00
      0.155      0.049     5.2428     62.147     41.780  41.829955     3.0866      7.883   134.2619 1.6977e+02     6.5710      0.152      0.220    25.0558 0.0000e+00
      0.166      0.047     5.2121     61.812     41.787  41.836967     3.0638      7.884   134.4212 1.3750e+02     6.5606      0.162      0.235    25.0548 0.0000e+00
      0.178      0.045     5.1835     61.514     41.783  41.832439     3.0741      7.886   134.5992 1.1797e+02     6.5827      0.175      0.253    25.0545 0.0000e+00
      0.192      0.042     5.1602     61.243     41.790  41.838682     3.0863      7.888   134.7792 1.0481e+02     6.5988      0.189      0.275    25.0546 0.0000e+00
      0.204      0.038     5.1287     61.005     41.801  41.848974     3.0946      7.889   134.9627 9.6217e+01     6.5504      0.201      0.291    25.0536 0.0000e+00
      0.213      0.032     5.1003     60.795     41.786  41.829943     3.1081      7.892   135.1834 8.9712e+01     6.4756      0.210      0.304    25.0530 0.0000e+00
      0.221      0.027     5.0773     60.605     41.762  41.798982     3.1160      7.894   135.4680 8.3117e+01     6.4465      0.217      0.315    25.0536 0.0000e+00
      0.227      0.025     5.0533     60.434     41.763  41.791960     3.1241      7.895   135.8234 7.7475e+01     6.5053      0.224      0.325    25.0535 0.0000e+00
      0.229      0.026     5.0350     60.284     41.784  41.808494     3.1230      7.896   136.1241 7.4607e+01     6.6061      0.225      0.326    25.0518 0.0000e+00
      0.231      0.029     5.0177     60.115     41.788  41.808474     3.1018      7.897   136.3514 7.3317e+01     6.6063      0.224      0.326    25.0475 0.0000e+00
      0.238      0.033     5.0032     59.874     41.774  41.791722     3.0843      7.899   136.6788 7.2682e+01     6.5075      0.231      0.337    25.0382 0.0000e+00
      0.251      0.038     4.9900     59.623     41.781  41.796342     3.0776      7.901   137.0709 7.2984e+01     6.4367      0.245      0.357    25.0273 0.0000e+00
      0.266      0.040     4.9779     59.409     41.788  41.800858     3.0964      7.902   137.3060 7.4209e+01     6.4669      0.262      0.381    25.0217 0.0000e+00
      0.277      0.040     4.9694     59.195     41.772  41.782859     3.1365      7.903   137.3705 7.6128e+01     6.5657      0.272      0.395    25.0185 0.0000e+00
      0.287      0.035     4.9451     58.974     41.759  41.769115     3.1470      7.904   137.4200 7.8083e+01     6.6062      0.281      0.408    25.0145 0.0000e+00
      0.297      0.030     4.9227     58.747     41.754  41.761625     3.1310      7.906   137.6477 7.9987e+01     6.5463      0.293      0.426    25.0119 0.0000e+00
      0.303      0.028     4.9087     58.516     41.753  41.755757     3.1432      7.910   138.0588 8.1565e+01     6.4912      0.299      0.433    25.0085 0.0000e+00
      0.306      0.028     4.8898     58.300     41.764  41.761627     3.1867      7.911   138.5183 8.2260e+01     6.5203      0.299      0.434    25.0068 0.0000e+00
      0.310      0.030     4.8721     58.104     41.775  41.769117     3.2233      7.910   138.9883 8.2297e+01     6.5907      0.303      0.439    25.0070 0.0000e+00
      0.316      0.033     4.8535     57.914     41.791  41.782840     3.2279      7.909   139.5255 8.1602e+01     6.5913      0.308      0.446    25.0040 0.0000e+00
      0.328      0.035     4.8345     57.760     41.808  41.800611     3.2171      7.909   140.1086 8.0396e+01     6.5273      0.320      0.465    24.9980 0.0000e+00
      0.343      0.035     4.8164     57.684     41.801  41.793587     3.2260      7.910   140.5321 7.9540e+01     6.5006      0.338      0.490    24.9915 0.0000e+00
      0.355      0.033     4.8024     57.683     41.770  41.761379     3.2441      7.910   140.9457 7.9060e+01     6.5411      0.349      0.506    24.9864 0.0000e+00
      0.362      0.031     4.7852     57.745     41.741  41.728533     3.2531      7.911   141.5831 7.8581e+01     6.6067      0.356      0.516    24.9837 0.0000e+00
      0.365      0.031     4.7706     57.836     41.732  41.713782     3.2518      7.913   142.2162 7.8285e+01     6.6108      0.358      0.519    24.9846 0.0000e+00
      0.367      0.033     4.7652     57.920     41.736  41.709945     3.2451      7.913   142.6633 7.8308e+01     6.5571      0.361      0.522    24.9866 0.0000e+00
      0.372      0.038     4.7650     58.017     41.776  41.745599     3.2468      7.914   143.1168 7.8291e+01     6.5380      0.363      0.526    24.9847 0.0000e+00
      0.384      0.043     4.7710     58.383     41.871  41.827525     3.2558      7.915   143.6561 7.7918e+01     6.5854      0.373      0.542    24.9809 0.0000e+00
      0.403      0.045     4.7827     60.267     41.966  41.875410     3.2713      7.916   144.0211 7.7864e+01     6.6513      0.397      0.576    24.9727 0.0000e+00
      0.420      0.045     4.7871     65.507     42.045  41.880229     3.3008      7.918   144.3466 7.7836e+01     6.6172      0.414      0.600    24.9608 0.0000e+00
      0.432      0.040     4.7971     74.131     42.119  41.885670     3.3383      7.919   144.8381 7.6699e+01     6.5156      0.425      0.615    24.9583 0.0000e+00
      0.441      0.033     4.7959     83.817     42.155  41.877624     3.3576      7.919   145.3181 7.5189e+01     6.4820      0.435      0.630    24.9593 0.0000e+00
      0.446      0.027     4.8741     92.254     42.150  41.846355     3.3673      7.920   145.7625 7.3689e+01     6.5182      0.439      0.636    24.9035 0.0000e+00
      0.448      0.025     5.3127     98.636     42.149  41.824905     3.3892      7.920   146.2526 7.1939e+01     6.5777      0.439      0.636    24.7903 0.0000e+00
      0.452      0.028     6.1309    102.957     42.156  41.808649     3.3895      7.921   146.7699 7.0309e+01     6.5854      0.442      0.641    24.7058 0.0000e+00
      0.458      0.036     7.0208    105.238     42.152  41.776701     3.3629      7.921   147.1989 6.8874e+01     6.5436      0.449      0.651    24.6589 0.0000e+00
      0.467      0.046     7.7372    105.533     42.161  41.755920     3.3500      7.922   147.5684 6.7468e+01     6.5501      0.457      0.663    24.6299 0.0000e+00
      0.480      0.055     8.2656    104.216     42.179  41.747746     3.3750      7.923   147.9677 6.6162e+01     6.5965      0.468      0.679    24.6113 0.0000e+00
      0.499      0.060     8.6308    102.097     42.192  41.741297     3.4239      7.924   148.3282 6.5248e+01     6.6266      0.487      0.708    24.5848 0.0000e+00
      0.520      0.060     8.8263    100.046     42.204  41.741383     3.4424      7.926   148.5709 6.4713e+01     6.6061      0.511      0.742    24.5500 0.0000e+00
      0.539      0.058     8.8494     98.515     42.214  41.748778     3.4317      7.927   148.7518 6.4343e+01     6.5534      0.530      0.769    24.5123 0.0000e+00
      0.553      0.053     8.7167     97.499     42.229  41.767237     3.4274      7.928   148.9666 6.4018e+01     6.5351      0.543      0.789    24.4793 0.0000e+00
      0.563      0.048     8.5152     96.864     42.230  41.774163     3.4314      7.930   149.1894 6.3602e+01     6.5557      0.552      0.801    24.4564 0.0000e+00
      0.570      0.044     8.3318     96.474     42.222  41.769065     3.4478      7.933   149.3805 6.2986e+01     6.5985      0.559      0.811    24.4433 0.0000e+00
      0.579      0.043     8.2093     96.193     42.222  41.769065     3.4518      7.933   149.5556 6.2171e+01     6.6085      0.567      0.823    24.4395 0.0000e+00
      0.591      0.044     8.1277     96.005     42.226  41.774173     3.4284      7.933   149.7583 6.1273e+01     6.5405      0.580      0.840    24.4464 0.0000e+00
      0.604      0.046     8.0757     95.915     42.218  41.767350     3.4152      7.934   150.0241 6.0382e+01     6.4932      0.592      0.859    24.4562 0.0000e+00
      0.617      0.047     8.0500     95.856     42.202  41.750040     3.4254      7.936   150.3602 5.9461e+01     6.5485      0.605      0.877    24.4580 0.0000e+00
      0.630      0.045     8.0248     95.770     42.211  41.755281     3.4349      7.937   150.7249 5.8606e+01     6.6286      0.618      0.896    24.4568 0.0000e+00
      0.643      0.040     8.0079     95.690     42.230  41.767245     3.4302      7.938   150.9929 5.7974e+01     6.6077      0.631      0.916    24.4595 0.0000e+00
      0.654      0.034     8.0028     95.670     42.238  41.767756     3.4353      7.939   151.1904 5.7431e+01     6.5002      0.642      0.931    24.4621 0.0000e+00
      0.662      0.026     8.0009     95.696     42.237  41.761448     3.4544      7.940   151.4780 5.6818e+01     6.4567      0.650      0.942    24.4602 0.0000e+00
      0.667      0.020     7.9926     95.742     42.232  41.754429     3.4699      7.941   151.8034 5.6127e+01     6.5257      0.655      0.950    24.4549 0.0000e+00
      0.669      0.019     7.9841     95.772     42.223  41.746356     3.4898      7.942   152.0266 5.5427e+01     6.6169      0.656      0.952    24.4475 0.0000e+00
      0.669      0.023     7.9861     95.772     42.204  41.727301     3.5113      7.943   152.1124 5.4819e+01     6.6715      0.656      0.952    24.4373 0.0000e+00
      0.670      0.030     7.9891     95.757     42.197  41.714441     3.5221      7.945   152.2384 5.4348e+01     6.7079      0.656      0.952    24.4288 0.0000e+00
      0.677      0.039     7.9955     95.757     42.212  41.717798     3.5216      7.946   152.5182 5.4066e+01     6.7497      0.659      0.957    24.4273 0.0000e+00
      0.692      0.047     7.9974     95.820     42.211  41.704405     3.5295      7.948   152.7422 5.3980e+01     6.8011      0.677      0.983    24.4309 0.0000e+00
      0.712      0.052     7.9965     95.935     42.196  41.679429     3.5507      7.950   152.9676 5.3977e+01     6.7822      0.699      1.016    24.4320 0.0000e+00
      0.730      0.057     7.9962     96.026     42.194  41.669662     3.5541      7.951   153.3501 5.3887e+01     6.6582      0.718      1.042    24.4249 0.0000e+00
      0.742      0.060     7.9957     96.039     42.183  41.649769     3.5366      7.951   153.7543 5.3609e+01     6.5659      0.730      1.058    24.4092 0.0000e+00
      0.753      0.061     8.0043     96.009     42.176  41.629291     3.5302      7.951   154.0678 5.3136e+01     6.5542      0.737      1.069    24.3923 0.0000e+00
      0.767      0.062     8.0181     96.007     42.176  41.612451     3.5189      7.950   154.2158 5.2556e+01     6.6190      0.750      1.088    24.3815 0.0000e+00
      0.785      0.063     8.0293     96.027     42.157  41.573063     3.4829      7.950   154.3398 5.2036e+01     6.7689      0.769      1.115    24.3733 0.0000e+00
      0.805      0.065     8.0306     96.053     42.138  41.533826     3.4439      7.951   154.5338 5.1706e+01     6.8299      0.790      1.146    24.3632 0.0000e+00
      0.823      0.066     8.0262     96.072     42.144  41.518816     3.4142      7.953   154.6688 5.1534e+01     6.7409      0.808      1.173    24.3494 0.0000e+00
      0.840      0.063     8.0312     96.056     42.164  41.518486     3.4319      7.955   154.7674 5.1405e+01     6.6495      0.823      1.195    24.3271 0.0000e+00
      0.855      0.058     8.0372     96.041     42.190  41.529797     3.5004      7.956   154.8664 5.1319e+01     6.6130      0.839      1.217    24.3018 0.0000e+00
      0.870      0.053     8.0420     96.036     42.197  41.528622     3.5504      7.958   155.0048 5.1319e+01     6.6412      0.854      1.238    24.2777 0.0000e+00
      0.883      0.051     8.0507     96.004     42.175  41.504273     3.5547      7.959   155.2365 5.1360e+01     6.6487      0.867      1.257    24.2509 0.0000e+00
      0.894      0.051     8.0500     95.977     42.162  41.489263     3.5442      7.959   155.5169 5.1469e+01     6.5673      0.877      1.273    24.2276 0.0000e+00
      0.904      0.054     8.0507     95.988     42.155  41.474062     3.6066      7.960   155.7277 5.1662e+01     6.5109      0.885      1.284    24.2098 0.0000e+00
      0.915      0.059     8.0553     96.027     42.140  41.447399     3.7515      7.961   155.8061 5.1837e+01     6.5482      0.894      1.297    24.1993 0.0000e+00
      0.930      0.065     8.0498     96.059     42.126  41.420735     3.8471      7.962   155.8631 5.2035e+01     6.6077      0.910      1.321    24.1994 0.0000e+00
      0.950      0.070     8.0464     96.045     42.122  41.405525     3.8720      7.963   155.9858 5.2287e+01     6.5814      0.931      1.351    24.1991 0.0000e+00
      0.972      0.074     8.0502     96.020     42.117  41.390412     3.9618      7.964   156.1718 5.2520e+01     6.5028      0.953      1.382    24.1886 0.0000e+00
      0.993      0.075     8.0559     96.045     42.099  41.364912     4.1254      7.965   156.3043 5.2713e+01     6.4779      0.976      1.415    24.1720 0.0000e+00
      1.013      0.074     8.0638     96.125     42.090  41.351064     4.2268      7.966   156.3842 5.2833e+01     6.5193      0.994      1.442    24.1571 0.0000e+00
      1.030      0.071     8.0628     96.244     42.096  41.349909     4.2628      7.967   156.6219 5.2924e+01     6.5931      1.009      1.464    24.1440 0.0000e+00
      1.047      0.066     8.0597     96.356     42.110  41.350931     4.2708      7.969   156.9414 5.3060e+01     6.5846      1.026      1.489    24.1304 0.0000e+00
      1.064      0.061     8.0641     96.419     42.137  41.363407     4.2488      7.969   157.1490 5.3225e+01     6.4856      1.044      1.515    24.1210 0.0000e+00
      1.080      0.056     8.0714     96.455     42.159  41.373803     4.2297      7.969   157.3249 5.3370e+01     6.4201      1.060      1.538    24.1177 0.0000e+00
      1.095      0.049     8.0840     96.502     42.143  41.349676     4.2306      7.971   157.4330 5.3498e+01     6.4422      1.073      1.557    24.1095 0.0000e+00
      1.108      0.041     8.0981     96.517     42.123  41.325537     4.2765      7.974   157.3379 5.3621e+01     6.5816      1.087      1.577    24.0927 0.0000e+00
      1.118      0.032     8.1054     96.482     42.136  41.335808     4.3356      7.976   157.2937 5.3668e+01     6.7393      1.099      1.593    24.0747 0.0000e+00
      1.124      0.026     8.1074     96.473     42.149  41.346919     4.3538      7.976   157.5011 5.3695e+01     6.7780      1.104      1.600    24.0609 0.0000e+00
      1.126      0.024     8.1156     96.518     42.136  41.332948     4.3549      7.977   157.7804 5.3816e+01     6.7758      1.104      1.601    24.0520 0.0000e+00
      1.129      0.027     8.1194     96.593     42.101  41.293818     4.3826      7.977   158.0035 5.3958e+01     6.8149      1.107      1.605    24.0472 0.0000e+00
      1.133      0.033     8.1121     96.664     42.074  41.254596     4.4383      7.978   158.2203 5.4079e+01     6.8408      1.111      1.610    24.0444 0.0000e+00
      1.141      0.039     8.1113     96.667     42.077  41.239493     4.4629      7.980   158.3370 5.4320e+01     6.8163      1.115      1.617    24.0418 0.0000e+00
      1.156      0.045     8.1169     96.577     42.091  41.238108     4.4466      7.981   158.3817 5.4659e+01     6.7576      1.133      1.643    24.0430 0.0000e+00
      1.174      0.048     8.1228     96.421     42.102  41.237829     4.4416      7.982   158.5028 5.4895e+01     6.7111      1.153      1.672    24.0410 0.0000e+00
      1.188      0.048     8.1349     96.223     42.111  41.236103     4.4688      7.982   158.5971 5.5053e+01     6.7336      1.166      1.691    24.0233 0.0000e+00
      1.200      0.045     8.1401     96.011     42.096  41.217218     4.5096      7.983   158.6606 5.5186e+01     6.8243      1.177      1.707    23.9967 0.0000e+00
      1.210      0.040     8.1333     95.833     42.077  41.199893     4.5269      7.985   158.7544 5.5247e+01     6.8512      1.187      1.722    23.9791 0.0000e+00
      1.218      0.037     8.1218     95.730     42.095  41.217020     4.5194      7.986   158.7846 5.5308e+01     6.7514      1.195      1.733    23.9675 0.0000e+00
      1.225      0.036     8.1064     95.688     42.115  41.233909     4.5106      7.987   158.8546 5.5408e+01     6.6764      1.201      1.741    23.9535 0.0000e+00
      1.233      0.038     8.0883     95.661     42.099  41.213692     4.5123      7.987   159.0837 5.5524e+01     6.7303      1.209      1.753    23.9475 0.0000e+00
      1.243      0.041     8.0700     95.599     42.054  41.162962     4.5233      7.987   159.3182 5.5615e+01     6.8220      1.218      1.767    23.9531 0.0000e+00
      1.253      0.046     8.0626     95.494     42.029  41.128263     4.5268      7.988   159.5386 5.5662e+01     6.8288      1.227      1.780    23.9542 0.0000e+00
      1.265      0.050     8.0611     95.368     42.028  41.111460     4.5301      7.988   159.6835 5.5739e+01     6.7785      1.240      1.798    23.9475 0.0000e+00
      1.280      0.054     8.0614     95.220     42.021  41.086716     4.5547      7.987   159.6937 5.5851e+01     6.7950      1.255      1.821    23.9434 0.0000e+00
      1.295      0.059     8.0575     95.011     42.040  41.082918     4.5745      7.987   159.7478 5.6002e+01     6.8572      1.270      1.842    23.9378 0.0000e+00
      1.310      0.065     8.0490     94.711     42.051  41.065506     4.5856      7.987   159.9935 5.6233e+01     6.8816      1.285      1.864    23.9243 0.0000e+00
      1.325      0.070     8.0419     94.346     42.020  41.003085     4.6972      7.987   160.3405 5.6491e+01     6.9186      1.299      1.884    23.9041 0.0000e+00
      1.342      0.074     8.0333     93.946     42.011  40.962797     4.9009      7.988   160.6741 5.6728e+01     6.9630      1.314      1.906    23.8840 0.0000e+00
      1.363      0.074     8.0215     93.554     42.036  40.959127     5.0179      7.989   161.0162 5.7018e+01     7.0085      1.335      1.936    23.8603 0.0000e+00
      1.388      0.070     7.9990     93.222     42.055  40.958682     5.0462      7.989   161.2928 5.7358e+01     7.0931      1.360      1.973    23.8246 0.0000e+00
      1.412      0.065     7.9744     92.965     42.063  40.957385     5.1267      7.989   161.5235 5.7615e+01     7.0974      1.387      2.012    23.7846 0.0000e+00
      1.428      0.060     7.9449     92.784     42.053  40.943431     5.2501      7.990   161.7411 5.7723e+01     6.9575      1.405      2.037    23.7463 0.0000e+00
      1.435      0.055     7.9143     92.654     42.036  40.916890     5.3062      7.990   161.9449 5.7706e+01     6.8371      1.408      2.040    23.7099 0.0000e+00
      1.442      0.053     7.8911     92.569     42.030  40.890332     5.3219      7.990   162.1806 5.7713e+01     6.8368      1.411      2.045    23.6851 0.0000e+00
      1.455      0.055     7.8687     92.499     42.048  40.876142     5.3900      7.990   162.3541 5.7840e+01     6.9201      1.426      2.069    23.6792 0.0000e+00
      1.470      0.060     7.8559     92.357     42.080  40.872204     5.4885      7.991   162.4941 5.7965e+01     7.0582      1.442      2.092    23.6790 0.0000e+00
      1.486      0.065     7.8455     92.097     42.079  40.842662     5.5399      7.992   162.7543 5.8080e+01     7.1062      1.455      2.109    23.6676 0.0000e+00
      1.507      0.070     7.8420     91.745     42.033  40.772777     5.5379      7.993   163.0053 5.8248e+01     7.0227      1.478      2.144    23.6436 0.0000e+00
      1.528      0.073     7.8462     91.346     42.018  40.725309     5.5385      7.993   163.1196 5.8370e+01     7.0050      1.501      2.178    23.6045 0.0000e+00
      1.545      0.076     7.8425     90.856     42.046  40.712937     5.6632      7.993   163.1898 5.8402e+01     7.0627      1.516      2.198    23.5540 0.0000e+00
      1.562      0.078     7.8250     90.217     42.059  40.686594     5.8888      7.994   163.2526 5.8463e+01     7.1053      1.531      2.221    23.5212 0.0000e+00
      1.581      0.080     7.7945     89.431     42.064  40.660595     6.0027      7.994   163.3628 5.8623e+01     7.1107      1.549      2.247    23.5005 0.0000e+00
      1.603      0.081     7.7695     88.536     42.071  40.652401     6.0082      7.995   163.5762 5.8774e+01     7.0593      1.571      2.278    23.4599 0.0000e+00
      1.627      0.081     7.7376     87.611     42.075  40.650976     6.1555      7.996   163.8531 5.8809e+01     7.0992      1.596      2.314    23.4091 0.0000e+00
      1.651      0.080     7.6896     86.723     42.075  40.643357     6.4596      7.996   164.0438 5.8793e+01     7.2519      1.620      2.349    23.3585 0.0000e+00
      1.671      0.077     7.6282     85.914     42.076  40.623728     6.6301      7.997   164.0751 5.8782e+01     7.3334      1.640      2.378    23.3167 0.0000e+00
      1.688      0.074     7.5502     85.184     42.091  40.604005     6.6366      7.998   164.2307 5.8796e+01     7.3336      1.656      2.401    23.3053 0.0000e+00
      1.704      0.073     7.4700     84.501     42.127  40.595233     6.6959      7.999   164.6350 5.8811e+01     7.2877      1.670      2.423    23.3044 0.0000e+00
      1.721      0.075     7.3933     83.809     42.163  40.581071     6.8398      7.999   165.0917 5.8786e+01     7.2569      1.687      2.447    23.2976 0.0000e+00
      1.740      0.078     7.3277     82.999     42.189  40.559626     6.9280      7.999   165.4497 5.8757e+01     7.3033      1.706      2.474    23.2761 0.0000e+00
      1.760      0.082     7.2727     81.973     42.195  40.526267     6.9384      7.999   165.6088 5.8696e+01     7.3360      1.725      2.501    23.2305 0.0000e+00
      1.783      0.085     7.2226     80.737     42.196  40.495002     7.0074      7.998   165.7248 5.8571e+01     7.3105      1.747      2.535    23.1786 0.0000e+00
      1.807      0.085     7.1752     79.358     42.231  40.498873     7.1464      7.998   165.9925 5.8452e+01     7.2689      1.773      2.571    23.1194 0.0000e+00
      1.831      0.086     7.1181     77.883     42.270  40.509572     7.2286      7.998   166.3503 5.8353e+01     7.2765      1.796      2.603    23.0582 0.0000e+00
      1.852      0.088     7.0359     76.401     42.284  40.497394     7.2612      7.999   166.6950 5.8239e+01     7.3341      1.818      2.637    23.0128 0.0000e+00
      1.871      0.093     6.9304     75.001     42.295  40.478520     7.3662      7.999   166.9773 5.8139e+01     7.3511      1.837      2.664    22.9782 0.0000e+00
      1.890      0.102     6.8179     73.711     42.327  40.471717     7.5236      7.997   167.2682 5.7969e+01     7.3106      1.851      2.684    22.9423 0.0000e+00
      1.914      0.113     6.6909     72.501     42.379  40.478548     7.5997      7.995   167.6312 5.7649e+01     7.2547      1.874      2.719    22.9105 0.0000e+00
      1.946      0.124     6.5641     71.297     42.448  40.497586     7.6112      7.994   167.9242 5.7254e+01     7.2557      1.907      2.766    22.8842 0.0000e+00
      1.984      0.130     6.4476     70.027     42.509  40.511451     7.6385      7.993   168.0579 5.6707e+01     7.3565      1.944      2.819    22.8510 0.0000e+00
      2.025      0.130     6.3415     68.526     42.556  40.519196     7.8460      7.993   168.2152 5.5998e+01     7.4832      1.987      2.882    22.8059 0.0000e+00
      2.063      0.125     6.2491     66.726     42.592  40.527713     8.2233      7.993   168.5362 5.5369e+01     7.5240      2.027      2.940    22.7528 0.0000e+00
      2.094      0.116     6.1498     64.740     42.637  40.550923     8.4216      7.993   168.9269 5.4880e+01     7.4745      2.056      2.982    22.6960 0.0000e+00
      2.119      0.106     6.0551     62.674     42.722  40.609411     8.4456      7.993   169.3259 5.4471e+01     7.4645      2.079      3.015    22.6415 0.0000e+00
      2.140      0.098     5.9345     60.714     42.808  40.663666     8.5384      7.993   169.6604 5.4111e+01     7.5060      2.099      3.044    22.5965 0.0000e+00
      2.161      0.093     5.7734     59.003     42.879  40.699152     8.6864      7.991   169.7879 5.3656e+01     7.5321      2.118      3.072    22.5675 0.0000e+00
      2.184      0.093     5.6049     57.436     42.937  40.721106     8.7539      7.990   169.8348 5.3056e+01     7.5413      2.141      3.105    22.5499 0.0000e+00
      2.210      0.094     5.4208     55.787     42.988  40.738668     8.7384      7.991   170.0556 5.2456e+01     7.5143      2.168      3.144    22.5256 0.0000e+00
      2.236      0.097     5.2476     53.933     43.066  40.784517     8.7400      7.991   170.3921 5.1921e+01     7.4450      2.194      3.182    22.4919 0.0000e+00
      2.260      0.099     5.1085     51.910     43.143  40.831169     8.7823      7.990   170.6347 5.1351e+01     7.3530      2.216      3.214    22.4537 0.0000e+00
      2.284      0.098     4.9845     49.788     43.199  40.858437     8.8088      7.988   170.7515 5.0648e+01     7.3239      2.238      3.246    22.4139 0.0000e+00
      2.310      0.094     4.8501     47.696     43.225  40.860317     8.7934      7.987   170.9439 4.9847e+01     7.3323      2.264      3.284    22.3771 0.0000e+00
      2.339      0.090     4.6880     45.736     43.236  40.853866     8.7715      7.986   171.3261 4.9061e+01     7.2830      2.294      3.327    22.3451 0.0000e+00
      2.364      0.091     4.5146     43.863     43.309  40.907348     8.7765      7.985   171.6730 4.8484e+01     7.2743      2.323      3.368    22.3157 0.0000e+00
      2.381      0.098     4.3283     42.099     43.438  40.999217     8.8032      7.984   172.1265 4.8180e+01     7.3303      2.338      3.391    22.2851 0.0000e+00
      2.393      0.107     4.1424     40.565     43.575  41.076081     8.8363      7.982   172.8517 4.7793e+01     7.3450      2.343      3.399    22.2564 0.0000e+00
      2.415      0.115     3.9792     39.307     43.716  41.138507     9.0443      7.980   173.3857 4.6756e+01     7.3499      2.358      3.421    22.2384 0.0000e+00
      2.455      0.119     3.8156     38.147     43.838  41.182712     9.4293      7.978   173.6790 4.5133e+01     7.3889      2.403      3.486    22.2273 0.0000e+00
      2.503      0.119     3.6584     36.704     43.949  41.229656     9.6539      7.977   173.9893 4.3701e+01     7.4414      2.459      3.568    22.1998 0.0000e+00
      2.542      0.112     3.5275     34.719     44.028  41.261760     9.6872      7.975   174.2983 4.2780e+01     7.5064      2.498      3.622    22.1360 0.0000e+00
      2.568      0.096     3.4273     32.259     44.050  41.253476     9.6654      7.974   174.6614 4.2220e+01     7.5256      2.521      3.656    22.0454 0.0000e+00
      2.584      0.076     3.3476     29.643     44.074  41.256395     9.4908      7.973   175.0245 4.1899e+01     7.4345      2.536      3.678    21.9600 0.0000e+00
      2.594      0.061     3.2345     27.228     44.137  41.297023     9.1983      7.971   175.3330 4.1638e+01     7.2932      2.545      3.691    21.8953 0.0000e+00
      2.604      0.054     3.0600     25.212     44.241  41.363873     9.0499      7.970   175.6377 4.1313e+01     7.2516      2.553      3.703    21.8500 0.0000e+00
      2.614      0.053     2.8357     23.670     44.355  41.429969     9.0627      7.968   175.8701 4.0867e+01     7.3075      2.563      3.717    21.8155 0.0000e+00
      2.628      0.056     2.5932     22.549     44.432  41.461456     9.1772      7.966   176.0779 4.0330e+01     7.3538      2.576      3.736    21.7954 0.0000e+00
      2.645      0.060     2.3778     21.608     44.503  41.490656     9.3693      7.965   176.3433 3.9778e+01     7.4013      2.594      3.763    21.7837 0.0000e+00
      2.664      0.062     2.1997     20.610     44.578  41.529098     9.4704      7.964   176.5847 3.9245e+01     7.4382      2.612      3.789    21.7484 0.0000e+00
      2.681      0.063     2.0662     19.490     44.626  41.545403     9.4927      7.962   176.8453 3.8760e+01     7.4578      2.629      3.813    21.6973 0.0000e+00
      2.696      0.061     1.9793     18.291     44.671  41.560831     9.5980      7.959   177.2569 3.8296e+01     7.4678      2.644      3.835    21.6513 0.0000e+00
      2.711      0.059     1.9072     17.072     44.728  41.588661     9.7612      7.957   177.6889 3.7812e+01     7.3887      2.660      3.857    21.6083 0.0000e+00
      2.726      0.057     1.8208     15.873     44.800  41.627991     9.8341      7.955   178.0250 3.7360e+01     7.2523      2.674      3.878    21.5734 0.0000e+00
      2.740      0.057     1.7218     14.810     44.866  41.655513     9.8467      7.953   178.3096 3.6962e+01     7.1856      2.687      3.897    21.5431 0.0000e+00
      2.753      0.057     1.6140     14.001     44.917  41.667509    10.0808      7.952   178.5488 3.6524e+01     7.2315      2.699      3.914    21.5111 0.0000e+00
      2.767      0.058     1.5077     13.368     45.002  41.709519    10.5254      7.949   178.7656 3.5994e+01     7.2950      2.712      3.934    21.4878 0.0000e+00
      2.783      0.060     1.3992     12.762     45.122  41.782590    10.7689      7.947   178.9524 3.5454e+01     7.2699      2.729      3.958    21.4589 0.0000e+00
      2.800      0.060     1.2984     12.067     45.240  41.852793    10.8204      7.946   179.1726 3.4933e+01     7.2349      2.745      3.982    21.4171 0.0000e+00
      2.816      0.059     1.2337     11.247     45.288  41.860128    11.2227      7.944   179.5347 3.4398e+01     7.2824      2.761      4.004    21.3771 0.0000e+00
      2.832      0.057     1.1835     10.393     45.256  41.807755    11.9707      7.941   179.8885 3.3898e+01     7.3992      2.777      4.027    21.3373 0.0000e+00
      2.847      0.053     1.1335      9.603     45.244  41.790740    12.3899      7.938   180.0957 3.3480e+01     7.5542      2.793      4.051    21.2959 0.0000e+00
      2.860      0.051     1.0764      8.923     45.317  41.844810    12.4289      7.936   180.2328 3.3145e+01     7.6192      2.806      4.069    21.2510 0.0000e+00
      2.870      0.051     0.9990      8.426     45.482  41.953737    12.4428      7.935   180.3418 3.2820e+01     7.5364      2.814      4.081    21.2044 0.0000e+00
      2.880      0.053     0.9206      8.203     45.701  42.092211    12.7168      7.933   180.4666 3.2457e+01     7.5780      2.823      4.095    21.1745 0.0000e+00
      2.893      0.057     0.8502      8.244     45.880  42.186137    13.2444      7.930   180.7961 3.2082e+01     7.8488      2.837      4.114    21.1806 0.0000e+00
      2.907      0.058     0.7872      8.402     45.971  42.200719    13.5456      7.927   181.3138 3.1616e+01     8.0438      2.849      4.133    21.1809 0.0000e+00
      2.925      0.056     0.7401      8.512     46.033  42.204949    13.5368      7.924   181.7362 3.0970e+01     8.0226      2.866      4.157    21.1242 0.0000e+00
      2.946      0.053     0.7205      8.458     46.099  42.237212    13.1621      7.921   182.0322 3.0391e+01     7.8321      2.892      4.194    21.0477 0.0000e+00
      2.962      0.051     0.7322      8.216     46.155  42.273426    12.5116      7.918   182.3116 3.0156e+01     7.5850      2.910      4.220    20.9712 0.0000e+00
      2.969      0.051     0.7521      7.874     46.249  42.325445    12.1965      7.915   182.5322 3.0082e+01     7.4939      2.912      4.223    20.8870 0.0000e+00
      2.973      0.053     0.7671      7.506     46.435  42.421823    12.3739      7.913   182.7207 2.9875e+01     7.5505      2.915      4.227    20.8255 0.0000e+00
      2.983      0.058     0.7643      7.136     46.621  42.486570    14.4242      7.912   182.9564 2.9436e+01     7.6200      2.922      4.238    20.7998 0.0000e+00
      3.001      0.063     0.7377      6.804     46.736  42.473443    18.1757      7.911   183.2306 2.8794e+01     7.6519      2.940      4.264    20.7977 0.0000e+00
      3.024      0.066     0.7051      6.570     46.831  42.453354    20.2618      7.908   183.5411 2.8075e+01     7.6624      2.965      4.301    20.7721 0.0000e+00
      3.049      0.066     0.6739      6.480     46.894  42.433939    20.8462      7.905   183.8713 2.7453e+01     7.7467      2.991      4.339    20.6858 0.0000e+00
      3.069      0.061     0.6402      6.507     46.949  42.429013    25.0586      7.902   184.2968 2.7079e+01     8.1252      3.013      4.370    20.5666 0.0000e+00
      3.080      0.054     0.6104      6.575     47.039  42.457196    32.7159      7.899   184.8143 2.6907e+01     8.6521      3.022      4.383    20.4303 0.0000e+00
      3.087      0.047     0.5884      6.648     47.184  42.520747    36.8986      7.895   185.1393 2.6722e+01     8.8576      3.025      4.388    20.3063 0.0000e+00
      3.095      0.042     0.5819      6.713     47.391  42.626063    37.5359      7.892   185.3001 2.6433e+01     8.9353      3.034      4.401    20.2310 0.0000e+00
      3.106      0.039     0.5892      6.785     47.573  42.714913    40.4542      7.889   185.4679 2.6098e+01     9.7277      3.046      4.417    20.1815 0.0000e+00
      3.119      0.039     0.5957      6.873     47.672  42.769794    45.7337      7.887   185.6194 2.5788e+01    11.0947      3.059      4.435    20.1325 0.0000e+00
      3.130      0.039     0.6045      6.983     47.942  43.035697    48.6002      7.884   185.7556 2.5525e+01    11.7652      3.070      4.453    20.0601 0.0000e+00
      3.139      0.040     0.6102      7.151     49.220  44.216179    48.8454      7.881   185.8242 2.5288e+01    11.7546      3.079      4.466    19.9672 0.0000e+00
      3.147      0.043     0.6176      7.358     51.401  46.124849    48.8659      7.878   185.9318 2.5093e+01    11.8201      3.087      4.477    19.8750 0.0000e+00
      3.155      0.046     0.6270      7.540     53.193  47.577187    48.9384      7.875   186.1106 2.4901e+01    12.6590      3.093      4.486    19.8234 0.0000e+00
      3.165      0.051     0.6341      7.661     54.239  48.317704    49.0733      7.872   186.2661 2.4547e+01    14.2128      3.101      4.498    19.8690 0.0000e+00
      3.182      0.055     0.6488      7.642     54.608  48.475356    49.0816      7.869   186.4341 2.4043e+01    15.0638      3.119      4.524    19.9499 0.0000e+00
      3.201      0.056     0.6718      7.377     54.299  48.086364    48.2813      7.868   186.5931 2.3579e+01    15.1262      3.140      4.554    19.9101 0.0000e+00
      3.217      0.056     0.6906      6.870     53.736  47.550604    39.4049      7.867   186.7267 2.3215e+01    15.1045      3.156      4.577    19.7276 0.0000e+00
      3.231      0.053     0.7064      6.189     53.531  47.393959    23.1419      7.864   186.7589 2.2924e+01    15.0737      3.169      4.597    19.5272 0.0000e+00
      3.244      0.049     0.7136      5.415     54.255  48.033554    14.2722      7.859   186.6380 2.2669e+01    15.0958      3.181      4.615    19.3628 0.0000e+00
      3.254      0.048     0.6884      4.675     55.850  49.315944    13.3126      7.855   186.5556 2.2448e+01    15.2013      3.192      4.630    19.2485 0.0000e+00
      3.263      0.050     0.6403      4.103     58.137  51.089765    11.3806      7.852   186.6231 2.2235e+01    16.1099      3.200      4.641    19.2116 0.0000e+00
      3.273      0.053     0.5742      3.736     61.448  53.733263     7.9508      7.848   186.7653 2.1915e+01    17.7468      3.208      4.652    19.2652 0.0000e+00
      3.287      0.058     0.4985      3.500     64.959  56.574655     6.0673      7.844   186.8984 2.1492e+01    18.6303      3.223      4.674    19.3188 0.0000e+00
      3.306      0.062     0.4255      3.289     66.758  57.944505     5.8368      7.840   187.0276 2.1056e+01    18.8338      3.243      4.704    19.1916 0.0000e+00
      3.325      0.065     0.3732      3.023     67.223  58.164589     5.2631      7.835   187.1235 2.0650e+01    20.3778      3.262      4.731    18.9366 0.0000e+00
      3.343      0.066     0.3444      2.701     68.291  58.917837     4.2411      7.827   187.1981 2.0288e+01    23.2245      3.278      4.755    18.7104 0.0000e+00
      3.359      0.065     0.3267      2.363     70.162  60.381807     3.6755      7.820   187.4127 1.9936e+01    24.7298      3.293      4.777    18.5375 0.0000e+00
      3.375      0.062     0.3117      2.033     72.295  62.080102     3.6017      7.814   187.6542 1.9572e+01    24.7783      3.309      4.800    18.3937 0.0000e+00
      3.390      0.060     0.2865      1.724     74.557  63.886576     3.4650      7.807   187.8800 1.9215e+01    24.6641      3.325      4.822    18.2549 0.0000e+00
      3.405      0.060     0.2553      1.483     76.687  65.577126     3.2299      7.800   188.2496 1.8882e+01    24.5108      3.340      4.845    18.1276 0.0000e+00
      3.420      0.060     0.2230      1.363     78.306  66.825562     3.1066      7.793   188.5965 1.8587e+01    24.4626      3.356      4.866    18.0238 0.0000e+00
      3.434      0.061     0.1924      1.357     80.193  68.305569     3.1057      7.786   188.8037 1.8247e+01    24.3545      3.367      4.883    17.9321 0.0000e+00
      3.449      0.064     0.1617      1.411     83.235  70.760926     3.1109      7.777   189.0346 1.7785e+01    22.7598      3.381      4.904    17.8403 0.0000e+00
      3.466      0.067     0.1362      1.492     86.153  73.060166     3.1026      7.768   189.3229 1.7269e+01    19.8018      3.399      4.929    17.7550 0.0000e+00
      3.483      0.071     0.1258      1.596     87.967  74.367092     3.0801      7.760   189.7954 1.6717e+01    18.1368      3.416      4.954    17.6636 0.0000e+00
      3.502      0.073     0.1279      1.698     88.916  74.929465     3.0643      7.750   190.7898 1.6078e+01    17.9314      3.433      4.980    17.5810 0.0000e+00
      3.523      0.073     0.1346      1.766     89.288  75.028010     3.0530      7.741   192.0532 1.5397e+01    17.7629      3.455      5.011    17.5176 0.0000e+00
      3.544      0.073     0.1417      1.814     89.384  74.922585     2.9685      7.732   192.8533 1.4814e+01    16.0655      3.477      5.041    17.4110 0.0000e+00
      3.562      0.072     0.1531      1.851     89.219  74.608156     2.8249      7.722   192.9790 1.4348e+01    12.9508      3.494      5.067    17.2675 0.0000e+00
      3.577      0.072     0.1656      1.867     88.729  74.023264     2.7483      7.712   192.4544 1.3874e+01    11.2220      3.508      5.086    17.1256 0.0000e+00
      3.594      0.073     0.1711      1.877     88.094  73.317628     2.7248      7.703   191.2415 1.3328e+01    10.9450      3.524      5.111    17.0030 0.0000e+00
      3.613      0.075     0.1754      1.888     87.634  72.750984     2.5983      7.695   189.8435 1.2750e+01    10.0453      3.544      5.140    16.9060 0.0000e+00
      3.633      0.075     0.1809      1.891     87.343  72.320826     2.3844      7.685   188.8020 1.2155e+01     8.4743      3.562      5.166    16.8087 0.0000e+00
      3.654      0.074     0.1815      1.887     86.926  71.803230     2.2779      7.675   188.1131 1.1497e+01     7.6630      3.582      5.196    16.7074 0.0000e+00
      3.676      0.072     0.1823      1.882     86.294  71.132772     2.2680      7.665   187.6231 1.0846e+01     7.6142      3.606      5.231    16.6105 0.0000e+00
      3.694      0.068     0.1851      1.874     85.624  70.443347     2.2068      7.658   187.0924 1.0276e+01     7.4067      3.625      5.257    16.5071 0.0000e+00
      3.709      0.064     0.1851      1.872     85.038  69.823390     2.0947      7.653   186.4291 9.7052e+00     7.0328      3.638      5.276    16.3922 0.0000e+00
      3.723      0.060     0.1850      1.880     84.484  69.229944     2.0280      7.649   185.7983 9.1101e+00     6.8507      3.651      5.296    16.2907 0.0000e+00
      3.738      0.058     0.1852      1.889     83.821  68.543091     2.0083      7.646   185.0582 8.5459e+00     6.8104      3.665      5.316    16.2102 0.0000e+00
      3.753      0.057     0.1843      1.888     83.039  67.746880     1.9399      7.642   183.9334 8.0009e+00     6.6823      3.680      5.337    16.1317 0.0000e+00
      3.767      0.058     0.1840      1.874     82.297  66.974927     1.8252      7.638   182.4377 7.4275e+00     6.4973      3.694      5.358    16.0502 0.0000e+00
      3.782      0.059     0.1856      1.859     81.628  66.263362     1.7608      7.635   180.4813 6.8199e+00     6.3839      3.708      5.379    15.9691 0.0000e+00
      3.797      0.060     0.1872      1.861     80.970  65.561549     1.7363      7.633   178.0030 6.2976e+00     6.3357      3.724      5.401    15.8859 0.0000e+00
      3.812      0.062     0.1878      1.887     80.371  64.907272     1.6707      7.632   175.5313 5.9256e+00     6.2571      3.739      5.424    15.7904 0.0000e+00
      3.827      0.064     0.1860      1.907     79.933  64.388991     1.5922      7.631   173.3099 5.6104e+00     6.1844      3.753      5.444    15.6857 0.0000e+00
      3.843      0.064     0.1849      1.894     79.634  63.996970     1.5692      7.629   170.7618 5.2942e+00     6.1737      3.769      5.466    15.5851 0.0000e+00
      3.861      0.066     0.1842      1.875     79.308  63.598371     1.5754      7.629   167.6078 4.9815e+00     6.1962      3.787      5.492    15.4820 0.0000e+00
      3.880      0.069     0.1887      1.875     78.879  63.127586     1.5507      7.628   164.0849 4.6986e+00     6.3886      3.806      5.520    15.3744 0.0000e+00
      3.896      0.070     0.1933      1.887     78.563  62.752229     1.5032      7.628   159.9151 4.4644e+00     6.7916      3.821      5.542    15.2702 0.0000e+00
      3.912      0.068     0.1899      1.895     78.452  62.554332     1.4840      7.629   154.4464 4.2249e+00     7.0381      3.834      5.562    15.1743 0.0000e+00
      3.932      0.064     0.1879      1.899     78.183  62.259563     1.4930      7.629   148.2959 3.9703e+00     7.0807      3.855      5.592    15.0896 0.0000e+00
      3.952      0.061     0.1882      1.898     77.673  61.793014     1.4960      7.629   142.9387 3.7824e+00     7.1022      3.879      5.627    15.0118 0.0000e+00
      3.967      0.057     0.1913      1.896     77.530  61.614738     1.4706      7.629   137.8537 3.6750e+00     7.3998      3.893      5.647    14.9315 0.0000e+00
      3.976      0.052     0.1917      1.898     77.938  61.882876     1.4189      7.628   132.0702 3.5418e+00     8.0485      3.897      5.652    14.8564 0.0000e+00
      3.987      0.044     0.1925      1.887     78.246  62.112471     1.3779      7.626   126.6144 3.3325e+00     8.4212      3.906      5.666    14.8073 0.0000e+00
      4.003      0.038     0.1926      1.860     77.971  61.912953     1.3673      7.626   121.9632 3.1717e+00     8.4899      3.928      5.698    14.7776 0.0000e+00
      4.015      0.037     0.1916      1.833     77.054  61.185938     1.3492      7.626   117.7334 3.1092e+00     8.9477      3.942      5.717    14.7330 0.0000e+00
      4.018      0.039     0.1935      1.816     75.781  60.120049     1.3087      7.627   113.8465 3.0677e+00     9.7212      3.941      5.716    14.6835 0.0000e+00
      4.021      0.044     0.1923      1.801     74.742  59.189972     1.2838      7.628   110.1570 2.9926e+00    10.0885      3.941      5.717    14.6778 0.0000e+00
      4.030      0.049     0.1887      1.800     73.882  58.389405     1.2652      7.631   106.7648 2.8384e+00    10.1773      3.948      5.727    14.7034 0.0000e+00
      4.046      0.058     0.1851      1.812     72.803  57.427847     1.2169      7.634   103.7200 2.6343e+00    11.5118      3.966      5.752    14.7152 0.0000e+00
      4.066      0.069     0.1850      1.808     71.864  56.583624     1.1583      7.638   100.9606 2.4450e+00    14.0290      3.989      5.786    14.6778 0.0000e+00
      4.086      0.079     0.1824      1.804     71.333  56.058166     1.1390      7.642    98.4395 2.2876e+00    15.4370      4.008      5.814    14.5935 0.0000e+00
      4.106      0.085     0.1821      1.820     70.379  55.203010     1.1495      7.647    96.0375 2.1529e+00    15.6582      4.026      5.838    14.5069 0.0000e+00
      4.128      0.089     0.1865      1.838     68.235  53.420681     1.1280      7.651    93.7720 2.0167e+00    16.7709      4.048      5.870    14.4359 0.0000e+00
      4.153      0.092     0.1848      1.855     65.626  51.274240     1.0618      7.655    91.6116 1.8809e+00    18.8137      4.072      5.906    14.3670 0.0000e+00
      4.177      0.095     0.1831      1.873     63.503  49.508164     1.0146      7.658    89.5332 1.7762e+00    19.9308      4.097      5.941    14.2896 0.0000e+00
      4.202      0.097     0.1872      1.874     62.116  48.322524     1.0153      7.663    87.7423 1.6955e+00    20.1325      4.120      5.975    14.2115 0.0000e+00
      4.227      0.099     0.1889      1.863     61.402  47.669019     0.9456      7.668    86.5643 1.6151e+00    20.5002      4.144      6.012    14.1420 0.0000e+00
      4.252      0.102     0.1903      1.854     61.070  47.320695     0.7868      7.673    86.0450 1.5329e+00    21.0294      4.171      6.049    14.0622 0.0000e+00
      4.277      0.106     0.1943      1.849     60.970  47.158303     0.6942      7.679    86.0236 1.4534e+00    21.3044      4.194      6.084    13.9746 0.0000e+00
      4.303      0.108     0.1937      1.865     61.001  47.102185     0.6746      7.687    86.3912 1.3828e+00    21.2638      4.218      6.118    13.8923 0.0000e+00
      4.332      0.107     0.1927      1.991     61.070  47.086495     0.6498      7.694    86.8756 1.3186e+00    20.8803      4.248      6.161    13.8108 0.0000e+00
      4.364      0.100     0.1917      2.440     61.233  47.158974     0.6114      7.699    87.6650 1.2604e+00    20.1855      4.280      6.207    13.7390 0.0000e+00
      4.395      0.087     0.1921      3.507     61.429  47.280100     0.5928      7.701    89.1387 1.2175e+00    19.7633      4.311      6.253    13.6694 0.0000e+00
      4.420      0.070     0.1906      5.378     61.602  47.408224     0.5913      7.702    90.7557 1.1875e+00    19.6696      4.338      6.292    13.6005 0.0000e+00
      4.435      0.051     0.1972      7.974     61.869  47.628810     0.5766      7.704    91.9862 1.1716e+00    19.5982      4.353      6.314    13.5443 0.0000e+00
      4.440      0.034     0.2307     10.994     61.947  47.725102     0.5723      7.704    93.0897 1.1821e+00    19.6179      4.357      6.319    13.4981 0.0000e+00
      4.440      0.024     0.3335     14.052     61.593  47.493216     0.5818      7.703    94.2037 1.1951e+00    19.7031      4.354      6.314    13.4718 0.0000e+00
      4.439      0.021     0.5328     16.776     61.330  47.301193     0.5825      7.702    95.3037 1.1972e+00    19.7406      4.353      6.313    13.4721 0.0000e+00
      4.442      0.022     0.8146     18.816     61.437  47.371521     0.5812      7.702    96.4948 1.1929e+00    19.7287      4.355      6.317    13.4816 0.0000e+00
      4.450      0.026     1.1453     20.047     61.538  47.454697     0.5670      7.701    97.5055 1.1686e+00    19.5932      4.361      6.326    13.5125 0.0000e+00
      4.462      0.030     1.4721     20.620     61.480  47.418057     0.5440      7.701    98.3184 1.1479e+00    19.3666      4.376      6.346    13.5641 0.0000e+00
      4.474      0.035     1.7728     20.834     61.374  47.309447     0.5437      7.701    99.0961 1.1518e+00    19.2434      4.390      6.367    13.5713 0.0000e+00
      4.482      0.040     1.9901     20.929     61.250  47.157265     0.5473      7.701    99.6815 1.1542e+00    19.2315      4.395      6.376    13.5372 0.0000e+00
      4.488      0.045     2.1109     20.992     61.177  47.038180     0.5452      7.701   100.2335 1.1445e+00    19.1203      4.401      6.383    13.5512 0.0000e+00
      4.495      0.049     2.1578     21.131     61.210  47.012290     0.5515      7.701   100.9521 1.1260e+00    18.8889      4.406      6.392    13.5770 0.0000e+00
      4.509      0.051     2.1689     21.461     61.281  47.034632     0.5654      7.700   101.8310 1.0953e+00    18.7907      4.418      6.408    13.5472 0.0000e+00
      4.529      0.052     2.1845     22.089     61.325  47.054328     0.5796      7.699   102.7728 1.0587e+00    18.8216      4.442      6.444    13.4939 0.0000e+00
      4.549      0.052     2.1863     23.057     61.336  47.059960     0.5738      7.698   103.5636 1.0318e+00    18.7148      4.464      6.475    13.4375 0.0000e+00
      4.562      0.052     2.2002     24.222     61.310  47.039241     0.5452      7.698   104.1651 1.0279e+00    18.4565      4.476      6.491    13.3933 0.0000e+00
      4.570      0.051     2.2322     25.427     61.260  46.994271     0.5170      7.697   104.7971 1.0289e+00    18.2602      4.482      6.501    13.3674 0.0000e+00
      4.577      0.051     2.2926     26.560     61.240  46.960639     0.5079      7.696   105.6125 1.0099e+00    18.1865      4.487      6.507    13.3580 0.0000e+00
      4.588      0.052     2.4037     27.486     61.261  46.950000     0.5175      7.693   106.5381 9.8071e-01    18.0778      4.497      6.522    13.3587 0.0000e+00
      4.606      0.054     2.5306     28.188     61.271  46.929094     0.5331      7.692   107.2986 9.5355e-01    17.8687      4.517      6.551    13.3613 0.0000e+00
      4.625      0.056     2.6589     28.811     61.261  46.898296     0.5387      7.692   107.8392 9.2532e-01    17.7077      4.537      6.580    13.3567 0.0000e+00
      4.640      0.056     2.7856     29.506     61.280  46.895023     0.5277      7.691   108.3421 8.9680e-01    17.6339      4.551      6.601    13.3413 0.0000e+00
      4.654      0.053     2.8858     30.376     61.292  46.889505     0.5157      7.689   108.9052 8.7309e-01    17.5918      4.563      6.619    13.3172 0.0000e+00
      4.666      0.050     2.9523     31.458     61.250  46.831561     0.5110      7.688   109.5714 8.5194e-01    17.4712      4.575      6.636    13.2906 0.0000e+00
      4.676      0.048     3.0139     32.710     61.225  46.765778     0.5044      7.687   110.2024 8.3413e-01    17.2344      4.586      6.652    13.2730 0.0000e+00
      4.686      0.048     3.0845     34.153     61.250  46.728932     0.4857      7.685   110.7689 8.2486e-01    17.0524      4.595      6.665    13.2581 0.0000e+00
      4.699      0.050     3.1720     35.819     61.280  46.703424     0.4593      7.684   111.3454 8.1516e-01    16.9774      4.607      6.682    13.2502 0.0000e+00
      4.714      0.053     3.2930     37.745     61.343  46.711252     0.4516      7.683   111.9248 7.9687e-01    16.9433      4.624      6.706    13.2354 0.0000e+00
      4.727      0.058     3.4233     39.924     61.455  46.760050     0.4676      7.682   112.6120 7.8145e-01    16.9474      4.637      6.724    13.1921 0.0000e+00
      4.741      0.062     3.5789     42.219     61.534  46.785502     0.4851      7.681   113.4593 7.6794e-01    16.9930      4.646      6.739    13.1397 0.0000e+00
      4.757      0.063     3.7562     44.545     61.544  46.765016     0.4803      7.680   114.2535 7.4021e-01    16.9816      4.664      6.764    13.1003 0.0000e+00
      4.776      0.062     3.9578     46.915     61.559  46.766266     0.4605      7.679   114.9008 7.0144e-01    16.7418      4.684      6.793    13.0708 0.0000e+00
      4.796      0.061     4.1998     49.300     61.594  46.800596     0.4536      7.678   115.5212 6.5992e-01    16.3828      4.705      6.824    13.0414 0.0000e+00
      4.812      0.061     4.4461     51.530     61.572  46.799190     0.4717      7.675   116.1624 6.4086e-01    16.2616      4.721      6.848    13.0108 0.0000e+00
      4.824      0.060     4.6931     53.433     61.507  46.749288     0.4965      7.674   116.8890 6.4107e-01    16.3345      4.730      6.861    12.9848 0.0000e+00
      4.835      0.059     4.9417     54.880     61.483  46.705122     0.5025      7.673   117.6817 6.1842e-01    16.3761      4.740      6.875    12.9761 0.0000e+00
      4.849      0.059     5.2023     55.827     61.536  46.709549     0.5032      7.672   118.4334 5.8144e-01    16.3887      4.753      6.895    12.9848 0.0000e+00
      4.867      0.060     5.4402     56.388     61.609  46.739289     0.5049      7.671   119.1803 5.5080e-01    16.4194      4.773      6.922    13.0044 0.0000e+00
      4.885      0.060     5.6444     56.731     61.639  46.747245     0.5064      7.670   120.0018 5.2983e-01    16.5081      4.792      6.950    13.0113 0.0000e+00
      4.901      0.060     5.8052     57.020     61.644  46.742250     0.4963      7.668   120.7943 5.1998e-01    16.5727      4.807      6.972    12.9812 0.0000e+00
      4.915      0.059     5.9018     57.371     61.651  46.742366     0.4501      7.667   121.5355 5.0453e-01    16.5173      4.820      6.991    12.9457 0.0000e+00
      4.928      0.056     5.9589     57.817     61.663  46.748636     0.4059      7.667   122.3378 4.7846e-01    16.4538      4.833      7.009    12.9258 0.0000e+00
      4.941      0.054     5.9890     58.301     61.673  46.754577     0.3944      7.666   123.0955 4.5701e-01    16.4534      4.845      7.028    12.9149 0.0000e+00
      4.956      0.054     6.0167     58.766     61.671  46.750704     0.4021      7.665   123.8138 4.3744e-01    16.5461      4.859      7.048    12.9097 0.0000e+00
      4.970      0.055     6.0519     59.180     61.696  46.765290     0.4153      7.663   124.5693 4.2418e-01    16.7209      4.874      7.070    12.9055 0.0000e+00
      4.984      0.055     6.1032     59.499     61.758  46.803955     0.4132      7.663   125.2617 4.2132e-01    16.7912      4.887      7.089    12.9028 0.0000e+00
      4.998      0.055     6.1568     59.711     61.816  46.837275     0.4096      7.662   125.8189 4.0148e-01    16.7465      4.901      7.109    12.9017 0.0000e+00
      5.012      0.054     6.2053     59.807     61.847  46.850720     0.4134      7.660   126.4011 3.7648e-01    16.7277      4.916      7.130    12.9014 0.0000e+00
      5.027      0.053     6.2537     59.830     61.839  46.839525     0.4092      7.659   127.1391 3.7014e-01    16.8709      4.929      7.151    12.8985 0.0000e+00
      5.041      0.052     6.2864     59.861     61.825  46.828893     0.4093      7.658   127.8591 3.6494e-01    17.1452      4.943      7.170    12.8908 0.0000e+00
      5.053      0.051     6.3124     59.963     61.853  46.849148     0.4149      7.657   128.5672 3.5729e-01    17.2780      4.955      7.187    12.8809 0.0000e+00
      5.065      0.051     6.3221     60.162     61.921  46.893958     0.4181      7.656   129.2487 3.4851e-01    17.2804      4.968      7.204    12.8722 0.0000e+00
      5.077      0.052     6.3206     60.404     61.980  46.926276     0.4149      7.654   129.8170 3.2915e-01    17.3108      4.979      7.222    12.8676 0.0000e+00
      5.090      0.054     6.3227     60.613     61.992  46.922447     0.4018      7.653   130.4489 3.1494e-01    17.3727      4.991      7.238    12.8690 0.0000e+00
      5.104      0.056     6.3304     60.782     61.990  46.911134     0.4007      7.652   131.2095 3.1165e-01    17.4478      5.005      7.259    12.8704 0.0000e+00
      5.119      0.057     6.3558     60.992     62.003  46.916464     0.4183      7.651   131.9587 3.0169e-01    17.4668      5.020      7.281    12.8642 0.0000e+00
      5.135      0.060     6.3858     61.257     62.015  46.923395     0.4231      7.651   132.6239 2.8347e-01    17.3641      5.035      7.303    12.8528 0.0000e+00
      5.150      0.063     6.4117     61.506     62.030  46.931453     0.4090      7.650   133.2304 2.5866e-01    17.1965      5.052      7.327    12.8412 0.0000e+00
      5.165      0.067     6.4245     61.709     62.065  46.950394     0.3967      7.649   133.8707 2.3787e-01    17.1483      5.066      7.348    12.8328 0.0000e+00
      5.180      0.069     6.4464     61.869     62.091  46.961949     0.3999      7.648   134.6012 2.3651e-01    17.2257      5.079      7.367    12.8306 0.0000e+00
      5.198      0.069     6.4800     61.997     62.078  46.944174     0.4226      7.647   135.3525 2.4114e-01    17.3124      5.097      7.393    12.8300 0.0000e+00
      5.220      0.065     6.5061     62.098     62.062  46.925924     0.4371      7.645   136.0700 2.3539e-01    17.3768      5.119      7.425    12.8271 0.0000e+00
      5.242      0.059     6.5292     62.163     62.073  46.931748     0.4257      7.643   136.6519 2.2493e-01    17.3897      5.143      7.459    12.8215 0.0000e+00
      5.258      0.052     6.5457     62.188     62.099  46.951105     0.4102      7.642   137.0548 2.1717e-01    17.4332      5.160      7.484    12.8137 0.0000e+00
      5.267      0.046     6.5609     62.213     62.124  46.969508     0.4084      7.641   137.5854 2.1482e-01    17.5613      5.167      7.494    12.8061 0.0000e+00
      5.272      0.041     6.5721     62.264     62.115  46.963788     0.4203      7.640   138.3350 2.0972e-01    17.6754      5.169      7.497    12.8017 0.0000e+00
      5.278      0.036     6.5803     62.312     62.089  46.945433     0.4290      7.639   138.9767 1.9804e-01    17.6854      5.174      7.506    12.8008 0.0000e+00
      5.289      0.034     6.5808     62.332     62.080  46.938046     0.4219      7.638   139.4941 1.9687e-01    17.6143      5.186      7.522    12.8002 0.0000e+00
      5.301      0.033     6.5817     62.346     62.080  46.937951     0.4092      7.637   140.0297 1.9613e-01    17.5662      5.200      7.541    12.7991 0.0000e+00
      5.312      0.030     6.5891     62.370     62.084  46.944290     0.4002      7.636   140.6343 1.8716e-01    17.5817      5.210      7.557    12.8015 0.0000e+00
      5.319      0.027     6.5952     62.379     62.087  46.951210     0.4055      7.634   141.2121 1.8753e-01    17.6324      5.218      7.568    12.8028 0.0000e+00
      5.324      0.023     6.5961     62.338     62.094  46.958139     0.4149      7.631   141.6818 1.8205e-01    17.6666      5.222      7.574    12.8009 0.0000e+00
      5.327      0.022     6.5962     62.242     62.105  46.964584     0.4058      7.629   142.1829 1.6575e-01    17.6539      5.224      7.577    12.8003 0.0000e+00
      5.331      0.022     6.6006     62.133     62.110  46.965644     0.4024      7.629   142.7109 1.6145e-01    17.6491      5.227      7.581    12.8027 0.0000e+00
      5.336      0.024     6.6012     62.033     62.116  46.970953     0.4074      7.628   143.2481 1.7269e-01    17.6763      5.231      7.587    12.8093 0.0000e+00
      5.343      0.027     6.5984     61.967     62.105  46.965286     0.4000      7.628   143.7733 1.8145e-01    17.7100      5.239      7.599    12.8108 0.0000e+00
      5.352      0.029     6.5854     61.983     62.097  46.960616     0.4046      7.627   144.3293 1.7792e-01    17.7485      5.249      7.613    12.8066 0.0000e+00
      5.360      0.031     6.5736     62.054     62.127  46.977980     0.4134      7.626   144.8941 1.7321e-01    17.7326      5.256      7.623    12.8046 0.0000e+00
      5.368      0.031     6.5639     62.118     62.147  46.984755     0.3979      7.625   145.3538 1.7077e-01    17.6539      5.264      7.635    12.8053 0.0000e+00
      5.377      0.032     6.5515     62.188     62.148  46.979036     0.3830      7.623   145.8434 1.7114e-01    17.6164      5.273      7.648    12.8089 0.0000e+00
      5.384      0.033     6.5548     62.288     62.144  46.972319     0.3924      7.622   146.3407 1.6977e-01    17.6553      5.281      7.659    12.8110 0.0000e+00
      5.390      0.037     6.5677     62.387     62.143  46.967021     0.4113      7.621   146.8063 1.6799e-01    17.6806      5.286      7.665    12.8059 0.0000e+00
      5.398      0.042     6.5735     62.458     62.163  46.978451     0.4117      7.621   147.2564 1.6396e-01    17.6487      5.292      7.675    12.7972 0.0000e+00
      5.410      0.048     6.5800     62.491     62.174  46.983551     0.3977      7.621   147.5674 1.4599e-01    17.6107      5.304      7.694    12.7924 0.0000e+00
      5.424      0.056     6.5933     62.477     62.153  46.965193     0.3915      7.620   147.8994 1.3565e-01    17.5978      5.319      7.714    12.7906 0.0000e+00
      5.439      0.062     6.6051     62.452     62.131  46.946939     0.3940      7.618   148.4312 1.3901e-01    17.6971      5.333      7.734    12.7864 0.0000e+00
      5.456      0.065     6.6127     62.432     62.140  46.953296     0.4032      7.618   148.9215 1.3789e-01    17.8553      5.349      7.758    12.7828 0.0000e+00
      5.475      0.065     6.6187     62.398     62.173  46.978567     0.4034      7.618   149.1811 1.3702e-01    17.9048      5.370      7.788    12.7812 0.0000e+00
      5.495      0.063     6.6148     62.360     62.199  46.998548     0.3967      7.616   149.4190 1.3592e-01    17.8864      5.391      7.818    12.7790 0.0000e+00
      5.510      0.059     6.6108     62.322     62.206  47.004424     0.3967      7.613   149.9042 1.2896e-01    17.8714      5.405      7.838    12.7773 0.0000e+00
      5.522      0.053     6.6119     62.291     62.179  46.986120     0.4042      7.613   150.4879 1.2441e-01    17.8942      5.414      7.852    12.7771 0.0000e+00
      5.536      0.048     6.6058     62.283     62.151  46.967709     0.4206      7.613   150.9701 1.2512e-01    17.9577      5.429      7.874    12.7777 0.0000e+00
      5.549      0.046     6.6025     62.292     62.157  46.972270     0.4284      7.613   151.4327 1.2580e-01    17.9898      5.444      7.897    12.7780 0.0000e+00
      5.557      0.048     6.5985     62.310     62.169  46.977780     0.4233      7.612   151.7796 1.2476e-01    17.9412      5.450      7.905    12.7772 0.0000e+00
      5.565      0.051     6.5935     62.343     62.167  46.970835     0.4088      7.610   152.0665 1.2416e-01    17.8147      5.454      7.911    12.7798 0.0000e+00
      5.578      0.054     6.5926     62.371     62.149  46.951788     0.4030      7.610   152.4928 1.2446e-01    17.7242      5.468      7.930    12.7840 0.0000e+00
      5.595      0.056     6.5944     62.383     62.136  46.937936     0.4201      7.610   152.8898 1.2415e-01    17.7345      5.487      7.958    12.7833 0.0000e+00
      5.614      0.058     6.5958     62.416     62.130  46.930321     0.4324      7.609   153.1670 1.2369e-01    17.7336      5.506      7.986    12.7799 0.0000e+00
      5.631      0.060     6.6011     62.501     62.123  46.923190     0.4098      7.607   153.4364 1.2361e-01    17.6454      5.523      8.009    12.7748 0.0000e+00
      5.644      0.060     6.6062     62.605     62.114  46.915209     0.3632      7.606   153.8232 1.2369e-01    17.4875      5.535      8.028    12.7701 0.0000e+00
      5.656      0.060     6.6055     62.695     62.092  46.897307     0.3514      7.606   154.3163 1.2375e-01    17.3961      5.546      8.045    12.7667 0.0000e+00
      5.669      0.060     6.6073     62.786     62.093  46.897192     0.3756      7.605   154.6664 1.2380e-01    17.4622      5.557      8.060    12.7641 0.0000e+00
      5.685      0.062     6.6189     62.876     62.116  46.913824     0.3812      7.604   154.8734 1.2380e-01    17.6034      5.573      8.084    12.7631 0.0000e+00
      5.705      0.065     6.6322     62.977     62.109  46.907944     0.3616      7.603   155.1837 1.2374e-01    17.6693      5.595      8.115    12.7623 0.0000e+00
      5.723      0.069     6.6391     63.087     62.085  46.889579     0.3464      7.602   155.5790 1.2366e-01    17.6106      5.614      8.143    12.7615 0.0000e+00
      5.739      0.072     6.6510     63.162     62.075  46.882233     0.3547      7.601   155.8668 1.2367e-01    17.6109      5.627      8.161    12.7606 0.0000e+00
      5.755      0.074     6.6593     63.192     62.076  46.882607     0.3712      7.601   155.9960 1.2371e-01    17.8088      5.641      8.181    12.7598 0.0000e+00
      5.776      0.075     6.6688     63.209     62.091  46.894097     0.3714      7.601   156.1092 1.2368e-01    18.0564      5.664      8.215    12.7596 0.0000e+00
      5.797      0.075     6.6844     63.215     62.092  46.894192     0.3568      7.600   156.4609 1.2363e-01    18.1110      5.686      8.247    12.7596 0.0000e+00
      5.817      0.073     6.6921     63.191     62.078  46.883750     0.3441      7.599   156.8933 1.2366e-01    18.0588      5.703      8.271    12.7596 0.0000e+00
      5.838      0.068     6.6932     63.154     62.092  46.894816     0.3593      7.597   156.9483 1.2370e-01    18.4158      5.725      8.303    12.7596 0.0000e+00
      5.857      0.062     6.6946     63.122     62.100  46.901017     0.3988      7.596   156.7818 1.2371e-01    19.1491      5.747      8.335    12.7593 0.0000e+00
      5.871      0.055     6.6981     63.127     62.091  46.895238     0.4231      7.594   156.8600 1.2370e-01    19.5466      5.759      8.352    12.7589 0.0000e+00
      5.881      0.050     6.6927     63.167     62.082  46.888432     0.4191      7.592   157.2045 1.2367e-01    19.5665      5.766      8.363    12.7588 0.0000e+00
      5.891      0.046     6.6896     63.191     62.075  46.882206     0.4340      7.592   157.6780 1.2367e-01    19.8678      5.777      8.377    12.7586 0.0000e+00
      5.902      0.043     6.6844     63.212     62.078  46.883447     0.7943      7.592   158.1971 1.2366e-01    24.0096      5.788      8.394    12.7594 0.0000e+00
      5.913      0.041     6.6829     63.256     62.104  46.903427     1.4629      7.590   158.5762 1.2362e-01    31.6933      5.798      8.409    12.7606 0.0000e+00
      5.925      0.038     6.6931     63.288     62.140  46.933334     1.8272      7.588   158.8211 1.2363e-01    36.1163      5.811      8.428    12.7604 0.0000e+00
      5.937      0.034     6.6927     63.284     62.129  46.927625     1.9273      7.587   159.0929 1.2363e-01    39.2975      5.825      8.448    12.7596 0.0000e+00
      5.945      0.030     6.6938     63.273     62.091  46.897881     2.7407      7.586   159.3674 1.2362e-01    70.4302      5.832      8.459    12.7582 0.0000e+00
      5.949      0.026     6.7006     63.247     62.087  46.891139     4.2369      7.585   159.7312 1.2366e-01   127.5137      5.834      8.461    12.7581 0.0000e+00
      5.953      0.021     6.7058     63.192     62.117  46.909593     5.0450      7.583   160.2222 1.2369e-01   159.1641      5.837      8.465    12.7614 0.0000e+00
      5.958      0.017     6.7011     63.121     62.148  46.930542     5.0957      7.582   160.5712 1.2369e-01   167.5390      5.842      8.473    12.7642 0.0000e+00
      5.965      0.015     6.7020     63.051     62.181  46.953965     4.7998      7.581   160.7678 1.2367e-01   228.0901      5.850      8.485    12.7635 0.0000e+00
      5.970      0.014     6.7009     62.996     62.246  47.002331     4.2053      7.579   160.9638 1.2362e-01   338.5827      5.856      8.493    12.7594 0.0000e+00
      5.972      0.011     6.6936     62.932     62.419  47.134421     3.8591      7.576   161.1352 1.2364e-01   398.4728      5.857      8.494    12.7556 0.0000e+00
      5.973      0.008     6.6874     62.856     62.693  47.344794     3.7597      7.574   161.2915 1.2365e-01   399.6534      5.858      8.496    12.7542 0.0000e+00
      5.975      0.006     6.6771     62.772     62.910  47.514337     3.1113      7.573   161.5622 1.2362e-01   352.8575      5.859      8.498    12.7527 0.0000e+00
      5.976      0.004     6.6749     62.666     63.010  47.597158     1.9293      7.572   161.9989 1.2358e-01   266.1500      5.860      8.499    12.7513 0.0000e+00
      5.977      0.003     6.6672     62.514     62.984  47.584321     1.2778      7.572   162.4429 1.2359e-01   218.7940      5.861      8.501    12.7520 0.0000e+00
      5.977      0.003     6.6577     62.293     62.847  47.486106     1.2108      7.571   162.8004 1.2366e-01   214.4802      5.862      8.502    12.7558 0.0000e+00
      5.978      0.003     6.6505     62.166     62.763  47.425474     1.2018      7.571   162.9652 1.2365e-01   214.1291      5.862      8.503    12.7595 0.0000e+00
      5.979 -9.990e-29     6.6363 -9.990e-29 -9.990e-29 -9.990e-29 -9.990e-29 -9.990e-29 -9.990e-29 1.2363e-01 -9.990e-29      5.863      8.504    12.7670 0.0000e+00
      5.979 -9.990e-29     6.6251 -9.990e-29 -9.990e-29 -9.990e-29 -9.990e-29 -9.990e-29 -9.990e-29 1.2364e-01 -9.990e-29      5.863      8.504    12.7719 0.0000e+00
      5.980 -9.990e-29     6.5938 -9.990e-29 -9.990e-29 -9.990e-29 -9.990e-29 -9.990e-29 -9.990e-29 1.2365e-01 -9.990e-29      5.864      8.505    12.7760 0.0000e+00
      5.980 -9.990e-29     6.5650 -9.990e-29 -9.990e-29 -9.990e-29 -9.990e-29 -9.990e-29 -9.990e-29 1.2365e-01 -9.990e-29      5.864      8.506    12.7818 0.0000e+00
