* Sea-Bird SBE19plus  Data File:
* FileName = C:\R\Reservoirs\Data\DataNotYetUploadedToEDI\Raw_CTD\RawDownloads\082624_fcr50_S7809_0001.hex
* Software version 2.8.0.119
* Temperature SN = 7809
* Conductivity SN = 7809
* System UpLoad Time = Aug 27 2024 14:08:53
* <ApplicationData>
* <Seaterm232>
* <SoftwareVersion>2.8.0.119</SoftwareVersion>
* <BuildDate>07-Nov-2018</BuildDate>
* </Seaterm232>
* </ApplicationData>
* <InstrumentState>
* <HardwareData DeviceType='SBE19plus' SerialNumber='01907809'>
*
*    <Manufacturer>Sea-Bird Electronics, Inc.</Manufacturer>
*
*    <FirmwareVersion>3.1.8</FirmwareVersion>
*
*    <FirmwareDate>Mar  9 2016 16:22:29</FirmwareDate>
*
*    <CommandSetVersion>1.4</CommandSetVersion>
*
*    <PCBAssembly PCBSerialNum='120721' AssemblyNum='41054J'/>
*
*    <PCBAssembly PCBSerialNum='120715' AssemblyNum='41967A'/>
*
*    <PCBAssembly PCBSerialNum='116699' AssemblyNum='41606'/>
*
*    <PCBAssembly PCBSerialNum='120719' AssemblyNum='41059D'/>
*
*    <MfgDate>28-Apr-2017</MfgDate>
*
*    <InternalSensors>
*
*       <Sensor id='Main Temperature'>
*
*          <type>temperature0</type>
*
*          <SerialNumber>01907809</SerialNumber>
*
*       </Sensor>
*
*       <Sensor id='Main Conductivity'>
*
*          <type>conductivity-0</type>
*
*          <SerialNumber>01907809</SerialNumber>
*
*       </Sensor>
*
*       <Sensor id='Main Pressure'>
*
*          <type>strain-0</type>
*
*          <SerialNumber>10586018</SerialNumber>
*
*       </Sensor>
*
*    </InternalSensors>
*
*    <ExternalSensors>
*
*       <Sensor id='volt 0'>
*
*          <type>pH</type>
*
*          <SerialNumber>27-0363</SerialNumber>
*
*       </Sensor>
*
*       <Sensor id='volt 1'>
*
*          <type>ORP</type>
*
*          <SerialNumber>27-0363</SerialNumber>
*
*       </Sensor>
*
*       <Sensor id='volt 2'>
*
*          <type>OXY</type>
*
*          <SerialNumber>43-0434</SerialNumber>
*
*       </Sensor>
*
*       <Sensor id='volt 3'>
*
*          <type>PAR</type>
*
*          <SerialNumber>1122</SerialNumber>
*
*       </Sensor>
*
*       <Sensor id='volt 4'>
*
*          <type>ECO AFL/FL</type>
*
*          <SerialNumber>FLNTURT-2496</SerialNumber>
*
*       </Sensor>
*
*       <Sensor id='volt 5'>
*
*          <type>ECO-NTU</type>
*
*          <SerialNumber>FLNTURT-2496</SerialNumber>
*
*       </Sensor>
*
*       <Sensor id='serial'>
*
*          <type>not assigned</type>
*
*          <SerialNumber>not assigned</SerialNumber>
*
*       </Sensor>
*
*    </ExternalSensors>
*
* </HardwareData>
* <StatusData DeviceType='SBE19plus' SerialNumber='01907809'>
*
*    <DateTime>2024-08-27T14:07:46</DateTime>
*
*    <LoggingState>not logging</LoggingState>
*
*    <EventSummary numEvents='0'/>
*
*    <Power>
*
*       <vMain>12.4</vMain>
*
*       <vLith>8.4</vLith>
*
*       <iMain>63.1</iMain>
*
*       <iPump>52.8</iPump>
*
*       <iExt01>20.8</iExt01>
*
*       <iExt2345>39.5</iExt2345>
*
*    </Power>
*
*    <MemorySummary>
*
*       <Bytes>110400</Bytes>
*
*       <Samples>4800</Samples>
*
*       <SamplesFree>2855988</SamplesFree>
*
*       <SampleLength>23</SampleLength>
*
*       <Profiles>5</Profiles>
*
*    </MemorySummary>
*
* </StatusData>
* <ConfigurationData DeviceType='SBE19plus' SerialNumber='01907809'>
*
*    <ProfileMode>
*
*       <ScansToAverage>1</ScansToAverage>
*
*       <MinimumCondFreq>0</MinimumCondFreq>
*
*       <PumpDelay>45</PumpDelay>
*
*       <AutoRun>no</AutoRun>
*
*       <IgnoreSwitch>no</IgnoreSwitch>
*
*    </ProfileMode>
*
*    <Battery>
*
*       <Type>alkaline</Type>
*
*       <CutOff>7.5</CutOff>
*
*    </Battery>
*
*    <DataChannels>
*
*       <ExtVolt0>yes</ExtVolt0>
*
*       <ExtVolt1>yes</ExtVolt1>
*
*       <ExtVolt2>yes</ExtVolt2>
*
*       <ExtVolt3>yes</ExtVolt3>
*
*       <ExtVolt4>yes</ExtVolt4>
*
*       <ExtVolt5>yes</ExtVolt5>
*
*       <SBE38>no</SBE38>
*
*       <WETLABS>no</WETLABS>
*
*       <OPTODE>no</OPTODE>
*
*       <SBE63>no</SBE63>
*
*       <SeaFET>no</SeaFET>
*
*       <GTD>no</GTD>
*
*    </DataChannels>
*
*    <EchoCharacters>yes</EchoCharacters>
*
*    <OutputExecutedTag>yes</OutputExecutedTag>
*
*    <OutputFormat>raw HEX</OutputFormat>
*
* </ConfigurationData>
* <CalibrationCoefficients DeviceType='SBE19plus' SerialNumber='01907809'>
*
*    <Calibration format='TEMP1' id='Main Temperature'>
*
*       <SerialNum>01907809</SerialNum>
*
*       <CalDate>31-Jan-23</CalDate>
*
*       <TA0>1.218232e-03</TA0>
*
*       <TA1>2.815090e-04</TA1>
*
*       <TA2>-1.578887e-06</TA2>
*
*       <TA3>1.972343e-07</TA3>
*
*       <TOFFSET>0.000000e+00</TOFFSET>
*
*    </Calibration>
*
*    <Calibration format='WBCOND0' id='Main Conductivity'>
*
*       <SerialNum>01907809</SerialNum>
*
*       <CalDate>31-Jan-23</CalDate>
*
*       <G>-1.005652e+00</G>
*
*       <H>1.267963e-01</H>
*
*       <I>-1.561708e-04</I>
*
*       <J>2.645944e-05</J>
*
*       <CPCOR>-9.570000e-08</CPCOR>
*
*       <CTCOR>3.250000e-06</CTCOR>
*
*       <CSLOPE>1.000000e+00</CSLOPE>
*
*    </Calibration>
*
*    <Calibration format='STRAIN0' id='Main Pressure'>
*
*       <SerialNum>10586018</SerialNum>
*
*       <CalDate>20-Jan-23</CalDate>
*
*       <PA0>4.416439e-02</PA0>
*
*       <PA1>4.850502e-04</PA1>
*
*       <PA2>-3.090426e-12</PA2>
*
*       <PTCA0>5.254757e+05</PTCA0>
*
*       <PTCA1>1.050255e+01</PTCA1>
*
*       <PTCA2>-2.922435e-01</PTCA2>
*
*       <PTCB0>2.516687e+01</PTCB0>
*
*       <PTCB1>3.750000e-04</PTCB1>
*
*       <PTCB2>0.000000e+00</PTCB2>
*
*       <PTEMPA0>-5.470820e+01</PTEMPA0>
*
*       <PTEMPA1>5.485421e+01</PTEMPA1>
*
*       <PTEMPA2>-3.446578e-01</PTEMPA2>
*
*       <POFFSET>8.500000e-01</POFFSET>
*
*       <PRANGE>1.600000e+02</PRANGE>
*
*    </Calibration>
*
*    <Calibration format='VOLT0' id='Volt 0'>
*
*       <OFFSET>-4.920000e-02</OFFSET>
*
*       <SLOPE>1.248122e+00</SLOPE>
*
*    </Calibration>
*
*    <Calibration format='VOLT0' id='Volt 1'>
*
*       <OFFSET>-4.784000e-02</OFFSET>
*
*       <SLOPE>1.248871e+00</SLOPE>
*
*    </Calibration>
*
*    <Calibration format='VOLT0' id='Volt 2'>
*
*       <OFFSET>-4.864632e-02</OFFSET>
*
*       <SLOPE>1.248714e+00</SLOPE>
*
*    </Calibration>
*
*    <Calibration format='VOLT0' id='Volt 3'>
*
*       <OFFSET>-4.743790e-02</OFFSET>
*
*       <SLOPE>1.248571e+00</SLOPE>
*
*    </Calibration>
*
*    <Calibration format='VOLT0' id='Volt 4'>
*
*       <OFFSET>-4.671263e-02</OFFSET>
*
*       <SLOPE>1.248951e+00</SLOPE>
*
*    </Calibration>
*
*    <Calibration format='VOLT0' id='Volt 5'>
*
*       <OFFSET>-4.871053e-02</OFFSET>
*
*       <SLOPE>1.249136e+00</SLOPE>
*
*    </Calibration>
*
*    <Calibration format='FREQ0' id='external frequency channel'>
*
*       <EXTFREQSF>1.000014e+00</EXTFREQSF>
*
*    </Calibration>
*
* </CalibrationCoefficients>
* <EventCounters DeviceType='SBE19plus' SerialNumber='01907809'>
*
*    <EventSummary numEvents='0'/>
*
* </EventCounters></InstrumentState>
* <Headers>
*
* cast   1 26 Aug 2024 09:38:31 samples 1 to 1461, avg = 1, stop = mag switch
*
# nquan = 15
# nvalues = 1056                        
# units = specified
# name 0 = depFM: Depth [fresh water, m]
# name 1 = dz/dtM: Descent Rate [m/s]
# name 2 = sbeox0Mg/L: Oxygen, SBE 43 [mg/l]
# name 3 = sbeox0PS: Oxygen, SBE 43 [% saturation]
# name 4 = specc: Specific Conductance [uS/cm]
# name 5 = c0uS/cm: Conductivity [uS/cm]
# name 6 = flECO-AFL: Fluorescence, WET Labs ECO-AFL/FL [mg/m^3]
# name 7 = ph: pH
# name 8 = orp: Oxidation Reduction Potential [mV]
# name 9 = par/sat/log: PAR/Logarithmic, Satlantic
# name 10 = turbWETntu0: Turbidity, WET Labs ECO [NTU]
# name 11 = prdM: Pressure, Strain Gauge [db]
# name 12 = prdE: Pressure, Strain Gauge [psi]
# name 13 = tv290C: Temperature [ITS-90, deg C]
# name 14 = flag:  0.000e+00
# span 0 =     -0.581,      9.519       
# span 1 =     -0.191,      0.158       
# span 2 =     0.0802,     8.0213       
# span 3 =      0.928,     95.712       
# span 4 =      3.484,    422.986       
# span 5 =   3.339253, 319.513418       
# span 6 =    -2.1101,    96.2369       
# span 7 =     -2.141,      7.124       
# span 8 = -1240.7455,   871.3062       
# span 9 = 1.2358e-01, 1.2724e+03       
# span 10 =    -0.1156,   328.3385      
# span 11 =     -0.570,      9.335      
# span 12 =     -0.827,     13.539      
# span 13 =    12.7559,    24.4383      
# span 14 = 0.0000e+00, 0.0000e+00      
# interval = seconds: 0.25
# start_time = Aug 26 2024 09:38:31 [Instrument's time stamp, header]
# bad_flag = -9.990e-29
# <Sensors count="9" >
#   <sensor Channel="1" >
#     <!-- Count, Temperature -->
#     <TemperatureSensor SensorID="58" >
#       <SerialNumber>7809</SerialNumber>
#       <CalibrationDate>31-Jan-23</CalibrationDate>
#       <A0>1.21823180e-003</A0>
#       <A1>2.81508993e-004</A1>
#       <A2>-1.57888696e-006</A2>
#       <A3>1.97234302e-007</A3>
#       <Slope>1.00000000</Slope>
#       <Offset>0.0000</Offset>
#     </TemperatureSensor>
#   </sensor>
#   <sensor Channel="2" >
#     <!-- Frequency 0, Conductivity -->
#     <ConductivitySensor SensorID="3" >
#       <SerialNumber>7809</SerialNumber>
#       <CalibrationDate>31-Jan-23</CalibrationDate>
#       <UseG_J>1</UseG_J>
#       <!-- Cell const and series R are applicable only for wide range sensors. -->
#       <SeriesR>0.0000</SeriesR>
#       <CellConst>2000.0000</CellConst>
#       <ConductivityType>0</ConductivityType>
#       <Coefficients equation="0" >
#         <A>0.00000000e+000</A>
#         <B>0.00000000e+000</B>
#         <C>0.00000000e+000</C>
#         <D>0.00000000e+000</D>
#         <M>0.0</M>
#         <CPcor>-9.57000000e-008</CPcor>
#       </Coefficients>
#       <Coefficients equation="1" >
#         <G>-1.00565232e+000</G>
#         <H>1.26796307e-001</H>
#         <I>-1.56170788e-004</I>
#         <J>2.64594368e-005</J>
#         <CPcor>-9.57000000e-008</CPcor>
#         <CTcor>3.2500e-006</CTcor>
#         <!-- WBOTC not applicable unless ConductivityType = 1. -->
#         <WBOTC>0.00000000e+000</WBOTC>
#       </Coefficients>
#       <Slope>1.00000000</Slope>
#       <Offset>0.00000</Offset>
#     </ConductivitySensor>
#   </sensor>
#   <sensor Channel="3" >
#     <!-- Count, Pressure, Strain Gauge -->
#     <PressureSensor SensorID="46" >
#       <SerialNumber>7809</SerialNumber>
#       <CalibrationDate>20-Jan-23</CalibrationDate>
#       <PA0>4.41643944e-002</PA0>
#       <PA1>4.85050239e-004</PA1>
#       <PA2>-3.09042623e-012</PA2>
#       <PTEMPA0>-5.47081996e+001</PTEMPA0>
#       <PTEMPA1>5.48542136e+001</PTEMPA1>
#       <PTEMPA2>-3.44657813e-001</PTEMPA2>
#       <PTCA0>5.25475731e+005</PTCA0>
#       <PTCA1>1.05025484e+001</PTCA1>
#       <PTCA2>-2.92243463e-001</PTCA2>
#       <PTCB0>2.51668750e+001</PTCB0>
#       <PTCB1>3.75000000e-004</PTCB1>
#       <PTCB2>0.00000000e+000</PTCB2>
#       <Offset>0.000000</Offset>
#     </PressureSensor>
#   </sensor>
#   <sensor Channel="4" >
#     <!-- A/D voltage 0, Oxygen, SBE 43 -->
#     <OxygenSensor SensorID="38" >
#       <SerialNumber>0434</SerialNumber>
#       <CalibrationDate>18-Feb-23</CalibrationDate>
#       <Use2007Equation>1</Use2007Equation>
#       <CalibrationCoefficients equation="0" >
#         <!-- Coefficients for Owens-Millard equation. -->
#         <Boc>0.0000</Boc>
#         <Soc>0.0000e+000</Soc>
#         <offset>0.0000</offset>
#         <Pcor>0.00e+000</Pcor>
#         <Tcor>0.0000</Tcor>
#         <Tau>0.0</Tau>
#       </CalibrationCoefficients>
#       <CalibrationCoefficients equation="1" >
#         <!-- Coefficients for Sea-Bird equation - SBE calibration in 2007 and later. -->
#         <Soc>5.1878e-001</Soc>
#         <offset>-0.5046</offset>
#         <A>-4.2788e-003</A>
#         <B> 1.5372e-004</B>
#         <C>-2.1853e-006</C>
#         <D0> 2.5826e+000</D0>
#         <D1> 1.92634e-004</D1>
#         <D2>-4.64803e-002</D2>
#         <E> 3.6000e-002</E>
#         <Tau20> 0.9900</Tau20>
#         <H1>-3.3000e-002</H1>
#         <H2> 5.0000e+003</H2>
#         <H3> 1.4500e+003</H3>
#       </CalibrationCoefficients>
#     </OxygenSensor>
#   </sensor>
#   <sensor Channel="5" >
#     <!-- A/D voltage 1, PAR/Logarithmic, Satlantic -->
#     <PARLog_SatlanticSensor SensorID="76" >
#       <SerialNumber>1122</SerialNumber>
#       <CalibrationDate>08-Sep-2021</CalibrationDate>
#       <a0>9.6751e-001</a0>
#       <a1>8.0992e-001</a1>
#       <Im>1.3589e+000</Im>
#       <Multiplier>1.0000e+000</Multiplier>
#     </PARLog_SatlanticSensor>
#   </sensor>
#   <sensor Channel="6" >
#     <!-- A/D voltage 2, pH -->
#     <pH_Sensor SensorID="43" >
#       <SerialNumber>0363</SerialNumber>
#       <CalibrationDate>28-Feb-23</CalibrationDate>
#       <Slope>4.7364</Slope>
#       <Offset>2.5433</Offset>
#     </pH_Sensor>
#   </sensor>
#   <sensor Channel="7" >
#     <!-- A/D voltage 3, Oxidation Reduction Potential -->
#     <OxidationReductionPotentialSensor SensorID="41" >
#       <SerialNumber>0363</SerialNumber>
#       <CalibrationDate>28-Feb-23</CalibrationDate>
#       <B>2.499480</B>
#       <M>-0.496195</M>
#       <Offset>0.0</Offset>
#     </OxidationReductionPotentialSensor>
#   </sensor>
#   <sensor Channel="8" >
#     <!-- A/D voltage 4, Fluorometer, WET Labs ECO-AFL/FL -->
#     <FluoroWetlabECO_AFL_FL_Sensor SensorID="20" >
#       <SerialNumber>FLNTURT-2496</SerialNumber>
#       <CalibrationDate>02-Sep-2021</CalibrationDate>
#       <ScaleFactor>4.80000000e+001</ScaleFactor>
#       <!-- Dark output -->
#       <Vblank>0.0550</Vblank>
#     </FluoroWetlabECO_AFL_FL_Sensor>
#   </sensor>
#   <sensor Channel="9" >
#     <!-- A/D voltage 5, Turbidity Meter, WET Labs, ECO-NTU -->
#     <TurbidityMeter SensorID="67" >
#       <SerialNumber>FLNTURT--2496</SerialNumber>
#       <CalibrationDate>02-Sep-2021</CalibrationDate>
#       <ScaleFactor>197.000000</ScaleFactor>
#       <!-- Dark output -->
#       <DarkVoltage>0.070000</DarkVoltage>
#     </TurbidityMeter>
#   </sensor>
# </Sensors>
# datcnv_date = Aug 27 2024 14:15:01, 7.26.7.129 [datcnv_vars = 14]
# datcnv_in = C:\R\Reservoirs\Data\DataNotYetUploadedToEDI\Raw_CTD\RawDownloads\082624_fcr50_S7809001.hex C:\R\Reservoirs\Data\DataNotYetUploadedToEDI\Raw_CTD\RawDownloads\SBE19plusV2_7809_start20230701.xmlcon
# datcnv_skipover = 0
# datcnv_ox_hysteresis_correction = yes
# datcnv_ox_tau_correction = yes
# filter_date = Aug 27 2024 14:15:34, 7.26.7.129
# filter_in = C:\R\Reservoirs\Data\DataNotYetUploadedToEDI\Raw_CTD\RawDownloads\082624_fcr50_S7809001.cnv
# filter_low_pass_tc_A = 0.030
# filter_low_pass_tc_B = 0.150
# filter_low_pass_A_vars = sbeox0Mg/L prdM prdE tv290C
# filter_low_pass_B_vars = depFM dz/dtM sbeox0PS specc c0uS/cm flECO-AFL ph orp par/sat/log turbWETntu0
# alignctd_date = Aug 27 2024 14:16:21, 7.26.7.129
# alignctd_in = C:\R\Reservoirs\Data\DataNotYetUploadedToEDI\Raw_CTD\RawDownloads\082624_fcr50_S7809001.cnv
# alignctd_adv = dz/dtM 1.000, sbeox0PS 1.000, specc 1.000, c0uS/cm 1.000, flECO-AFL 1.000, ph 1.000, orp 1.000, turbWETntu0 1.000                                                                                                   
# file_type = ascii
*END*
     -0.580 -1.164e-09     7.7628     90.349      3.560   3.412078    -0.0625     -2.141 -1240.7455 1.8204e+02     1.4583     -0.569     -0.825    22.9151 0.0000e+00
     -0.580 -1.059e-10     7.7635     90.356      3.495   3.349993    -0.0853     -2.141 -1240.7455 1.8008e+02     1.4299     -0.569     -0.825    22.9158 0.0000e+00
     -0.580 -9.625e-12     7.7618     90.364      3.484   3.339253    -0.0801     -2.141 -1240.7455 1.7761e+02     1.4529     -0.569     -0.826    22.9167 0.0000e+00
     -0.580 -8.750e-13     7.7623     90.355      3.556   3.408914    -0.0579     -2.141 -1240.7455 1.7413e+02     1.4977     -0.569     -0.825    22.9174 0.0000e+00
     -0.580 -7.955e-14     7.7610     90.340      3.581   3.432097    -0.0503     -2.141 -1240.7455 1.7211e+02     1.5271     -0.569     -0.825    22.9181 0.0000e+00
     -0.580 -7.230e-15     7.7620     90.342      3.578   3.429514    -0.0542     -2.140 -1240.7455 1.7707e+02     1.5355     -0.569     -0.826    22.9185 0.0000e+00
     -0.580 -6.575e-16     7.7637     90.363      3.523   3.377679    -0.0468     -2.140 -1240.7455 1.8198e+02     1.5307     -0.569     -0.826    22.9189 0.0000e+00
     -0.580 -5.975e-17     7.7622     90.371      3.521   3.375497    -0.0360     -2.140 -1240.7455 1.7473e+02     1.4347     -0.569     -0.826    22.9196 0.0000e+00
     -0.580 -5.430e-18     7.7603     90.382      3.616   3.466471    -0.0482     -2.140 -1240.7455 1.8522e+02     1.1952     -0.569     -0.826    22.9199 0.0000e+00
     -0.580 -4.938e-19     7.7592     90.417      3.680   3.527428    -0.0695     -2.140 -1240.7455 4.5729e+02     0.9907     -0.570     -0.826    22.9203 0.0000e+00
     -0.580 -4.490e-20     7.7639     90.439      3.695   3.542402    -0.0695     -2.140 -1240.7455 9.3185e+02     0.9778     -0.569     -0.825    22.9207 0.0000e+00
     -0.581 -4.082e-21     7.7632     90.438      3.673   3.520812    -0.0552     -2.140 -1240.7455 9.2388e+02     1.0389     -0.570     -0.826    22.9209 0.0000e+00
     -0.581 -3.710e-22     7.7620     90.429      3.672   3.519783    -0.0557     -2.140 -1240.7455 4.5379e+02     1.0119     -0.570     -0.827    22.9217 0.0000e+00
     -0.581 -3.373e-23     7.7679     90.404      3.683   3.529964    -0.0672     -2.140 -1240.7455 1.8320e+02     0.9936     -0.570     -0.826    22.9224 0.0000e+00
     -0.581 -3.066e-24     7.7698     90.384      3.669   3.517211    -0.0608     -2.140 -1240.7455 1.5232e+02     1.0572     -0.570     -0.827    22.9229 0.0000e+00
     -0.581 -2.787e-25     7.7680     90.384      3.643   3.492285    -0.0535     -2.140 -1240.7455 1.4662e+02     1.0973     -0.570     -0.827    22.9232 0.0000e+00
     -0.581 -2.534e-26     7.7690     90.378      3.632   3.481975    -0.0621     -2.140 -1240.7455 1.3931e+02     1.0678     -0.570     -0.826    22.9234 0.0000e+00
     -0.581 -2.304e-27     7.7652     90.361      3.671   3.519242    -0.0563     -2.140 -1240.7455 1.3388e+02     1.0083     -0.570     -0.826    22.9238 0.0000e+00
     -0.581 -2.094e-28     7.7624     90.364      3.716   3.562799    -0.0420     -2.140 -1240.7455 1.3670e+02     0.9929     -0.570     -0.826    22.9242 0.0000e+00
     -0.581 -1.904e-29     7.7645     90.404      3.785   3.628536    -0.0466     -2.140 -1240.7455 1.4405e+02     1.0189     -0.569     -0.826    22.9245 0.0000e+00
     -0.581 -1.731e-30     7.7635     90.437      3.840   3.680585    -0.0622     -2.140 -1240.7455 1.5086e+02     1.0154     -0.570     -0.827    22.9249 0.0000e+00
     -0.581 -1.574e-31     7.7615     90.440      3.845   3.685334    -0.0726     -2.140 -1240.7455 1.6831e+02     1.0187     -0.569     -0.826    22.9253 0.0000e+00
     -0.581 -1.431e-32     7.7594     90.427      3.845   3.685957    -0.0726     -2.140 -1240.7455 1.9940e+02     1.0243     -0.570     -0.826    22.9260 0.0000e+00
     -0.580 -1.300e-33     7.7659     90.404      3.847   3.688115    -0.0706     -2.140 -1240.7455 2.4195e+02     0.9466     -0.569     -0.825    22.9269 0.0000e+00
     -0.580 -1.181e-34     7.7692     90.392      3.872   3.711434    -0.0733     -2.140 -1240.7455 4.5024e+02     0.8992     -0.569     -0.826    22.9277 0.0000e+00
     -0.580 -9.458e-36     7.7679     90.393      3.875   3.714501    -0.0638     -2.140 -1240.7455 7.6838e+02     0.9634     -0.569     -0.826    22.9281 0.0000e+00
     -0.580 1.3232e-35     7.7677     90.383      3.885   3.725192    -0.0470     -2.140 -1240.7455 9.6412e+02     1.0399     -0.569     -0.825    22.9281 0.0000e+00
     -0.580 1.5621e-34     7.7645     90.388      3.940   3.777352    -0.0535     -2.140 -1240.7455 1.1292e+03     1.0377     -0.569     -0.826    22.9283 0.0000e+00
     -0.580 1.7192e-33     7.7628     90.415      3.938   3.775029    -0.0675     -2.140 -1240.7455 1.2463e+03     1.0397     -0.569     -0.825    22.9285 0.0000e+00
     -0.580 1.8912e-32     7.7652     90.419      3.923   3.760458    -0.0666     -2.140 -1240.7455 1.2449e+03     1.1672     -0.569     -0.825    22.9286 0.0000e+00
     -0.580 2.0803e-31     7.7624     90.400      3.955   3.791217    -0.0678     -2.140 -1240.7455 1.0452e+03     1.2462     -0.569     -0.826    22.9288 0.0000e+00
     -0.580 2.2883e-30     7.7616     90.383      3.995   3.830187    -0.0734     -2.140 -1240.7455 6.2796e+02     1.2090     -0.569     -0.826    22.9290 0.0000e+00
     -0.580 2.5171e-29     7.7679     90.379      4.018   3.851558    -0.0593     -2.140 -1240.7455 3.1311e+02     1.1961     -0.569     -0.825    22.9291 0.0000e+00
     -0.580 2.7689e-28     7.7664     90.388      4.026   3.859560    -0.0298     -2.140 -1240.7455 2.0541e+02     1.2273     -0.569     -0.826    22.9292 0.0000e+00
     -0.580 3.0457e-27     7.7642     90.397      4.030   3.863596    -0.0169     -2.140 -1240.7455 1.6841e+02     1.2786     -0.569     -0.825    22.9297 0.0000e+00
     -0.580 3.3503e-26     7.7624     90.408      4.002   3.837006    -0.0280     -2.140 -1240.7455 1.4333e+02     1.2699     -0.568     -0.824    22.9302 0.0000e+00
     -0.580 3.6854e-25     7.7617     90.428      3.955   3.791460    -0.0482     -2.140 -1240.7455 1.2138e+02     1.1895     -0.569     -0.825    22.9308 0.0000e+00
     -0.580 4.0539e-24     7.7634     90.440      3.918   3.756335    -0.0530     -2.140 -1240.7455 1.0914e+02     1.1610     -0.569     -0.825    22.9312 0.0000e+00
     -0.580 4.4593e-23     7.7639     90.439      3.889   3.729059    -0.0436     -2.140 -1240.7455 1.0410e+02     1.1305     -0.569     -0.825    22.9319 0.0000e+00
     -0.580 4.9052e-22     7.7638     90.424      3.874   3.715060    -0.0511     -2.140 -1240.7455 1.0265e+02     1.0250     -0.569     -0.825    22.9325 0.0000e+00
     -0.580 5.3957e-21     7.7669     90.406      3.873   3.713778    -0.0615     -2.140 -1240.7455 1.0490e+02     0.9791     -0.569     -0.825    22.9330 0.0000e+00
     -0.580 5.9353e-20     7.7674     90.411      3.873   3.713557    -0.0526     -2.140 -1240.7455 1.0884e+02     1.0193     -0.569     -0.825    22.9335 0.0000e+00
     -0.580 6.5288e-19     7.7675     90.433      3.872   3.712395    -0.0517     -2.140 -1240.7455 1.1128e+02     1.0330     -0.569     -0.826    22.9341 0.0000e+00
     -0.580 7.1817e-18     7.7663     90.441      3.859   3.699724    -0.0670     -2.140 -1240.7455 1.1918e+02     1.0081     -0.569     -0.825    22.9345 0.0000e+00
     -0.580 7.8999e-17     7.7629     90.432      3.845   3.687054    -0.0708     -2.140 -1240.7455 1.2895e+02     1.0261     -0.568     -0.824    22.9351 0.0000e+00
     -0.580 8.6899e-16     7.7638     90.428      3.844   3.685892    -0.0642     -2.140 -1240.7455 1.5342e+02     1.0451     -0.569     -0.825    22.9356 0.0000e+00
     -0.580 9.5589e-15     7.7670     90.428      3.844   3.685673    -0.0626     -2.140 -1240.7455 1.7492e+02     0.9992     -0.569     -0.826    22.9360 0.0000e+00
     -0.580 1.0515e-13     7.7678     90.424      3.843   3.684408    -0.0600     -2.140 -1240.7455 1.4262e+02     0.9493     -0.569     -0.826    22.9364 0.0000e+00
     -0.580 1.1566e-12     7.7654     90.424      3.828   3.670594    -0.0573     -2.140 -1240.7455 1.0834e+02     0.9540     -0.569     -0.825    22.9367 0.0000e+00
     -0.580 1.2723e-11     7.7657     90.425      3.802   3.645350    -0.0556     -2.140 -1240.7455 1.0560e+02     1.0220     -0.569     -0.825    22.9371 0.0000e+00
     -0.580 1.3995e-10     7.7658     90.430      3.789   3.632576    -0.0639     -2.140 -1240.7455 1.0560e+02     1.0194     -0.569     -0.825    22.9377 0.0000e+00
     -0.580 1.5395e-09     7.7649     90.440      3.799   3.642836    -0.0749     -2.140 -1240.7455 1.0604e+02     0.9572     -0.568     -0.824    22.9381 0.0000e+00
     -0.580 1.6934e-08     7.7648     90.435      3.798   3.642713    -0.0639     -2.140 -1240.7455 1.0681e+02     0.9875     -0.569     -0.825    22.9387 0.0000e+00
     -0.580 1.8627e-07     7.7654     90.415      3.786   3.631080    -0.0549     -2.140 -1240.7455 1.0801e+02     1.0101     -0.569     -0.825    22.9392 0.0000e+00
     -0.580 1.8627e-07     7.7647     90.419      3.784   3.628879    -0.0667     -2.140 -1240.7455 1.1121e+02     0.9568     -0.568     -0.824    22.9398 0.0000e+00
     -0.580 1.6934e-08     7.7671     90.435      3.771   3.616104    -0.0730     -2.140 -1240.7455 1.1588e+02     0.9574     -0.569     -0.825    22.9407 0.0000e+00
     -0.580 1.5395e-09     7.7665     90.431      3.757   3.603313    -0.0642     -2.140 -1240.7455 1.2027e+02     0.9839     -0.569     -0.825    22.9420 0.0000e+00
     -0.580 1.3995e-10     7.7623     90.417      3.755   3.600914    -0.0607     -2.140 -1240.7455 1.2428e+02     0.9696     -0.569     -0.826    22.9432 0.0000e+00
     -0.580 1.2731e-11     7.7631     90.411      3.740   3.587100    -0.0636     -2.140 -1240.7455 1.2904e+02     1.0237     -0.569     -0.825    22.9443 0.0000e+00
     -0.580 1.2430e-12     7.7662     90.411      3.714   3.562997    -0.0571     -2.140 -1240.7455 1.3363e+02     1.0913     -0.569     -0.825    22.9459 0.0000e+00
     -0.580 1.0547e-12     7.7646     90.414      3.714   3.562882    -0.0495     -2.139 -1240.7455 1.3504e+02     1.0702     -0.569     -0.825    22.9478 0.0000e+00
     -0.580 1.0454e-11     7.7625     90.425      3.738   3.585710    -0.0547     -2.139 -1240.7455 1.3484e+02     1.0082     -0.569     -0.825    22.9492 0.0000e+00
     -0.580 1.1489e-10     7.7623     90.439      3.738   3.585606    -0.0620     -2.139 -1240.7455 1.3799e+02     0.9552     -0.569     -0.825    22.9505 0.0000e+00
     -0.580 1.2638e-09     7.7617     90.424      3.713   3.561625    -0.0546     -2.139 -1240.7455 1.5959e+02     0.9759     -0.569     -0.825    22.9518 0.0000e+00
     -0.580 1.3902e-08     7.7624     90.419      3.700   3.549154    -0.0402     -2.139 -1240.7455 3.4717e+02     1.0879     -0.569     -0.825    22.9527 0.0000e+00
     -0.580 1.5292e-07     7.7619     90.449      3.712   3.561520    -0.0452     -2.139 -1240.7455 6.0311e+02     1.2846     -0.569     -0.825    22.9534 0.0000e+00
     -0.579      0.000     7.7662     90.452      3.736   3.584440    -0.0399     -2.139 -1240.7451 5.8433e+02     3.0820     -0.568     -0.824    22.9538 0.0000e+00
     -0.579      0.000     7.7628     90.436      3.724   3.572892     0.0158     -2.139 -1240.7413 5.6944e+02     6.5252     -0.568     -0.824    22.9540 0.0000e+00
     -0.579      0.000     7.7592     90.445      3.699   3.548591     0.0706     -2.138 -1240.6995 8.2546e+02     8.5173     -0.568     -0.824    22.9545 0.0000e+00
     -0.579      0.002     7.7673     90.462      3.957   3.797394     0.1062     -2.131 -1240.2390 1.0273e+03     9.4062     -0.568     -0.824    22.9547 0.0000e+00
     -0.579      0.010     7.7659     90.461      7.107   6.834533     0.4958     -2.054 -1235.1745 1.0758e+03    17.6820     -0.568     -0.824    22.9553 0.0000e+00
     -0.579      0.026     7.7619     90.436     15.527  14.987728     1.2446     -1.217 -1179.4647 1.1072e+03    32.9168     -0.567     -0.822    22.9549 0.0000e+00
     -0.578      0.050     7.7645     90.407     28.061  27.212667     1.6604      0.816  -566.6566 1.1434e+03    41.1553     -0.569     -0.825    22.9559 0.0000e+00
     -0.572      0.076     7.7666     90.394     40.363  39.306100     1.7028      2.960   535.6534 1.1405e+03    41.0148     -0.567     -0.822    22.9546 0.0000e+00
     -0.549      0.096     7.7662     90.405     46.890  45.814988     1.7399      4.331   871.3062 1.1280e+03    31.7640     -0.546     -0.793    22.9592 0.0000e+00
     -0.507      0.108     7.7421     90.446     48.003  47.024657     1.8094      5.107   425.2534 1.1749e+03    14.8404     -0.499     -0.725    23.1022 0.0000e+00
     -0.460      0.110     7.6957     90.506     47.648  46.759257     1.8527      5.558   176.9670 1.2114e+03     5.6868     -0.444     -0.644    23.3958 0.0000e+00
     -0.425      0.101     7.6557     90.574     47.303  46.478721     1.8637      5.822   176.2675 1.1983e+03     4.8823     -0.413     -0.598    23.6642 0.0000e+00
     -0.404      0.081     7.6277     90.654     47.141  46.362600     1.9174      5.969   187.6738 1.1806e+03     4.7032     -0.395     -0.571    23.8602 0.0000e+00
     -0.392      0.057     7.6134     90.749     47.248  46.497991     2.0117      6.053   195.7148 1.1677e+03     4.5115     -0.383     -0.554    23.9910 0.0000e+00
     -0.385      0.036     7.6074     90.845     48.037  47.290473     2.0716      6.112   200.7868 1.1618e+03     4.4780     -0.377     -0.547    24.0701 0.0000e+00
     -0.380      0.021     7.6050     90.922     49.147  48.389666     2.0834      6.154   204.3448 1.1618e+03     4.5706     -0.372     -0.540    24.1283 0.0000e+00
     -0.378      0.014     7.6048     90.963     49.174  48.424104     2.0798      6.182   207.6748 1.1675e+03     4.5386     -0.371     -0.538    24.1718 0.0000e+00
     -0.378      0.010     7.6086     90.969     48.306  47.579838     2.1028      6.200   210.9362 1.1790e+03     4.4321     -0.371     -0.538    24.2063 0.0000e+00
     -0.377      0.008     7.6152     90.957     47.971  47.260458     2.1534      6.215   213.3198 1.1913e+03     4.4105     -0.369     -0.537    24.2221 0.0000e+00
     -0.374      0.008     7.6218     90.935     47.804  47.102162     2.1915      6.228   215.1576 1.2020e+03     4.4817     -0.367     -0.532    24.2222 0.0000e+00
     -0.371      0.008     7.6244     90.895     47.244  46.554664     2.2149      6.239   216.5506 1.2106e+03     4.5767     -0.364     -0.527    24.2298 0.0000e+00
     -0.368      0.008     7.6223     90.855     46.845  46.163796     2.2527      6.248   216.8262 1.2151e+03     4.6022     -0.361     -0.524    24.2444 0.0000e+00
     -0.366      0.007     7.6192     90.852     46.866  46.185202     2.2996      6.257   217.0268 1.2150e+03     4.5517     -0.359     -0.522    24.2542 0.0000e+00
     -0.365      0.006     7.6172     90.852     47.250  46.559549     2.3149      6.266   218.1164 1.2116e+03     4.4774     -0.358     -0.519    24.2614 0.0000e+00
     -0.364      0.004     7.6132     90.836     47.783  47.071464     2.3046      6.274   219.6755 1.2048e+03     4.4212     -0.357     -0.517    24.2652 0.0000e+00
     -0.363      0.003     7.6066     90.833     48.030  47.296014     2.2672      6.282   221.3378 1.1953e+03     4.4527     -0.356     -0.516    24.2668 0.0000e+00
     -0.363      0.003     7.6087     90.844     47.734  46.989095     2.2129      6.291   222.7279 1.1876e+03     4.5522     -0.356     -0.516    24.2692 0.0000e+00
     -0.362      0.002     7.6097     90.849     47.215  46.471226     2.1801      6.300   223.8348 1.1821e+03     4.5649     -0.355     -0.514    24.2679 0.0000e+00
     -0.362      0.002     7.6081     90.835     46.916  46.176672     2.1613      6.309   224.9991 1.1792e+03     4.5037     -0.355     -0.514    24.2529 0.0000e+00
     -0.361      0.002     7.6124     90.811     46.826  46.093953     2.2033      6.316   226.3081 1.1818e+03     4.4956     -0.354     -0.513    24.2283 0.0000e+00
     -0.361      0.003     7.6162     90.804     46.831  46.105900     2.3128      6.321   227.4443 1.1889e+03     4.5350     -0.354     -0.513    24.2105 0.0000e+00
     -0.360      0.003     7.6180     90.805     46.782  46.067215     2.3868      6.327   228.0674 1.1970e+03     4.5699     -0.353     -0.512    24.2040 0.0000e+00
     -0.358      0.004     7.6167     90.802     46.452  45.753180     2.4063      6.334   227.5617 1.2048e+03     4.5409     -0.351     -0.510    24.2053 0.0000e+00
     -0.358      0.006     7.6120     90.815     45.779  45.102095     2.3989      6.336   225.9753 1.2106e+03     4.4927     -0.351     -0.509    24.2118 0.0000e+00
     -0.357      0.011     7.6107     90.841     45.070  44.415955     2.3804      6.327   225.7512 1.2132e+03     4.5002     -0.351     -0.509    24.2200 0.0000e+00
     -0.356      0.017     7.6110     90.870     44.634  43.995326     2.3829      6.315   227.4326 1.2132e+03     4.5282     -0.349     -0.506    24.2297 0.0000e+00
     -0.352      0.024     7.6067     90.958     44.455  43.824884     2.3959      6.310   228.6673 1.2111e+03     4.5587     -0.347     -0.503    24.2411 0.0000e+00
     -0.345      0.032     7.6072     91.195     44.566  43.942032     2.3880      6.312   229.4087 1.2073e+03     4.5614     -0.342     -0.494    24.2551 0.0000e+00
     -0.333      0.040     7.6074     91.557     45.594  44.967437     2.3871      6.311   230.8044 1.2024e+03     4.5949     -0.327     -0.473    24.2706 0.0000e+00
     -0.320      0.046     7.6078     91.951     46.951  46.320091     2.4105      6.307   232.4646 1.1982e+03     4.6904     -0.312     -0.452    24.2812 0.0000e+00
     -0.309      0.048     7.6086     92.362     47.336  46.712197     2.4294      6.307   233.9955 1.1961e+03     4.7250     -0.304     -0.440    24.2855 0.0000e+00
     -0.295      0.048     7.6304     92.763     47.465  46.852054     2.4486      6.313   235.2891 1.1969e+03     4.7408     -0.292     -0.423    24.2908 0.0000e+00
     -0.279      0.044     7.6614     93.138     47.342  46.741515     2.4854      6.323   236.1460 1.1992e+03     4.7103     -0.272     -0.395    24.3070 0.0000e+00
     -0.266      0.039     7.6940     93.967     46.658  46.073949     2.5241      6.333   236.6990 1.2027e+03     4.5604     -0.258     -0.375    24.3230 0.0000e+00
     -0.258      0.034     7.7212     95.182     46.789  46.208019     2.5415      6.343   237.3295 1.2077e+03     4.4662     -0.252     -0.366    24.3334 0.0000e+00
     -0.253      0.029     7.7664     95.712     47.939  47.346802     2.5627      6.353   238.1762 1.2134e+03     4.4933     -0.248     -0.359    24.3497 0.0000e+00
     -0.248      0.024     7.7721     95.558     48.184  47.590420     2.5898      6.361   238.9349 1.2191e+03     4.5466     -0.245     -0.355    24.3628 0.0000e+00
     -0.243      0.020     7.8209     95.329     46.874  46.296608     2.5864      6.367   239.2756 1.2231e+03     4.5638     -0.239     -0.348    24.3691 0.0000e+00
     -0.236      0.018     7.9982     95.045     45.598  45.035038     2.5630      6.373   239.1118 1.2258e+03     4.5307     -0.231     -0.334    24.3741 0.0000e+00
     -0.230      0.016     8.0213     94.664     44.954  44.398541     2.5477      6.380   238.9332 1.2268e+03     4.4885     -0.224     -0.326    24.3779 0.0000e+00
     -0.228      0.015     7.9775     94.240     44.615  44.059821     2.5514      6.385   239.0957 1.2244e+03     4.5660     -0.223     -0.324    24.3786 0.0000e+00
     -0.227      0.014     7.9735     93.822     44.420  43.859510     2.5659      6.392   238.4093 1.2207e+03     4.7157     -0.223     -0.323    24.3779 0.0000e+00
     -0.224      0.014     7.9448     93.402     44.254  43.690400     2.5732      6.398   236.5706 1.2178e+03     4.7269     -0.220     -0.319    24.3761 0.0000e+00
     -0.219      0.016     7.9148     93.145     44.229  43.665445     2.5642      6.401   235.1896 1.2143e+03     4.6674     -0.215     -0.312    24.3786 0.0000e+00
     -0.215      0.021     7.8736     93.196     44.189  43.621248     2.5490      6.402   234.7910 1.2114e+03     4.6795     -0.211     -0.304    24.3746 0.0000e+00
     -0.210      0.025     7.8469     93.363     43.849  43.282943     2.5562      6.399   235.1055 1.2103e+03     4.7372     -0.208     -0.301    24.3594 0.0000e+00
     -0.204      0.029     7.8058     93.455     43.432  42.875618     2.5757      6.391   234.8631 1.2106e+03     4.7842     -0.202     -0.292    24.3554 0.0000e+00
     -0.194      0.031     7.7727     93.430     43.175  42.631613     2.5764      6.381   233.2373 1.2126e+03     4.7695     -0.189     -0.275    24.3597 0.0000e+00
     -0.185      0.034     7.7910     93.374     43.090  42.554197     2.6316      6.377   231.7093 1.2149e+03     4.6278     -0.179     -0.261    24.3532 0.0000e+00
     -0.176      0.035     7.8115     93.478     43.109  42.574311     2.7608      6.379   231.1007 1.2179e+03     4.4718     -0.172     -0.250    24.3433 0.0000e+00
     -0.168      0.033     7.8173     93.760     43.091  42.557458     2.8492      6.383   231.1270 1.2212e+03     4.4887     -0.164     -0.238    24.3511 0.0000e+00
     -0.159      0.030     7.8146     94.159     43.072  42.540841     2.8759      6.389   231.4247 1.2246e+03     4.5926     -0.157     -0.227    24.3663 0.0000e+00
     -0.149      0.025     7.7956     94.365     43.093  42.563809     2.8754      6.395   231.6893 1.2284e+03     4.6003     -0.144     -0.209    24.3743 0.0000e+00
     -0.141      0.021     7.8088     93.647     43.107  42.581286     2.8846      6.403   231.9174 1.2306e+03     4.5140     -0.136     -0.198    24.3748 0.0000e+00
     -0.138      0.017     7.8327     91.681     43.083  42.561749     2.9286      6.412   232.1179 1.2313e+03     4.4375     -0.135     -0.196    24.3751 0.0000e+00
     -0.137      0.013     7.8680     88.936     43.034  42.518002     2.9665      6.419   232.3063 1.2303e+03     4.4609     -0.134     -0.194    24.3771 0.0000e+00
     -0.135      0.012     7.9176     85.951     43.009  42.496642     2.9850      6.426   232.5599 1.2285e+03     4.5584     -0.133     -0.193    24.3795 0.0000e+00
     -0.134      0.012     7.8708     82.986     43.003  42.493905     2.9861      6.433   232.8622 1.2259e+03     4.5564     -0.131     -0.191    24.3843 0.0000e+00
     -0.131      0.013     7.6812     80.194     42.991  42.484919     2.9721      6.440   233.3802 1.2226e+03     4.4716     -0.128     -0.186    24.3891 0.0000e+00
     -0.126      0.015     7.4350     77.779     42.957  42.451457     2.9651      6.447   234.1764 1.2209e+03     4.4547     -0.123     -0.179    24.3943 0.0000e+00
     -0.121      0.017     7.1798     75.949     42.912  42.406670     2.9684      6.452   234.9178 1.2189e+03     4.5235     -0.119     -0.172    24.3989 0.0000e+00
     -0.117      0.017     6.9280     74.799     42.895  42.387691     2.9944      6.457   235.4611 1.2172e+03     4.6198     -0.114     -0.166    24.4031 0.0000e+00
     -0.113      0.016     6.6885     74.277     42.920  42.412392     3.0218      6.462   235.8409 1.2177e+03     4.6623     -0.111     -0.160    24.4058 0.0000e+00
     -0.108      0.014     6.4784     74.163     42.958  42.451451     3.0165      6.468   236.3271 1.2191e+03     4.6619     -0.105     -0.153    24.4067 0.0000e+00
     -0.103      0.012     6.3248     74.273     42.919  42.415662     3.0057      6.474   236.9514 1.2216e+03     4.6486     -0.100     -0.146    24.4058 0.0000e+00
     -0.101      0.011     6.2277     74.522     42.797  42.297014     3.0160      6.479   237.5381 1.2245e+03     4.6045     -0.099     -0.144    24.4032 0.0000e+00
     -0.100      0.011     6.1943     74.780     42.719  42.222819     3.0405      6.485   238.0858 1.2270e+03     4.5390     -0.098     -0.143    24.4024 0.0000e+00
     -0.099      0.012     6.1900     74.863     42.712  42.216745     3.0448      6.491   238.4980 1.2288e+03     4.4707     -0.098     -0.142    24.4040 0.0000e+00
     -0.096      0.013     6.1991     74.646     42.718  42.223580     3.0339      6.497   238.9088 1.2298e+03     4.4278     -0.095     -0.137    24.4071 0.0000e+00
     -0.091      0.016     6.2238     74.172     42.737  42.241987     3.0179      6.502   239.3526 1.2309e+03     4.4992     -0.091     -0.130    24.4105 0.0000e+00
     -0.086      0.019     6.2509     73.586     42.745  42.248898     2.9920      6.506   239.6484 1.2321e+03     4.6847     -0.085     -0.123    24.4131 0.0000e+00
     -0.081      0.021     6.2630     72.993     42.741  42.243672     2.9870      6.511   239.8183 1.2331e+03     4.8266     -0.080     -0.115    24.4147 0.0000e+00
     -0.076      0.021     6.2422     72.468     42.740  42.242266     2.9821      6.516   239.9435 1.2338e+03     4.8482     -0.076     -0.110    24.4156 0.0000e+00
     -0.070      0.021     6.1974     72.173     42.730  42.231898     2.9580      6.520   240.1295 1.2338e+03     4.7745     -0.069     -0.100    24.4154 0.0000e+00
     -0.063      0.020     6.1457     72.343     42.680  42.181778     2.9376      6.522   240.5190 1.2332e+03     4.7218     -0.061     -0.088    24.4138 0.0000e+00
     -0.058      0.018     6.0954     73.040     42.642  42.144020     2.9268      6.521   240.8667 1.2319e+03     4.7570     -0.056     -0.081    24.4116 0.0000e+00
     -0.055      0.014     6.0477     74.091     42.654  42.156190     2.9361      6.518   241.0646 1.2317e+03     4.7903     -0.055     -0.079    24.4104 0.0000e+00
     -0.051      0.009     6.0132     75.311     42.636  42.138514     2.9409      6.511   241.3626 1.2359e+03     4.7497     -0.051     -0.072    24.4106 0.0000e+00
     -0.047      0.005     6.0243     76.512     42.617  42.120712     2.9354      6.501   241.5441 1.2499e+03     4.6073     -0.042     -0.062    24.4117 0.0000e+00
     -0.048      0.003     6.0916     77.447     42.627  42.131362     2.9521      6.493   241.6241 1.2693e+03     4.4692     -0.045     -0.066    24.4112 0.0000e+00
     -0.052      0.004     6.1836     77.937     42.636  42.140335     2.9766      6.487   241.9001 1.2724e+03     4.4803     -0.052     -0.077    24.4094 0.0000e+00
     -0.053      0.006     6.2899     78.041     42.662  42.165736     2.9901      6.482   242.2999 1.2582e+03     4.5706     -0.053     -0.078    24.4103 0.0000e+00
     -0.051      0.009     6.3989     78.065     42.682  42.184608     2.9575      6.478   242.7594 1.2441e+03     4.6391     -0.051     -0.073    24.4116 0.0000e+00
     -0.046      0.013     6.4831     78.328     42.676  42.178105     2.8901      6.477   243.3258 1.2285e+03     4.6585     -0.047     -0.067    24.4121 0.0000e+00
     -0.039      0.016     6.5228     78.856     42.647  42.150581     2.8583      6.477   243.8991 1.2146e+03     4.6347     -0.038     -0.055    24.4128 0.0000e+00
     -0.033      0.017     6.5209     79.349     42.602  42.105695     2.8641      6.479   244.2706 1.2039e+03     4.6586     -0.031     -0.044    24.4119 0.0000e+00
     -0.030      0.017     6.5110     79.509     42.577  42.079673     2.9019      6.482   244.4622 1.1591e+03     4.6411     -0.030     -0.042    24.4105 0.0000e+00
     -0.027      0.016     6.5317     79.297     42.589  42.089820     2.9498      6.484   244.6666 1.0456e+03     4.4902     -0.027     -0.039    24.4109 0.0000e+00
     -0.023      0.015     6.5876     78.797     42.604  42.101442     2.9599      6.486   244.9359 9.1770e+02     4.4060     -0.022     -0.032    24.4124 0.0000e+00
     -0.018      0.015     6.6400     78.079     42.597  42.093248     2.9583      6.488   245.3092 8.5635e+02     4.4424     -0.017     -0.025    24.4126 0.0000e+00
     -0.015      0.016     6.6523     77.215     42.623  42.117680     3.0045      6.490   245.8241 8.4863e+02     4.4864     -0.014     -0.021    24.4105 0.0000e+00
     -0.013      0.017     6.6312     76.255     42.715  42.206440     3.0779      6.490   246.1712 8.4666e+02     4.4940     -0.012     -0.019    24.4077 0.0000e+00
     -0.009      0.018     6.5892     75.268     42.790  42.277868     3.1047      6.490   246.2369 8.4026e+02     4.4656     -0.011     -0.015    24.4046 0.0000e+00
     -0.003      0.020     6.5262     74.327     42.928  42.410091     3.0866      6.493   246.2739 8.4707e+02     4.4515     -0.004     -0.004    24.4024 0.0000e+00
      0.004      0.020     6.4536     73.459     43.188  42.662656     3.0671      6.496   246.3614 8.3151e+02     4.5282      0.005      0.007    24.4014 0.0000e+00
      0.010      0.020     6.3716     72.650     43.388  42.856274     3.0607      6.499   246.5194 8.0100e+02     4.6758      0.009      0.014    24.3996 0.0000e+00
      0.015      0.018     6.2864     71.849     43.511  42.973927     3.0593      6.503   246.8074 8.1580e+02     4.7323      0.015      0.021    24.3961 0.0000e+00
      0.020      0.015     6.2085     71.026     43.611  43.069629     3.0422      6.508   247.0912 8.0875e+02     4.6655      0.021      0.030    24.3915 0.0000e+00
      0.024      0.012     6.1357     70.174     43.669  43.124791     3.0205      6.513   247.1977 7.7039e+02     4.6197      0.024      0.034    24.3872 0.0000e+00
      0.026      0.009     6.0718     69.321     43.614  43.069632     3.0212      6.519   247.2339 7.6435e+02     4.6563      0.026      0.036    24.3819 0.0000e+00
      0.028      0.006     6.0057     68.578     43.261  42.720071     3.0423      6.526   247.3575 7.6525e+02     4.7328      0.027      0.039    24.3768 0.0000e+00
      0.029      0.004     5.9371     68.105     42.735  42.198744     3.0594      6.534   247.5740 7.8511e+02     4.7930      0.028      0.041    24.3736 0.0000e+00
      0.029      0.003     5.8671     68.504     42.441  41.907387     3.0525      6.541   247.7860 8.2811e+02     4.7690      0.029      0.042    24.3717 0.0000e+00
      0.030      0.001     5.7903     70.858     42.393  41.863031     3.0100      6.546   247.7697 8.2390e+02     4.6131      0.029      0.043    24.3701 0.0000e+00
      0.030     -0.004     5.7267     75.341     42.375  41.852844     2.9448      6.549   247.5502 7.9180e+02     4.4459      0.029      0.042    24.3693 0.0000e+00
      0.030     -0.013     5.6767     80.680     42.360  41.847697     2.9133      6.549   247.5402 7.8183e+02     4.4546      0.029      0.043    24.3667 0.0000e+00
      0.030     -0.024     5.6626     85.616     42.366  41.864277     2.9202      6.548   247.7347 7.8460e+02     4.5478      0.031      0.045    24.3623 0.0000e+00
      0.027     -0.035     5.8445     89.643     42.355  41.862917     2.9199      6.546   247.8374 8.0574e+02     4.5480      0.030      0.044    24.3677 0.0000e+00
      0.014     -0.043     6.2767     92.615     42.318  41.831277     2.9096      6.545   247.8351 8.6619e+02     4.4911      0.017      0.025    24.3786 0.0000e+00
     -0.007     -0.047     6.7603     94.455     42.286  41.799064     2.9044      6.545   247.7933 9.4480e+02     4.4745     -0.007     -0.011    24.3884 0.0000e+00
     -0.027     -0.046     7.1798     95.101     42.281  41.790778     2.9067      6.546   247.7623 9.9080e+02     4.5180     -0.029     -0.042    24.4007 0.0000e+00
     -0.040     -0.039     7.5186     94.732     42.287  41.794552     2.9119      6.547   247.8036 9.9329e+02     4.5395     -0.042     -0.061    24.4145 0.0000e+00
     -0.046     -0.031     7.7651     93.797     42.274  41.781224     2.9094      6.547   247.8627 9.7677e+02     4.4955     -0.046     -0.065    24.4228 0.0000e+00
     -0.048     -0.033     7.9255     92.769     42.250  41.756566     2.9023      6.546   248.1331 9.6326e+02     4.4974     -0.048     -0.068    24.4189 0.0000e+00
     -0.049     -0.053     7.9747     91.919     42.244  41.750286     2.8914      6.546   248.8357 9.5533e+02     4.5288     -0.050     -0.072    24.4124 0.0000e+00
     -0.050     -0.086     7.9285     91.266     42.259  41.768759     2.7949      6.546   249.5606 9.4478e+02     4.5328     -0.048     -0.069    24.4118 0.0000e+00
     -0.060     -0.119     7.8362     90.793     42.275  41.789533     2.6177      6.542   249.4982 9.3417e+02     4.5469     -0.047     -0.068    24.4117 0.0000e+00
     -0.102     -0.149     7.7401     90.427     42.292  41.811070     2.5134      6.540   247.3073 9.2646e+02     4.4948     -0.084     -0.122    24.4089 0.0000e+00
     -0.175     -0.176     7.6737     90.097     42.317  41.838755     2.4905      6.545   243.0310 9.2191e+02     4.4488     -0.175     -0.254    24.4083 0.0000e+00
     -0.242     -0.191     7.6163     89.821     42.346  41.870408     2.4741      6.550   241.6744 9.2880e+02     4.4688     -0.252     -0.366    24.4140 0.0000e+00
     -0.282     -0.185     7.5783     89.508     42.350  41.876453     2.3825      6.551   244.1540 9.4527e+02     4.4290     -0.276     -0.401    24.4204 0.0000e+00
     -0.319     -0.158     7.5531     89.053     42.320  41.848368     2.2150      6.551   242.1244 9.6591e+02     4.3440     -0.302     -0.438    24.4245 0.0000e+00
     -0.372     -0.132     7.5179     88.400     42.320  41.848192     2.1127      6.554   236.2357 9.8017e+02     4.2604     -0.371     -0.538    24.4287 0.0000e+00
     -0.412     -0.124     7.5015     87.499     42.410  41.937795     2.0870      6.559   233.1821 9.6564e+02     4.2036     -0.423     -0.614    24.4320 0.0000e+00
     -0.417     -0.126     7.4771     86.326     42.902  42.423997     2.0198      6.566   231.1012 9.3780e+02     3.9650     -0.415     -0.600    24.4351 0.0000e+00
     -0.417     -0.122     7.4405     85.041     44.867  44.362905     1.8915      6.576   228.7993 9.2619e+02     3.4595     -0.388     -0.563    24.4366 0.0000e+00
     -0.458     -0.112     7.3871     84.037     47.512  46.972414     1.8092      6.585   223.7622 9.1345e+02     3.1120     -0.432     -0.628    24.4365 0.0000e+00
     -0.525     -0.102     7.3133     83.586     48.572  48.012274     1.7487      6.591   207.3671 8.8424e+02     2.9747     -0.533     -0.773    24.4377 0.0000e+00
     -0.567     -0.091     7.2136     83.725     48.617  48.048837     1.2188      6.598   179.7600 8.7056e+02     2.3467     -0.569     -0.826    24.4383 0.0000e+00
     -0.576     -0.072     7.0895     84.305     48.753  48.176370     0.2625      6.607   151.4401 8.9024e+02     1.2563     -0.565     -0.818    24.4342 0.0000e+00
     -0.576     -0.042     6.9993     84.948     49.126  48.538453    -0.2502      6.618   132.9662 9.1613e+02     0.8598     -0.566     -0.820    24.4268 0.0000e+00
     -0.576     -0.015     6.9629     85.250     49.855  49.252228    -0.3279      6.631   127.9558 9.3329e+02     2.9837     -0.565     -0.820    24.4189 0.0000e+00
     -0.575     -0.002     6.9780     85.059     46.065  45.504877    -0.8010      6.643   129.1474 9.4280e+02    27.3119     -0.565     -0.818    24.4100 0.0000e+00
     -0.575      0.000     7.0403     84.414     31.601  31.215204    -1.6595      6.654   127.9289 9.4351e+02    72.0511     -0.563     -0.817    24.4023 0.0000e+00
     -0.575      0.000     7.1099     83.419     14.636  14.456508    -2.1101      6.664   124.6660 9.3516e+02    96.3302     -0.564     -0.818    24.3957 0.0000e+00
     -0.575      0.003     7.1389     82.321      7.409   7.317940    -2.0542      6.679   160.5926 9.2037e+02    96.4075     -0.564     -0.817    24.3900 0.0000e+00
     -0.575      0.013     7.1204     81.396      7.828   7.731438    -1.0752      6.701   250.5077 9.0850e+02    73.2591     -0.564     -0.818    24.3853 0.0000e+00
     -0.575      0.028     7.0664     80.743     11.551  11.409238     0.7123      6.707   324.3272 9.1308e+02    30.5570     -0.563     -0.817    24.3807 0.0000e+00
     -0.573      0.045     6.9764     80.393     18.293  18.071913     1.6879      6.689   354.4988 9.3723e+02     7.2969     -0.565     -0.819    24.3764 0.0000e+00
     -0.561      0.062     6.8735     80.350     28.348  28.010737     1.7905      6.663   372.7653 9.5791e+02     5.2468     -0.558     -0.809    24.3736 0.0000e+00
     -0.536      0.078     6.7967     80.548     39.069  38.608368     1.8122      6.640   403.3928 9.4684e+02     5.0521     -0.526     -0.762    24.3715 0.0000e+00
     -0.507      0.090     6.7401     80.849     44.144  43.626333     1.8501      6.626   393.5627 9.1160e+02     4.9082     -0.495     -0.718    24.3754 0.0000e+00
     -0.480      0.097     6.7086     81.127     44.343  43.826339     1.9236      6.620   311.5565 8.1300e+02     4.7358     -0.471     -0.684    24.3873 0.0000e+00
     -0.454      0.098     6.7061     81.406     43.818  43.311690     1.9776      6.621   255.7356 7.3966e+02     4.6759     -0.443     -0.643    24.3971 0.0000e+00
     -0.430      0.093     6.7248     81.681     43.360  42.862503     2.0036      6.626   250.0154 8.2481e+02     4.7314     -0.421     -0.611    24.4029 0.0000e+00
     -0.408      0.086     6.7567     81.868     43.076  42.584434     2.0797      6.631   248.9334 7.7429e+02     4.6892     -0.401     -0.582    24.4076 0.0000e+00
     -0.385      0.077     6.7751     81.991     42.913  42.424950     2.2062      6.635   248.9340 6.3787e+02     4.5071     -0.377     -0.547    24.4121 0.0000e+00
     -0.364      0.067     6.7971     82.108     42.817  42.330548     2.2681      6.640   249.5067 7.7553e+02     4.4084     -0.355     -0.515    24.4172 0.0000e+00
     -0.346      0.059     6.8259     82.253     42.752  42.268141     2.2710      6.642   250.0069 9.4214e+02     4.4523     -0.338     -0.490    24.4210 0.0000e+00
     -0.333      0.056     6.8381     82.460     42.852  42.368557     2.2500      6.637   250.2498 9.6457e+02     4.4916     -0.325     -0.471    24.4232 0.0000e+00
     -0.326      0.061     6.8461     82.643     43.270  42.783026     2.1884      6.622   249.6912 9.6038e+02     4.4739     -0.320     -0.464    24.4251 0.0000e+00
     -0.320      0.073     6.8563     82.736     43.772  43.280778     2.1418      6.601   248.5003 9.5994e+02     4.4772     -0.317     -0.459    24.4267 0.0000e+00
     -0.308      0.088     6.8643     82.856     43.928  43.436050     2.1355      6.591   247.6379 9.7070e+02     4.5317     -0.309     -0.448    24.4275 0.0000e+00
     -0.279      0.104     6.8857     83.106     43.627  43.137083     2.1714      6.596   247.2665 9.8123e+02     4.5858     -0.279     -0.406    24.4296 0.0000e+00
     -0.239      0.116     6.9055     83.443     43.137  42.649171     2.2344      6.603   247.0212 9.8400e+02     4.5854     -0.234     -0.338    24.4310 0.0000e+00
     -0.198      0.124     6.9060     83.768     42.783  42.297101     2.2645      6.608   246.9084 9.5792e+02     4.5259     -0.193     -0.279    24.4323 0.0000e+00
     -0.163      0.130     6.9124     84.056     42.602  42.117231     2.2695      6.608   246.6772 7.9279e+02     4.4815     -0.157     -0.228    24.4355 0.0000e+00
     -0.137      0.136     6.9355     84.331     42.482  41.997637     2.3609      6.610   245.6885 5.1245e+02     4.5616     -0.131     -0.191    24.4338 0.0000e+00
     -0.114      0.145     6.9687     84.617     42.415  41.930064     2.5369      6.613   244.5040 4.2843e+02     4.7082     -0.115     -0.167    24.4276 0.0000e+00
     -0.083      0.155     6.9965     84.964     42.425  41.934897     2.6256      6.617   244.0575 5.4528e+02     4.7514     -0.088     -0.128    24.4245 0.0000e+00
     -0.036      0.158     7.0189     85.337     42.426  41.929125     2.6259      6.624   244.1609 5.8203e+02     4.7415     -0.038     -0.055    24.4247 0.0000e+00
      0.020      0.151     7.0422     85.484     42.363  41.860265     2.6396      6.634   244.1199 5.0757e+02     4.7253      0.021      0.029    24.4250 0.0000e+00
      0.076      0.136     7.0641     85.223     42.310  41.800455     2.7332      6.641   243.9060 4.9624e+02     4.6575      0.078      0.113    24.4235 0.0000e+00
      0.117      0.121     7.0924     84.774     42.295  41.777180     2.9006      6.645   243.9834 6.0726e+02     4.6056      0.128      0.185    24.4179 0.0000e+00
      0.129      0.107     7.1341     84.403     42.295  41.769232     2.9911      6.649   244.1953 6.1941e+02     4.5758      0.135      0.195    24.4094 0.0000e+00
      0.128      0.095     7.1586     84.068     42.299  41.767816     2.9862      6.655   244.5752 6.2550e+02     4.5373      0.118      0.170    24.4017 0.0000e+00
      0.143      0.086     7.1260     83.623     42.296  41.760043     3.0007      6.661   244.7909 7.4105e+02     4.4814      0.131      0.189    24.3920 0.0000e+00
      0.180      0.084     7.0787     83.011     42.281  41.738715     3.0491      6.666   244.3940 6.8678e+02     4.4467      0.178      0.258    24.3809 0.0000e+00
      0.218      0.088     7.0535     82.216     42.247  41.700333     3.0808      6.671   244.4234 5.2280e+02     4.4934      0.220      0.320    24.3723 0.0000e+00
      0.241      0.094     7.0324     81.294     42.226  41.676772     3.0920      6.675   245.5766 4.4433e+02     4.5330      0.242      0.350    24.3668 0.0000e+00
      0.254      0.099     6.9955     80.369     42.261  41.707710     3.0766      6.677   247.1519 4.3227e+02     4.5503      0.249      0.361    24.3606 0.0000e+00
      0.268      0.099     6.9472     79.571     42.314  41.757058     3.0358      6.679   247.6385 4.6010e+02     4.6001      0.258      0.374    24.3525 0.0000e+00
      0.291      0.094     6.8799     79.052     42.324  41.765683     3.0150      6.684   246.6420 4.8641e+02     4.6561      0.283      0.411    24.3469 0.0000e+00
      0.326      0.079     6.7979     78.947     42.309  41.748524     3.0322      6.692   245.5138 4.6973e+02     4.7159      0.315      0.457    24.3430 0.0000e+00
      0.366      0.052     6.7189     79.259     42.303  41.739984     3.1030      6.700   245.1824 4.4093e+02     4.7420      0.361      0.523    24.3399 0.0000e+00
      0.396      0.015     6.6466     79.735     42.289  41.725897     3.1966      6.709   245.3892 4.4859e+02     4.6976      0.404      0.586    24.3364 0.0000e+00
      0.392     -0.026     6.6004     80.051     42.269  41.705131     3.2409      6.716   245.6050 4.8059e+02     4.6582      0.397      0.575    24.3335 0.0000e+00
      0.357     -0.064     6.5888     80.108     42.243  41.679306     3.2385      6.722   245.8122 4.7994e+02     4.7100      0.350      0.508    24.3317 0.0000e+00
      0.317     -0.088     6.6246     79.970     42.233  41.667517     3.1760      6.726   246.0024 4.4207e+02     4.7424      0.306      0.446    24.3287 0.0000e+00
      0.283     -0.088     6.6779     79.664     42.257  41.689537     3.0594      6.731   246.0118 4.2384e+02     4.6407      0.276      0.401    24.3269 0.0000e+00
      0.256     -0.067     6.7051     79.118     42.260  41.691669     2.9856      6.735   246.0114 4.7106e+02     4.5050      0.250      0.362    24.3266 0.0000e+00
      0.238     -0.034     6.7067     78.307     42.260  41.693293     2.9742      6.740   246.6002 5.2435e+02     4.4344      0.224      0.325    24.3262 0.0000e+00
      0.237     -0.002     6.6940     77.414     42.275  41.709175     3.0383      6.745   247.5378 4.8755e+02     4.5029      0.226      0.328    24.3246 0.0000e+00
      0.251      0.025     6.6720     76.651     42.258  41.693298     3.1619      6.750   248.0566 4.3939e+02     4.6850      0.248      0.360    24.3219 0.0000e+00
      0.267      0.045     6.6292     76.013     42.255  41.691721     3.2205      6.754   248.3986 4.4001e+02     4.7571      0.261      0.378    24.3225 0.0000e+00
      0.283      0.055     6.5542     75.365     42.252  41.690109     3.2057      6.756   248.7473 4.5993e+02     4.6913      0.277      0.401    24.3238 0.0000e+00
      0.301      0.055     6.4699     74.625     42.236  41.673811     3.1992      6.756   249.1755 4.8202e+02     4.6752      0.296      0.428    24.3242 0.0000e+00
      0.318      0.048     6.4081     73.825     42.247  41.685074     3.2249      6.756   250.0472 4.7111e+02     4.7337      0.312      0.453    24.3265 0.0000e+00
      0.331      0.039     6.3597     73.095     42.262  41.699344     3.2583      6.757   251.0276 4.5497e+02     4.7834      0.327      0.475    24.3279 0.0000e+00
      0.338      0.029     6.3079     72.501     42.282  41.719417     3.2701      6.760   251.4798 4.6811e+02     4.7635      0.332      0.483    24.3287 0.0000e+00
      0.341      0.019     6.2455     71.969     42.300  41.737364     3.2599      6.764   251.3851 4.7178e+02     4.6992      0.334      0.486    24.3295 0.0000e+00
      0.343      0.011     6.1730     71.424     42.289  41.725940     3.2349      6.768   251.0008 4.6062e+02     4.6547      0.337      0.489    24.3289 0.0000e+00
      0.344      0.005     6.1088     70.843     42.271  41.708230     3.2000      6.775   250.9629 4.6263e+02     4.6007      0.338      0.490    24.3283 0.0000e+00
      0.345      0.002     6.0639     70.242     42.277  41.713634     3.1719      6.782   251.5284 4.8423e+02     4.5588      0.338      0.490    24.3286 0.0000e+00
      0.345      0.001     6.0210     69.685     42.292  41.727819     3.1613      6.789   251.9888 5.1136e+02     4.5240      0.338      0.491    24.3288 0.0000e+00
      0.345      0.000     5.9761     69.216     42.254  41.689325     3.1543      6.795   252.0558 5.1528e+02     4.4535      0.339      0.491    24.3287 0.0000e+00
      0.345 4.8804e-07     5.9276     68.833     42.194  41.629012     3.1467      6.799   251.9932 5.1225e+02     4.4571      0.338      0.490    24.3285 0.0000e+00
      0.345      0.000     5.8746     68.565     42.199  41.633253     3.1434      6.802   252.0925 5.2269e+02     4.5332      0.338      0.490    24.3280 0.0000e+00
      0.344      0.000     5.8263     68.462     42.244  41.677142     3.1391      6.806   252.3962 5.2659e+02     4.5547      0.338      0.490    24.3271 0.0000e+00
      0.344      0.001     5.7884     68.455     42.283  41.715394     3.0949      6.808   252.8259 5.1912e+02     4.5116      0.337      0.489    24.3264 0.0000e+00
      0.345      0.002     5.7557     68.382     42.282  41.714953     3.0079      6.810   253.3296 5.1227e+02     4.4568      0.338      0.490    24.3254 0.0000e+00
      0.345      0.005     5.7301     68.206     42.239  41.671810     2.9704      6.812   253.9269 5.0332e+02     4.4726      0.338      0.491    24.3237 0.0000e+00
      0.346      0.013     5.7237     68.034     42.270  41.701497     2.9819      6.812   254.3689 4.9547e+02     4.5666      0.339      0.491    24.3225 0.0000e+00
      0.348      0.025     5.7305     67.939     42.327  41.756549     2.9977      6.812   254.3717 4.9371e+02     4.6362      0.341      0.494    24.3227 0.0000e+00
      0.350      0.039     5.7254     67.972     42.275  41.702759     3.0200      6.813   254.6492 4.8983e+02     4.5962      0.341      0.495    24.3232 0.0000e+00
      0.360      0.054     5.7052     68.309     42.260  41.685800     3.0264      6.816   255.3156 4.7828e+02     4.4929      0.346      0.502    24.3232 0.0000e+00
      0.381      0.067     5.6892     69.252     42.318  41.741899     3.0330      6.819   255.6319 4.6018e+02     4.4801      0.374      0.544    24.3218 0.0000e+00
      0.406      0.075     5.6818     71.027     42.322  41.746363     3.0425      6.823   255.3761 4.4017e+02     4.5096      0.401      0.581    24.3203 0.0000e+00
      0.429      0.076     5.6797     73.538     42.317  41.739783     3.0822      6.828   254.9755 4.2349e+02     4.5429      0.416      0.604    24.3178 0.0000e+00
      0.454      0.073     5.6977     76.292     42.303  41.725802     3.1637      6.835   255.0906 4.1500e+02     4.6439      0.448      0.650    24.3134 0.0000e+00
      0.473      0.069     5.7686     78.761     42.279  41.704252     3.2051      6.840   255.7355 4.1997e+02     4.7055      0.470      0.681    24.3133 0.0000e+00
      0.482      0.068     5.9177     80.665     42.307  41.733095     3.2157      6.841   256.4065 4.3038e+02     4.7406      0.472      0.684    24.3143 0.0000e+00
      0.491      0.068     6.1469     81.868     42.330  41.757198     3.2347      6.842   256.3190 4.2315e+02     4.7959      0.478      0.693    24.3113 0.0000e+00
      0.507      0.067     6.3951     82.268     42.314  41.741809     3.2422      6.845   255.6244 3.9853e+02     4.7926      0.492      0.713    24.3117 0.0000e+00
      0.532      0.065     6.6074     81.898     42.309  41.737437     3.2316      6.850   255.2353 3.7956e+02     4.7354      0.520      0.755    24.3155 0.0000e+00
      0.559      0.060     6.7691     80.885     42.340  41.767806     3.2147      6.855   255.3141 3.7252e+02     4.6847      0.552      0.802    24.3165 0.0000e+00
      0.577      0.051     6.8746     79.350     42.364  41.791665     3.2210      6.860   255.6310 3.6940e+02     4.6923      0.570      0.826    24.3172 0.0000e+00
      0.585      0.036     6.9066     77.480     42.344  41.772039     3.2498      6.866   255.7112 3.6852e+02     4.7584      0.575      0.835    24.3185 0.0000e+00
      0.587      0.021     6.8697     75.517     42.293  41.720913     3.2709      6.872   255.4237 3.6890e+02     4.8353      0.576      0.836    24.3186 0.0000e+00
      0.587      0.009     6.7840     73.633     42.253  41.681238     3.2688      6.876   255.1667 3.6725e+02     4.8361      0.575      0.834    24.3179 0.0000e+00
      0.587      0.004     6.6495     71.895     42.245  41.673138     3.2407      6.880   255.1842 3.6557e+02     4.7004      0.575      0.835    24.3176 0.0000e+00
      0.587      0.004     6.4848     70.349     42.259  41.686457     3.2222      6.884   255.3775 3.6516e+02     4.5604      0.576      0.836    24.3183 0.0000e+00
      0.587      0.008     6.3147     69.017     42.289  41.715333     3.2282      6.887   255.6967 3.6191e+02     4.5446      0.576      0.835    24.3185 0.0000e+00
      0.588      0.015     6.1573     67.932     42.343  41.768403     3.2301      6.889   256.1190 3.5811e+02     4.5777      0.575      0.835    24.3179 0.0000e+00
      0.591      0.024     6.0094     67.205     42.397  41.820380     3.2456      6.890   256.3536 3.5775e+02     4.6187      0.578      0.839    24.3176 0.0000e+00
      0.598      0.032     5.8799     66.928     42.351  41.772560     3.2826      6.891   256.2960 3.5593e+02     4.6644      0.586      0.849    24.3172 0.0000e+00
      0.609      0.038     5.7689     67.231     42.277  41.697960     3.3113      6.892   256.1108 3.4897e+02     4.6865      0.593      0.861    24.3163 0.0000e+00
      0.624      0.043     5.6731     68.311     42.324  41.743476     3.3254      6.892   256.4377 3.4186e+02     4.7153      0.611      0.886    24.3153 0.0000e+00
      0.639      0.048     5.6102     70.059     42.397  41.815145     3.3208      6.892   257.0654 3.4007e+02     4.7046      0.630      0.915    24.3137 0.0000e+00
      0.648      0.049     5.5859     72.009     42.385  41.802886     3.2808      6.893   257.2468 3.3884e+02     4.5917      0.636      0.923    24.3122 0.0000e+00
      0.657      0.047     5.6009     73.897     42.369  41.785664     3.2246      6.896   257.1682 3.3004e+02     4.4771      0.640      0.929    24.3094 0.0000e+00
      0.672      0.043     5.6923     75.642     42.381  41.797323     3.2066      6.900   257.0617 3.1882e+02     4.4804      0.659      0.956    24.3067 0.0000e+00
      0.687      0.039     5.8612     76.953     42.400  41.816903     3.2212      6.904   257.4216 3.1542e+02     4.5633      0.677      0.982    24.3068 0.0000e+00
      0.697      0.035     6.0302     77.516     42.415  41.832005     3.2521      6.907   258.0782 3.1510e+02     4.6598      0.684      0.992    24.3073 0.0000e+00
      0.704      0.030     6.1849     77.295     42.372  41.789520     3.2968      6.910   258.2027 3.1168e+02     4.7254      0.690      1.000    24.3052 0.0000e+00
      0.710      0.023     6.3430     76.474     42.330  41.747490     3.3205      6.914   257.9808 3.0761e+02     4.7078      0.697      1.010    24.3044 0.0000e+00
      0.716      0.018     6.4648     75.314     42.351  41.768100     3.3385      6.918   257.7187 3.0361e+02     4.6855      0.703      1.019    24.3066 0.0000e+00
      0.719      0.017     6.5108     73.986     42.368  41.784848     3.3569      6.922   257.7012 3.0189e+02     4.7282      0.705      1.023    24.3073 0.0000e+00
      0.720      0.019     6.4869     72.565     42.342  41.759585     3.3517      6.925   258.1988 3.0403e+02     4.7805      0.706      1.024    24.3071 0.0000e+00
      0.723      0.024     6.4088     71.233     42.362  41.779985     3.3337      6.927   258.6589 3.0599e+02     4.7714      0.707      1.025    24.3068 0.0000e+00
      0.728      0.032     6.3060     70.213     42.425  41.841101     3.3225      6.929   258.7908 3.0414e+02     4.7204      0.712      1.033    24.3058 0.0000e+00
      0.737      0.039     6.1964     69.572     42.385  41.800378     3.3324      6.931   258.6745 3.0087e+02     4.7785      0.722      1.046    24.3059 0.0000e+00
      0.749      0.044     6.0707     69.302     42.316  41.731884     3.3446      6.933   258.3720 2.9633e+02     4.9280      0.732      1.061    24.3069 0.0000e+00
      0.766      0.045     5.9502     69.482     42.360  41.774555     3.3454      6.935   258.3158 2.8920e+02     4.9906      0.751      1.089    24.3063 0.0000e+00
      0.783      0.044     5.8644     70.183     42.395  41.808572     3.3420      6.938   258.5116 2.8468e+02     4.9556      0.771      1.117    24.3059 0.0000e+00
      0.793      0.043     5.8129     71.259     42.348  41.762375     3.3460      6.940   258.7606 2.8336e+02     4.8461      0.779      1.130    24.3061 0.0000e+00
      0.798      0.041     5.7875     72.479     42.373  41.787197     3.3765      6.941   259.0036 2.8162e+02     4.7251      0.782      1.134    24.3034 0.0000e+00
      0.805      0.041     5.7975     73.690     42.443  41.854822     3.4032      6.940   259.1257 2.7895e+02     4.7225      0.789      1.145    24.3018 0.0000e+00
      0.814      0.041     5.8626     74.804     42.407  41.818397     3.4025      6.940   259.0332 2.7481e+02     4.7802      0.798      1.157    24.3032 0.0000e+00
      0.826      0.042     5.9608     75.744     42.381  41.791074     3.3921      6.942   258.7447 2.6861e+02     4.7740      0.806      1.169    24.3036 0.0000e+00
      0.842      0.043     6.0661     76.420     42.432  41.841795     3.3942      6.944   258.8215 2.6346e+02     4.7163      0.826      1.198    24.3020 0.0000e+00
      0.856      0.043     6.1715     76.910     42.450  41.860449     3.4205      6.946   259.2733 2.6211e+02     4.7303      0.843      1.222    24.3018 0.0000e+00
      0.864      0.040     6.2637     77.315     42.414  41.826212     3.4435      6.949   259.4754 2.6083e+02     4.8073      0.846      1.228    24.3017 0.0000e+00
      0.871      0.034     6.3501     77.487     42.396  41.808646     3.4555      6.951   259.0282 2.5677e+02     4.7932      0.853      1.237    24.2985 0.0000e+00
      0.881      0.029     6.4027     77.233     42.426  41.838465     3.4572      6.953   258.3399 2.5207e+02     4.7306      0.866      1.256    24.2974 0.0000e+00
      0.890      0.026     6.4357     76.516     42.457  41.869408     3.4470      6.954   258.3806 2.4954e+02     4.7001      0.876      1.270    24.2999 0.0000e+00
      0.895      0.023     6.4784     75.451     42.452  41.865434     3.4494      6.956   258.9176 2.4936e+02     4.6969      0.878      1.274    24.3018 0.0000e+00
      0.898      0.020     6.4984     74.181     42.440  41.853892     3.4607      6.959   259.1544 2.4936e+02     4.7609      0.879      1.275    24.3022 0.0000e+00
      0.903      0.016     6.4790     72.801     42.444  41.856796     3.4752      6.962   258.8348 2.4715e+02     4.8586      0.885      1.284    24.3019 0.0000e+00
      0.909      0.015     6.4140     71.372     42.425  41.837071     3.4925      6.965   258.3237 2.4433e+02     4.8533      0.893      1.295    24.3025 0.0000e+00
      0.912      0.016     6.3202     69.994     42.394  41.805805     3.4955      6.968   258.1369 2.4313e+02     4.7645      0.896      1.299    24.3035 0.0000e+00
      0.913      0.017     6.2113     68.801     42.384  41.796090     3.4944      6.970   258.2969 2.4230e+02     4.7762      0.896      1.299    24.3034 0.0000e+00
      0.916      0.021     6.0945     67.831     42.371  41.783083     3.5043      6.971   258.7093 2.4094e+02     4.8584      0.897      1.300    24.3025 0.0000e+00
      0.921      0.026     5.9727     67.006     42.363  41.775478     3.5150      6.972   258.8214 2.3976e+02     4.8697      0.902      1.309    24.3020 0.0000e+00
      0.929      0.031     5.8517     66.271     42.355  41.767604     3.5070      6.974   258.3617 2.3808e+02     4.8102      0.910      1.320    24.3017 0.0000e+00
      0.939      0.034     5.7506     65.626     42.338  41.751340     3.4906      6.977   258.0547 2.3332e+02     4.7544      0.919      1.332    24.3008 0.0000e+00
      0.952      0.035     5.6734     65.045     42.357  41.769244     3.5250      6.980   258.2076 2.2720e+02     4.7764      0.933      1.354    24.3006 0.0000e+00
      0.964      0.034     5.6066     64.500     42.382  41.793674     3.5983      6.982   258.3174 2.2336e+02     4.8368      0.947      1.374    24.3008 0.0000e+00
      0.971      0.032     5.5430     63.983     42.382  41.792851     3.6361      6.983   258.3495 2.2154e+02     4.8352      0.953      1.383    24.3007 0.0000e+00
      0.976      0.030     5.4914     63.530     42.413  41.822754     3.6334      6.986   258.5092 2.2015e+02     4.7564      0.956      1.386    24.3004 0.0000e+00
      0.982      0.029     5.4431     63.224     42.428  41.837884     3.6155      6.988   258.6134 2.1869e+02     4.6702      0.962      1.396    24.3002 0.0000e+00
      0.988      0.030     5.3977     63.082     42.375  41.785387     3.6359      6.990   258.5774 2.1748e+02     4.6815      0.969      1.406    24.2999 0.0000e+00
      0.996      0.034     5.3545     63.108     42.350  41.759231     3.7044      6.991   258.5049 2.1681e+02     4.7563      0.976      1.416    24.2997 0.0000e+00
      1.005      0.038     5.3120     63.398     42.367  41.775504     3.7455      6.992   258.9410 2.1584e+02     4.7890      0.985      1.429    24.2990 0.0000e+00
      1.016      0.039     5.2869     64.086     42.382  41.791734     3.7497      6.993   259.6345 2.1393e+02     4.7690      0.996      1.443    24.2983 0.0000e+00
      1.028      0.039     5.2762     65.172     42.355  41.765062     3.7968      6.994   259.8337 2.1192e+02     4.7875      1.009      1.462    24.2983 0.0000e+00
      1.040      0.037     5.2752     66.490     42.296  41.706882     3.8992      6.996   259.6288 2.1007e+02     4.9104      1.020      1.481    24.2970 0.0000e+00
      1.051      0.033     5.2938     67.812     42.312  41.722962     3.9642      6.999   259.3090 2.0873e+02     5.0256      1.031      1.496    24.2964 0.0000e+00
      1.058      0.029     5.3511     68.937     42.359  41.769083     3.9830      7.003   259.4949 2.0806e+02     5.0533      1.038      1.506    24.2974 0.0000e+00
      1.062      0.027     5.4479     69.711     42.347  41.756791     4.0184      7.005   260.1550 2.0697e+02     5.0064      1.042      1.511    24.2983 0.0000e+00
      1.067      0.026     5.5656     70.098     42.355  41.764749     4.0598      7.006   260.4933 2.0551e+02     4.9360      1.046      1.517    24.2985 0.0000e+00
      1.073      0.027     5.6817     70.213     42.394  41.801824     4.0833      7.008   260.4875 2.0389e+02     4.9536      1.051      1.524    24.2977 0.0000e+00
      1.079      0.030     5.7808     70.107     42.353  41.760785     4.1038      7.010   260.2578 2.0238e+02     5.0490      1.058      1.535    24.2969 0.0000e+00
      1.088      0.033     5.8483     69.779     42.305  41.712825     4.1905      7.010   260.1249 2.0125e+02     5.0987      1.066      1.546    24.2973 0.0000e+00
      1.098      0.035     5.8740     69.422     42.324  41.729683     4.3401      7.010   260.5145 1.9974e+02     5.0427      1.076      1.560    24.2965 0.0000e+00
      1.109      0.038     5.8821     69.232     42.306  41.710744     4.4227      7.010   260.9253 1.9828e+02     4.9175      1.088      1.579    24.2953 0.0000e+00
      1.118      0.041     5.8777     69.178     42.271  41.674239     4.4485      7.010   261.0478 1.9685e+02     4.8840      1.097      1.590    24.2963 0.0000e+00
      1.126      0.044     5.8416     69.132     42.267  41.669099     4.5694      7.010   261.0486 1.9438e+02     4.9790      1.103      1.599    24.2952 0.0000e+00
      1.136      0.045     5.8036     68.961     42.246  41.648604     4.7687      7.010   260.9349 1.9114e+02     5.0407      1.112      1.614    24.2916 0.0000e+00
      1.150      0.044     5.7917     68.595     42.215  41.616825     4.8694      7.011   260.8788 1.8779e+02     5.0156      1.127      1.635    24.2898 0.0000e+00
      1.165      0.042     5.7909     68.126     42.203  41.602209     4.8716      7.013   260.9722 1.8494e+02     4.9486      1.145      1.660    24.2887 0.0000e+00
      1.179      0.038     5.7915     67.771     42.204  41.598807     4.9283      7.015   261.1180 1.8309e+02     4.9466      1.158      1.679    24.2873 0.0000e+00
      1.188      0.031     5.7805     67.665     42.186  41.575686     5.0476      7.017   261.2649 1.8248e+02     5.0266      1.167      1.692    24.2869 0.0000e+00
      1.193      0.023     5.7469     67.783     42.192  41.576526     5.1156      7.020   260.9423 1.8215e+02     5.0621      1.171      1.698    24.2866 0.0000e+00
      1.196      0.016     5.6995     68.070     42.230  41.608951     5.1176      7.023   260.2279 1.8132e+02     5.0339      1.173      1.702    24.2844 0.0000e+00
      1.198      0.012     5.6655     68.443     42.213  41.586912     5.1052      7.024   260.1129 1.8086e+02     4.9589      1.175      1.705    24.2778 0.0000e+00
      1.199      0.013     5.6607     68.837     42.195  41.563918     5.0985      7.024   260.6703 1.8066e+02     4.9758      1.176      1.706    24.2708 0.0000e+00
      1.201      0.018     5.6718     69.335     42.221  41.584802     5.1038      7.023   261.2028 1.8025e+02     5.1696      1.178      1.708    24.2655 0.0000e+00
      1.203      0.025     5.6982     69.948     42.226  41.585539     5.1189      7.023   260.9591 1.7920e+02     5.2866      1.179      1.709    24.2579 0.0000e+00
      1.209      0.034     5.7360     70.577     42.220  41.572818     5.1225      7.022   260.1323 1.7655e+02     5.2296      1.182      1.714    24.2512 0.0000e+00
      1.222      0.040     5.7629     71.306     42.214  41.557920     5.1309      7.022   259.8097 1.7325e+02     5.1634      1.198      1.737    24.2475 0.0000e+00
      1.237      0.045     5.8037     72.260     42.198  41.532326     5.1788      7.022   260.1565 1.7065e+02     5.1689      1.214      1.761    24.2420 0.0000e+00
      1.251      0.046     5.8644     73.342     42.191  41.517211     5.2195      7.023   260.7115 1.6833e+02     5.2278      1.227      1.778    24.2356 0.0000e+00
      1.265      0.044     5.9124     74.381     42.185  41.502094     5.2310      7.024   260.7549 1.6638e+02     5.2949      1.242      1.801    24.2299 0.0000e+00
      1.275      0.039     5.9677     75.189     42.170  41.476470     5.2346      7.025   260.1656 1.6505e+02     5.2979      1.251      1.816    24.2172 0.0000e+00
      1.283      0.035     6.0553     75.607     42.169  41.461251     5.2388      7.028   259.7806 1.6387e+02     5.2286      1.257      1.823    24.2043 0.0000e+00
      1.289      0.033     6.1519     75.740     42.174  41.444992     5.2568      7.032   259.7998 1.6255e+02     5.2088      1.265      1.835    24.1963 0.0000e+00
      1.296      0.033     6.2441     75.716     42.160  41.406780     5.2768      7.033   259.9680 1.6114e+02     5.2643      1.272      1.843    24.1839 0.0000e+00
      1.304      0.035     6.3233     75.471     42.158  41.380003     5.2478      7.033   260.2659 1.5977e+02     5.2500      1.278      1.853    24.1722 0.0000e+00
      1.313      0.040     6.3534     75.060     42.178  41.375066     5.1728      7.033   260.5615 1.5826e+02     5.1725      1.286      1.867    24.1586 0.0000e+00
      1.323      0.043     6.3596     74.605     42.175  41.347050     5.1352      7.035   260.5305 1.5644e+02     5.1467      1.297      1.881    24.1321 0.0000e+00
      1.335      0.044     6.3704     74.163     42.148  41.295096     5.1513      7.036   260.2355 1.5396e+02     5.1777      1.310      1.898    24.1007 0.0000e+00
      1.350      0.043     6.3489     73.874     42.129  41.254590     5.1596      7.037   260.0925 1.5145e+02     5.2406      1.324      1.920    24.0719 0.0000e+00
      1.364      0.041     6.3115     73.782     42.128  41.238055     5.1360      7.039   260.0922 1.4971e+02     5.2577      1.339      1.942    24.0437 0.0000e+00
      1.374      0.036     6.2801     73.798     42.123  41.222083     5.1073      7.041   260.4036 1.4856e+02     5.1788      1.349      1.956    24.0135 0.0000e+00
      1.381      0.032     6.2383     73.919     42.102  41.188391     5.0870      7.043   261.0185 1.4758e+02     5.1073      1.354      1.964    23.9794 0.0000e+00
      1.386      0.028     6.2153     74.088     42.078  41.147999     5.0738      7.045   261.2463 1.4672e+02     5.1107      1.359      1.971    23.9524 0.0000e+00
      1.391      0.026     6.2169     74.239     42.064  41.114484     5.0558      7.048   261.0067 1.4573e+02     5.1514      1.364      1.978    23.9371 0.0000e+00
      1.398      0.024     6.2155     74.464     42.067  41.100467     5.0112      7.049   260.7024 1.4454e+02     5.1890      1.371      1.988    23.9244 0.0000e+00
      1.406      0.023     6.2297     74.771     42.086  41.105426     4.9748      7.051   260.9221 1.4362e+02     5.1896      1.380      2.000    23.9111 0.0000e+00
      1.412      0.021     6.2523     75.093     42.107  41.110953     4.9816      7.054   261.5990 1.4278e+02     5.1587      1.385      2.009    23.8904 0.0000e+00
      1.417      0.020     6.2601     75.415     42.117  41.103813     5.0358      7.057   261.8309 1.4195e+02     5.2262      1.390      2.015    23.8632 0.0000e+00
      1.421      0.020     6.2830     75.702     42.113  41.082528     5.1218      7.059   261.4893 1.4121e+02     5.4240      1.394      2.022    23.8434 0.0000e+00
      1.424      0.021     6.3141     75.966     42.090  41.043974     5.1646      7.059   261.0828 1.4039e+02     5.5014      1.397      2.026    23.8305 0.0000e+00
      1.429      0.024     6.3416     76.362     42.078  41.018433     5.1618      7.059   261.2168 1.3943e+02     5.4095      1.400      2.031    23.8124 0.0000e+00
      1.434      0.028     6.3736     76.977     42.097  41.027557     5.2123      7.059   261.8194 1.3820e+02     5.2695      1.406      2.039    23.7914 0.0000e+00
      1.442      0.032     6.4016     77.692     42.101  41.027349     5.3183      7.060   262.0881 1.3641e+02     5.1072      1.413      2.049    23.7708 0.0000e+00
      1.453      0.036     6.4197     78.400     42.087  41.015905     5.3872      7.061   261.9709 1.3441e+02     5.0192      1.424      2.066    23.7509 0.0000e+00
      1.465      0.037     6.4496     79.026     42.076  41.016122     5.3962      7.062   261.9500 1.3305e+02     4.9900      1.438      2.086    23.7333 0.0000e+00
      1.475      0.037     6.5116     79.499     42.075  41.029994     5.4263      7.062   262.0085 1.3231e+02     4.9930      1.447      2.099    23.7227 0.0000e+00
      1.483      0.034     6.5740     79.867     42.087  41.056723     5.5185      7.064   262.0754 1.3146e+02     5.0906      1.453      2.107    23.7173 0.0000e+00
      1.493      0.029     6.6354     80.204     42.101  41.085458     5.5952      7.065   262.2432 1.3041e+02     5.2135      1.464      2.122    23.7169 0.0000e+00
      1.502      0.024     6.6912     80.489     42.123  41.123585     5.6289      7.066   262.3158 1.2975e+02     5.2825      1.475      2.138    23.7325 0.0000e+00
      1.507      0.019     6.7252     80.704     42.121  41.136942     5.6774      7.069   262.1790 1.2970e+02     5.2765      1.479      2.145    23.7534 0.0000e+00
      1.510      0.015     6.7508     80.858     42.095  41.120042     5.7398      7.071   261.8800 1.2981e+02     5.2088      1.480      2.147    23.7713 0.0000e+00
      1.511      0.011     6.7790     80.918     42.085  41.109669     5.7677      7.072   261.5404 1.2965e+02     5.1817      1.482      2.149    23.7874 0.0000e+00
      1.513      0.009     6.8023     80.874     42.061  41.074979     5.7731      7.074   261.4275 1.2937e+02     5.2226      1.484      2.153    23.8064 0.0000e+00
      1.515      0.010     6.8148     80.742     42.016  41.017916     5.7805      7.076   261.5480 1.2927e+02     5.2250      1.486      2.156    23.8288 0.0000e+00
      1.517      0.013     6.8292     80.496     41.999  40.990900     5.7908      7.078   261.7932 1.2918e+02     5.1760      1.487      2.157    23.8424 0.0000e+00
      1.519      0.018     6.8344     80.116     42.018  41.002178     5.8133      7.080   261.7242 1.2876e+02     5.1429      1.489      2.160    23.8401 0.0000e+00
      1.524      0.024     6.8312     79.671     42.045  41.027339     5.8280      7.081   261.2297 1.2796e+02     5.1323      1.494      2.167    23.8232 0.0000e+00
      1.531      0.031     6.8241     79.275     42.056  41.041257     5.8440      7.081   261.0637 1.2674e+02     5.1839      1.500      2.176    23.8053 0.0000e+00
      1.541      0.037     6.8062     78.980     42.056  41.043533     5.9240      7.081   261.3520 1.2514e+02     5.3236      1.510      2.190    23.7920 0.0000e+00
      1.552      0.042     6.7732     78.770     42.075  41.054853     6.0294      7.081   261.7033 1.2350e+02     5.4205      1.522      2.208    23.7839 0.0000e+00
      1.565      0.045     6.7306     78.630     42.089  41.051185     6.0616      7.082   261.6979 1.2185e+02     5.3992      1.535      2.225    23.7818 0.0000e+00
      1.578      0.045     6.6959     78.635     42.061  40.999158     6.0552      7.083   261.2867 1.2015e+02     5.3730      1.548      2.245    23.7882 0.0000e+00
      1.590      0.044     6.6699     78.796     42.022  40.933484     6.1101      7.084   261.0330 1.1865e+02     5.3434      1.560      2.263    23.7946 0.0000e+00
      1.600      0.043     6.6562     79.009     42.006  40.891747     6.2172      7.085   261.1254 1.1738e+02     5.3138      1.570      2.277    23.7848 0.0000e+00
      1.610      0.040     6.6426     79.279     42.014  40.875272     6.2595      7.085   261.2861 1.1608e+02     5.3230      1.578      2.290    23.7648 0.0000e+00
      1.620      0.037     6.6445     79.628     42.019  40.861179     6.2304      7.085   261.4275 1.1466e+02     5.2496      1.588      2.304    23.7335 0.0000e+00
      1.630      0.035     6.6709     79.993     42.022  40.848257     6.2568      7.087   261.6297 1.1325e+02     5.2125      1.598      2.319    23.6973 0.0000e+00
      1.640      0.034     6.6896     80.322     42.031  40.845937     6.3538      7.088   261.7518 1.1204e+02     5.3524      1.609      2.333    23.6675 0.0000e+00
      1.648      0.033     6.7144     80.566     42.026  40.833120     6.4208      7.089   261.6133 1.1114e+02     5.5060      1.617      2.345    23.6383 0.0000e+00
      1.654      0.032     6.7512     80.678     42.019  40.820198     6.4264      7.089   261.4177 1.1027e+02     5.5329      1.621      2.352    23.6139 0.0000e+00
      1.661      0.032     6.7844     80.649     42.024  40.816626     6.4216      7.089   261.4520 1.0907e+02     5.4731      1.628      2.361    23.5970 0.0000e+00
      1.670      0.034     6.8162     80.527     42.010  40.789917     6.4379      7.089   261.6845 1.0768e+02     5.4313      1.638      2.375    23.5823 0.0000e+00
      1.679      0.037     6.8396     80.383     41.988  40.751098     6.4574      7.089   261.9062 1.0646e+02     5.4376      1.648      2.390    23.5740 0.0000e+00
      1.688      0.042     6.8500     80.239     41.981  40.728036     6.4734      7.090   262.0670 1.0534e+02     5.4806      1.656      2.401    23.5701 0.0000e+00
      1.697      0.046     6.8472     80.081     41.970  40.701444     6.4902      7.090   262.1656 1.0395e+02     5.4736      1.663      2.411    23.5606 0.0000e+00
      1.710      0.049     6.8359     79.886     41.967  40.683413     6.5522      7.089   262.1517 1.0218e+02     5.4549      1.675      2.429    23.5431 0.0000e+00
      1.725      0.050     6.8264     79.596     42.000  40.700398     6.6732      7.088   262.2442 1.0029e+02     5.4935      1.692      2.454    23.5217 0.0000e+00
      1.741      0.050     6.8177     79.200     42.032  40.716392     6.7552      7.089   262.4236 9.8732e+01     5.4957      1.708      2.478    23.5015 0.0000e+00
      1.754      0.047     6.8066     78.813     42.014  40.686383     6.7779      7.089   262.5136 9.7470e+01     5.4819      1.721      2.496    23.4825 0.0000e+00
      1.766      0.041     6.7945     78.546     41.994  40.654859     6.8234      7.090   262.5576 9.6291e+01     5.4632      1.733      2.512    23.4645 0.0000e+00
      1.776      0.034     6.7742     78.391     42.003  40.652554     6.9058      7.092   262.6111 9.5457e+01     5.4406      1.743      2.528    23.4472 0.0000e+00
      1.783      0.028     6.7372     78.290     42.019  40.658494     6.9581      7.093   262.7310 9.4977e+01     5.4474      1.750      2.538    23.4290 0.0000e+00
      1.788      0.023     6.7020     78.223     42.032  40.663202     6.9818      7.094   262.8028 9.4479e+01     5.4434      1.753      2.543    23.4134 0.0000e+00
      1.793      0.019     6.6825     78.206     42.022  40.645992     7.0171      7.096   262.7045 9.3914e+01     5.4260      1.757      2.549    23.3996 0.0000e+00
      1.798      0.017     6.6732     78.215     42.022  40.640800     7.0436      7.098   262.5760 9.3486e+01     5.4090      1.763      2.557    23.3862 0.0000e+00
      1.802      0.017     6.6666     78.117     42.051  40.663877     7.0442      7.099   262.5388 9.3187e+01     5.4084      1.767      2.562    23.3752 0.0000e+00
      1.804      0.020     6.6611     77.833     42.064  40.671159     7.0415      7.101   262.5988 9.2880e+01     5.4185      1.769      2.566    23.3653 0.0000e+00
      1.807      0.026     6.6605     77.518     42.060  40.665367     7.1190      7.102   262.6998 9.2432e+01     5.4294      1.771      2.569    23.3571 0.0000e+00
      1.812      0.032     6.6668     77.299     42.049  40.657302     7.2653      7.102   262.7273 9.1562e+01     5.4370      1.775      2.574    23.3501 0.0000e+00
      1.821      0.040     6.6654     77.109     42.027  40.637117     7.3286      7.102   262.7591 9.0310e+01     5.4075      1.785      2.588    23.3449 0.0000e+00
      1.834      0.049     6.6332     76.870     42.010  40.611715     7.3187      7.102   262.8258 8.8904e+01     5.3805      1.799      2.608    23.3376 0.0000e+00
      1.849      0.057     6.6014     76.629     42.020  40.604008     7.3872      7.102   262.9320 8.7323e+01     5.4527      1.813      2.628    23.3320 0.0000e+00
      1.865      0.062     6.5870     76.520     42.044  40.607373     7.5323      7.100   263.2689 8.5545e+01     5.5969      1.829      2.652    23.3408 0.0000e+00
      1.883      0.066     6.5723     76.620     42.045  40.588913     7.6172      7.097   263.7157 8.3752e+01     5.6891      1.847      2.679    23.3468 0.0000e+00
      1.900      0.068     6.5529     76.853     42.046  40.571172     7.6226      7.093   263.9465 8.2104e+01     5.6795      1.865      2.705    23.3334 0.0000e+00
      1.917      0.068     6.5290     77.089     42.078  40.583222     7.6222      7.088   263.9945 8.0428e+01     5.6518      1.880      2.728    23.3106 0.0000e+00
      1.936      0.066     6.5199     77.279     42.127  40.607653     7.6712      7.085   264.0374 7.8603e+01     5.6963      1.897      2.752    23.2860 0.0000e+00
      1.956      0.061     6.5344     77.411     42.161  40.612678     7.7563      7.084   264.1216 7.6835e+01     5.7384      1.918      2.782    23.2621 0.0000e+00
      1.973      0.056     6.5627     77.471     42.157  40.580477     7.8025      7.084   264.2374 7.5536e+01     5.7173      1.938      2.810    23.2409 0.0000e+00
      1.985      0.050     6.5856     77.422     42.137  40.535598     7.7970      7.084   264.3190 7.4815e+01     5.6798      1.949      2.826    23.2205 0.0000e+00
      1.994      0.044     6.6055     77.194     42.139  40.514265     7.7481      7.084   264.3342 7.4062e+01     5.6942      1.954      2.834    23.1930 0.0000e+00
      2.004      0.037     6.6216     76.759     42.161  40.512896     7.6945      7.086   264.3356 7.3076e+01     5.7553      1.964      2.850    23.1586 0.0000e+00
      2.014      0.031     6.6312     76.153     42.189  40.519017     7.6890      7.089   264.4218 7.2365e+01     5.7698      1.976      2.866    23.1234 0.0000e+00
      2.022      0.027     6.6348     75.420     42.214  40.524774     7.6989      7.092   264.6015 7.1947e+01     5.7660      1.983      2.876    23.0926 0.0000e+00
      2.027      0.025     6.6189     74.571     42.225  40.519010     7.6890      7.094   264.7018 7.1583e+01     5.7438      1.988      2.883    23.0662 0.0000e+00
      2.031      0.024     6.5836     73.602     42.230  40.512769     7.6779      7.095   264.6878 7.1221e+01     5.6721      1.992      2.888    23.0395 0.0000e+00
      2.035      0.024     6.5329     72.517     42.235  40.512761     7.6809      7.097   264.6900 7.0871e+01     5.6848      1.995      2.894    23.0153 0.0000e+00
      2.040      0.025     6.4729     71.372     42.241  40.518908     7.6929      7.098   264.6425 7.0465e+01     5.7608      2.000      2.901    22.9937 0.0000e+00
      2.047      0.027     6.4025     70.232     42.249  40.523633     7.7807      7.099   264.5442 6.9795e+01     5.7378      2.006      2.909    22.9710 0.0000e+00
      2.056      0.028     6.3219     69.127     42.246  40.506427     7.9347      7.101   264.6197 6.8977e+01     5.6455      2.016      2.924    22.9587 0.0000e+00
      2.065      0.029     6.2266     68.104     42.262  40.501239     8.0076      7.104   264.8669 6.8340e+01     5.6010      2.027      2.940    22.9546 0.0000e+00
      2.073      0.029     6.1259     67.236     42.306  40.524330     8.0123      7.106   265.0379 6.7898e+01     5.6442      2.033      2.949    22.9560 0.0000e+00
      2.079      0.028     6.0273     66.556     42.326  40.531736     8.0172      7.107   264.9664 6.7430e+01     5.7238      2.038      2.955    22.9600 0.0000e+00
      2.085      0.027     5.9334     66.068     42.325  40.527307     8.0078      7.109   264.7770 6.6908e+01     5.7437      2.045      2.966    22.9391 0.0000e+00
      2.093      0.026     5.8465     65.816     42.321  40.534232     7.9820      7.111   264.8125 6.6358e+01     5.6797      2.052      2.976    22.9074 0.0000e+00
      2.100      0.025     5.7728     65.775     42.316  40.552019     7.9462      7.112   265.0524 6.5765e+01     5.6334      2.059      2.987    22.8857 0.0000e+00
      2.107      0.024     5.7180     65.772     42.286  40.552006     7.9328      7.114   265.1821 6.5276e+01     5.7308      2.067      2.998    22.8711 0.0000e+00
      2.112      0.023     5.6728     65.621     42.241  40.534116     7.9537      7.116   265.0896 6.4912e+01     5.9001      2.072      3.005    22.8652 0.0000e+00
      2.118      0.023     5.6509     65.335     42.216  40.526146     7.9740      7.117   264.9665 6.4611e+01     5.9721      2.077      3.012    22.8762 0.0000e+00
      2.123      0.024     5.6492     65.039     42.203  40.519127     7.9706      7.117   265.0704 6.4253e+01     5.9531      2.081      3.018    22.9084 0.0000e+00
      2.128      0.026     5.6535     64.793     42.205  40.512726     7.9545      7.116   265.2272 6.3745e+01     5.9091      2.086      3.025    22.9470 0.0000e+00
      2.134      0.028     5.6359     64.680     42.215  40.512196     7.9534      7.116   265.3141 6.3231e+01     5.8504      2.093      3.035    22.9774 0.0000e+00
      2.142      0.030     5.6019     64.763     42.220  40.512716     7.9662      7.117   265.5192 6.2591e+01     5.7558      2.100      3.045    22.9970 0.0000e+00
      2.151      0.031     5.5775     65.035     42.228  40.519007     7.9752      7.119   265.7286 6.1788e+01     5.6881      2.110      3.059    23.0080 0.0000e+00
      2.161      0.031     5.5533     65.420     42.233  40.524787     7.9715      7.120   265.6949 6.1180e+01     5.6802      2.121      3.075    22.9920 0.0000e+00
      2.169      0.032     5.5442     65.784     42.228  40.519136     7.9463      7.123   265.6279 6.0777e+01     5.6944      2.127      3.085    22.9718 0.0000e+00
      2.175      0.033     5.5516     66.029     42.230  40.514144     7.9203      7.124   265.7783 6.0342e+01     5.7576      2.132      3.092    22.9730 0.0000e+00
      2.182      0.035     5.5765     66.115     42.255  40.527888     7.9150      7.123   265.9645 5.9827e+01     5.7610      2.140      3.103    22.9711 0.0000e+00
      2.191      0.035     5.6156     66.047     42.302  40.558363     7.9157      7.122   266.1584 5.9144e+01     5.7005      2.147      3.115    22.9717 0.0000e+00
      2.201      0.034     5.6486     65.865     42.335  40.565277     7.8954      7.122   266.4020 5.8222e+01     5.6758      2.157      3.128    22.9743 0.0000e+00
      2.213      0.031     5.6719     65.655     42.353  40.547990     7.8611      7.122   266.5865 5.7404e+01     5.6673      2.171      3.149    22.9650 0.0000e+00
      2.223      0.027     5.6807     65.519     42.376  40.539683     7.8510      7.122   266.6684 5.7020e+01     5.7007      2.183      3.166    22.9502 0.0000e+00
      2.228      0.025     5.6748     65.475     42.385  40.528261     7.8643      7.122   266.7034 5.6904e+01     5.7042      2.186      3.170    22.9401 0.0000e+00
      2.230      0.024     5.6600     65.490     42.418  40.536798     7.8974      7.122   267.0096 5.6839e+01     5.6403      2.186      3.171    22.9106 0.0000e+00
      2.232      0.027     5.6427     65.535     42.503  40.579399     7.9424      7.121   267.5311 5.6597e+01     5.6117      2.188      3.174    22.8605 0.0000e+00
      2.237      0.033     5.6354     65.514     42.574  40.599036     7.9595      7.118   267.8471 5.5923e+01     5.6660      2.193      3.180    22.8216 0.0000e+00
      2.247      0.038     5.6355     65.310     42.602  40.583769     7.9621      7.115   267.9917 5.5024e+01     5.7492      2.203      3.195    22.8047 0.0000e+00
      2.260      0.043     5.6376     64.898     42.639  40.585146     7.9987      7.114   268.0745 5.3969e+01     5.7302      2.215      3.213    22.7887 0.0000e+00
      2.277      0.045     5.6507     64.297     42.700  40.615635     8.0616      7.113   268.2461 5.2874e+01     5.6411      2.233      3.238    22.7358 0.0000e+00
      2.292      0.045     5.6609     63.506     42.744  40.635045     8.0902      7.111   268.6905 5.2247e+01     5.6282      2.251      3.264    22.6708 0.0000e+00
      2.301      0.043     5.6480     62.426     42.758  40.629397     8.0786      7.111   269.0594 5.1879e+01     5.6763      2.257      3.273    22.6232 0.0000e+00
      2.308      0.040     5.6161     60.924     42.752  40.610788     8.0787      7.111   269.0071 5.1315e+01     5.6771      2.261      3.280    22.5843 0.0000e+00
      2.318      0.036     5.5668     58.995     42.748  40.600415     8.1237      7.112   268.7457 5.0638e+01     5.6381      2.273      3.297    22.5512 0.0000e+00
      2.328      0.036     5.5036     56.731     42.786  40.630901     8.1991      7.112   268.7392 5.0002e+01     5.6136      2.284      3.312    22.5256 0.0000e+00
      2.338      0.038     5.4198     54.347     42.820  40.662068     8.2410      7.112   269.1001 4.9481e+01     5.5864      2.293      3.325    22.5036 0.0000e+00
      2.346      0.042     5.2892     52.107     42.815  40.659922     8.2393      7.109   269.4951 4.9056e+01     5.6161      2.301      3.337    22.4875 0.0000e+00
      2.354      0.044     5.1206     50.065     42.827  40.668418     8.2620      7.106   269.7296 4.8466e+01     5.7002      2.307      3.346    22.4826 0.0000e+00
      2.366      0.045     4.9204     48.230     42.878  40.701331     8.3155      7.105   269.8709 4.7506e+01     5.7147      2.317      3.361    22.4749 0.0000e+00
      2.382      0.046     4.7002     46.715     42.938  40.740517     8.3456      7.104   269.8264 4.6527e+01     5.6897      2.337      3.389    22.4699 0.0000e+00
      2.396      0.047     4.5080     45.630     42.968  40.761399     8.3515      7.103   269.6210 4.5945e+01     5.6707      2.353      3.413    22.4808 0.0000e+00
      2.406      0.046     4.3318     45.003     42.972  40.763412     8.3944      7.103   269.6255 4.5565e+01     5.6554      2.360      3.423    22.4830 0.0000e+00
      2.415      0.044     4.1688     44.688     42.988  40.764856     8.4812      7.103   269.8807 4.4967e+01     5.6759      2.366      3.433    22.4578 0.0000e+00
      2.427      0.043     4.0380     44.445     43.036  40.778840     8.5268      7.102   270.1254 4.4218e+01     5.6794      2.380      3.452    22.4283 0.0000e+00
      2.439      0.043     3.9411     44.122     43.100  40.805513     8.5305      7.101   270.2613 4.3667e+01     5.6294      2.394      3.472    22.4221 0.0000e+00
      2.448      0.046     3.8919     43.693     43.144  40.833438     8.6177      7.100   270.1464 4.3240e+01     5.5833      2.401      3.482    22.4305 0.0000e+00
      2.458      0.049     3.8740     43.178     43.161  40.862598     8.7982      7.097   269.9411 4.2587e+01     5.5998      2.408      3.493    22.4187 0.0000e+00
      2.472      0.052     3.8612     42.529     43.194  40.904252     8.9153      7.093   270.0161 4.1730e+01     5.6588      2.422      3.514    22.3751 0.0000e+00
      2.487      0.053     3.8368     41.642     43.277  40.956300     8.9438      7.091   270.2791 4.0984e+01     5.6815      2.441      3.540    22.3218 0.0000e+00
      2.501      0.053     3.7998     40.493     43.371  40.984141     9.0170      7.089   270.5399 4.0214e+01     5.6352      2.451      3.555    22.3016 0.0000e+00
      2.517      0.051     3.7534     39.143     43.444  40.986920     9.1433      7.087   270.5019 3.9263e+01     5.5769      2.466      3.577    22.3340 0.0000e+00
      2.533      0.048     3.7009     37.717     43.498  40.989805     9.2136      7.085   270.2503 3.8627e+01     5.5912      2.487      3.608    22.3629 0.0000e+00
      2.543      0.046     3.6256     36.368     43.565  41.018956     9.2351      7.085   270.3369 3.8374e+01     5.6717      2.496      3.620    22.3316 0.0000e+00
      2.549      0.046     3.5296     35.094     43.671  41.085472     9.2700      7.086   270.6028 3.7970e+01     5.6971      2.498      3.623    22.2427 0.0000e+00
      2.558      0.046     3.4156     33.811     43.791  41.159340     9.5693      7.087   270.6258 3.7299e+01     5.6926      2.508      3.636    22.1558 0.0000e+00
      2.572      0.046     3.2854     32.451     43.893  41.213906    10.1323      7.088   270.5284 3.6597e+01     5.7537      2.523      3.659    22.1058 0.0000e+00
      2.586      0.046     3.1726     31.027     43.960  41.237429    10.4498      7.088   270.3715 3.6008e+01     5.8208      2.538      3.682    22.0730 0.0000e+00
      2.599      0.045     3.0663     29.661     44.014  41.253295    10.5213      7.088   270.1911 3.5488e+01     5.8902      2.549      3.697    22.0383 0.0000e+00
      2.611      0.043     2.9587     28.410     44.070  41.278768    10.8883      7.089   270.1545 3.4965e+01     5.8756      2.560      3.714    21.9912 0.0000e+00
      2.622      0.039     2.8440     27.219     44.109  41.291512    11.5323      7.090   270.2735 3.4518e+01     5.7126      2.572      3.732    21.9428 0.0000e+00
      2.631      0.036     2.7149     26.017     44.115  41.280416    11.8824      7.090   270.6833 3.4216e+01     5.5927      2.581      3.743    21.8952 0.0000e+00
      2.637      0.035     2.5959     24.796     44.113  41.271509    11.9500      7.090   271.1523 3.3962e+01     5.6213      2.586      3.750    21.8555 0.0000e+00
      2.644      0.035     2.4903     23.624     44.158  41.310753    12.2749      7.090   271.2111 3.3616e+01     5.6833      2.592      3.759    21.8268 0.0000e+00
      2.653      0.035     2.3895     22.544     44.249  41.374112    12.8475      7.090   270.9639 3.3156e+01     5.6923      2.601      3.772    21.7999 0.0000e+00
      2.664      0.035     2.2859     21.536     44.334  41.402866    13.1469      7.090   270.7445 3.2673e+01     5.6625      2.612      3.788    21.7772 0.0000e+00
      2.674      0.035     2.1753     20.574     44.396  41.404476    13.1739      7.090   270.9679 3.2239e+01     5.6308      2.623      3.804    21.7691 0.0000e+00
      2.684      0.035     2.0706     19.733     44.427  41.393505    13.2566      7.090   271.5999 3.1898e+01     5.6162      2.633      3.819    21.7815 0.0000e+00
      2.692      0.036     1.9775     19.149     44.445  41.397085    13.4068      7.090   272.0199 3.1634e+01     5.5533      2.640      3.830    21.7616 0.0000e+00
      2.699      0.039     1.8934     18.795     44.503  41.447747    13.4998      7.090   272.0010 3.1389e+01     5.4520      2.646      3.838    21.6904 0.0000e+00
      2.706      0.041     1.8097     18.522     44.572  41.498315    13.6066      7.088   271.7158 3.1022e+01     5.4163      2.652      3.846    21.6197 0.0000e+00
      2.717      0.042     1.7294     18.234     44.593  41.500742    14.8152      7.087   271.8411 3.0404e+01     5.5312      2.662      3.862    21.5669 0.0000e+00
      2.733      0.042     1.6801     17.914     44.578  41.477064    17.0600      7.087   272.5692 2.9714e+01     5.7822      2.679      3.886    21.5611 0.0000e+00
      2.749      0.042     1.6555     17.595     44.570  41.465877    18.3001      7.087   273.0341 2.9243e+01     5.9915      2.697      3.912    21.5730 0.0000e+00
      2.759      0.042     1.6340     17.272     44.595  41.492407    18.4563      7.087   272.9024 2.9035e+01     6.0131      2.707      3.926    21.5467 0.0000e+00
      2.764      0.040     1.6106     16.893     44.636  41.543981    18.8737      7.087   272.6115 2.8858e+01     5.9402      2.710      3.931    21.5235 0.0000e+00
      2.770      0.036     1.5799     16.423     44.659  41.581723    23.4719      7.086   272.6150 2.8475e+01     6.1351      2.714      3.937    21.5161 0.0000e+00
      2.781      0.032     1.5528     15.940     44.621  41.567958    31.9304      7.085   272.8576 2.7931e+01     6.6267      2.726      3.954    21.5077 0.0000e+00
      2.794      0.029     1.5258     15.576     44.524  41.504516    36.6148      7.086   273.1357 2.7506e+01     6.9317      2.743      3.978    21.5123 0.0000e+00
      2.804      0.027     1.4941     15.314     44.447  41.449365    37.6708      7.087   273.4825 2.7346e+01     6.9530      2.751      3.990    21.5304 0.0000e+00
      2.808      0.027     1.4499     15.000     44.402  41.408900    44.4324      7.085   273.6955 2.7326e+01     7.2947      2.754      3.995    21.5486 0.0000e+00
      2.810      0.028     1.3993     14.495     44.384  41.396065    56.7440      7.081   273.3878 2.7278e+01     8.0224      2.755      3.996    21.5694 0.0000e+00
      2.812      0.032     1.3683     13.865     44.400  41.421115    63.5226      7.078   273.0317 2.7078e+01     8.4082      2.755      3.996    21.6057 0.0000e+00
      2.819      0.037     1.3494     13.349     44.455  41.457917    64.8923      7.075   273.3473 2.6578e+01     8.5437      2.760      4.005    21.6351 0.0000e+00
      2.834      0.042     1.3291     13.123     44.651  41.587157    73.1553      7.072   273.7623 2.5919e+01     9.3857      2.779      4.031    21.6196 0.0000e+00
      2.851      0.047     1.2822     13.235     44.970  41.777776    88.1557      7.072   273.8341 2.5458e+01    10.7663      2.800      4.060    21.6205 0.0000e+00
      2.863      0.049     1.2157     13.684     45.211  41.858484    96.2369      7.072   273.8709 2.5096e+01    11.5056      2.807      4.071    21.6561 0.0000e+00
      2.874      0.047     1.1649     14.390     45.333  41.864634    96.0139      7.072   273.5187 2.4665e+01    11.5605      2.817      4.085    21.6361 0.0000e+00
      2.886      0.044     1.1464     15.145     45.415  41.915446    85.4759      7.072   272.8456 2.4310e+01    11.0198      2.831      4.107    21.5861 0.0000e+00
      2.897      0.041     1.1580     15.690     45.523  42.028546    66.0285      7.071   272.6154 2.4021e+01     9.9554      2.841      4.120    21.4728 0.0000e+00
      2.906      0.041     1.2039     15.730     45.770  42.216636    55.3720      7.070   272.7144 2.3711e+01     9.3144      2.850      4.133    21.2677 0.0000e+00
      2.916      0.042     1.2783     15.038     46.215  42.475895    53.9671      7.069   272.9244 2.3397e+01     9.2139      2.859      4.147    21.1291 0.0000e+00
      2.926      0.044     1.3526     13.656     46.757  42.751136    49.1504      7.068   272.9174 2.3075e+01     9.0477      2.869      4.161    21.1213 0.0000e+00
      2.937      0.047     1.4092     11.872     47.211  42.941921    40.4813      7.067   272.4582 2.2726e+01     8.7393      2.880      4.177    21.1808 0.0000e+00
      2.948      0.050     1.4224      9.967     47.480  43.005142    35.7595      7.065   272.1897 2.2340e+01     8.5942      2.891      4.193    21.1673 0.0000e+00
      2.962      0.051     1.3646      8.084     47.698  43.070985    35.2808      7.064   272.4252 2.1871e+01     8.5911      2.903      4.211    20.9796 0.0000e+00
      2.979      0.049     1.2363      6.313     47.989  43.230068    34.6348      7.064   272.8101 2.1384e+01     8.7019      2.921      4.236    20.7089 0.0000e+00
      2.995      0.046     1.0715      4.725     48.291  43.405109    33.2342      7.064   272.8846 2.1028e+01     8.9424      2.939      4.261    20.4569 0.0000e+00
      3.006      0.041     0.9008      3.410     48.534  43.536953    32.0380      7.064   272.5522 2.0803e+01     9.0401      2.949      4.276    20.2600 0.0000e+00
      3.013      0.036     0.7290      2.435     48.771  43.681537    31.6570      7.064   272.2327 2.0618e+01     9.0286      2.954      4.285    20.1352 0.0000e+00
      3.019      0.031     0.5679      1.760     49.125  43.947147    31.6747      7.065   272.2048 2.0452e+01     9.0432      2.960      4.294    20.0378 0.0000e+00
      3.025      0.029     0.4220      1.303     49.680  44.399761    32.3434      7.066   272.3868 2.0295e+01     9.1820      2.967      4.303    19.9339 0.0000e+00
      3.031      0.030     0.2984      1.026     50.368  44.964527    33.6003      7.066   272.5406 2.0126e+01     9.4765      2.973      4.310    19.8397 0.0000e+00
      3.038      0.032     0.2131      0.928     50.972  45.443460    34.3031      7.065   272.4301 1.9919e+01     9.6669      2.980      4.321    19.7703 0.0000e+00
      3.048      0.037     0.1542      0.975     51.380  45.746864    34.4239      7.064   272.1691 1.9664e+01     9.7420      2.989      4.335    19.7235 0.0000e+00
      3.058      0.041     0.1142      1.105     51.679  45.966696    34.9363      7.062   271.8797 1.9388e+01     9.9412      2.998      4.348    19.6847 0.0000e+00
      3.068      0.045     0.0876      1.257     51.978  46.196918    35.8712      7.060   271.9417 1.9085e+01    10.1963      3.008      4.363    19.6362 0.0000e+00
      3.080      0.047     0.0802      1.392     52.290  46.435484    36.3884      7.060   272.2310 1.8770e+01    10.2988      3.020      4.381    19.5736 0.0000e+00
      3.094      0.047     0.0872      1.526     52.560  46.629214    36.4711      7.060   272.0220 1.8451e+01    10.3607      3.035      4.402    19.5076 0.0000e+00
      3.108      0.047     0.1004      1.651     52.757  46.761689    36.8039      7.060   271.5650 1.8131e+01    10.5683      3.048      4.421    19.4622 0.0000e+00
      3.120      0.047     0.1172      1.736     52.947  46.894451    37.3739      7.059   271.3526 1.7854e+01    10.8285      3.060      4.438    19.4383 0.0000e+00
      3.131      0.047     0.1275      1.780     53.207  47.091655    37.6458      7.057   271.6907 1.7627e+01    10.9107      3.071      4.454    19.4003 0.0000e+00
      3.141      0.048     0.1407      1.805     53.562  47.368428    37.4036      7.054   272.2109 1.7404e+01    10.8791      3.080      4.467    19.3525 0.0000e+00
      3.151      0.050     0.1537      1.829     53.989  47.701391    34.5278      7.051   272.2224 1.7098e+01    11.1296      3.088      4.479    19.3117 0.0000e+00
      3.164      0.052     0.1618      1.844     54.465  48.070045    29.2593      7.049   271.8292 1.6716e+01    11.6162      3.102      4.499    19.2778 0.0000e+00
      3.180      0.054     0.1649      1.868     54.973  48.460845    26.3800      7.047   271.4149 1.6363e+01    11.8779      3.119      4.524    19.2497 0.0000e+00
      3.197      0.054     0.1662      1.893     55.436  48.807550    25.9574      7.047   271.3436 1.6053e+01    11.9023      3.135      4.547    19.2165 0.0000e+00
      3.212      0.053     0.1700      1.899     55.823  49.087424    24.0743      7.047   271.4828 1.5765e+01    12.1838      3.150      4.569    19.1741 0.0000e+00
      3.225      0.052     0.1701      1.914     56.211  49.368525    20.6735      7.045   271.5497 1.5519e+01    12.8221      3.163      4.588    19.1274 0.0000e+00
      3.236      0.051     0.1723      1.921     56.621  49.666539    18.8382      7.042   271.4632 1.5307e+01    13.2329      3.173      4.603    19.0742 0.0000e+00
      3.247      0.051     0.1776      1.903     57.036  49.960387    18.6719      7.039   271.2987 1.5075e+01    13.2901      3.184      4.619    19.0161 0.0000e+00
      3.259      0.051     0.1748      1.903     57.463  50.254562    18.5219      7.036   271.2810 1.4787e+01    13.3096      3.196      4.635    18.9615 0.0000e+00
      3.273      0.050     0.1776      1.903     57.834  50.492986    17.1495      7.035   271.4216 1.4452e+01    13.8785      3.209      4.653    18.9096 0.0000e+00
      3.289      0.049     0.1815      1.879     58.070  50.620681    14.6626      7.035   271.4497 1.4096e+01    15.0442      3.224      4.676    18.8561 0.0000e+00
      3.304      0.046     0.1745      1.849     58.257  50.718968    13.3057      7.035   270.8459 1.3812e+01    15.7552      3.242      4.701    18.7971 0.0000e+00
      3.316      0.042     0.1782      1.826     58.473  50.855823    13.1618      7.034   270.0588 1.3657e+01    15.9169      3.254      4.719    18.7260 0.0000e+00
      3.324      0.038     0.1790      1.827     58.698  51.005360    12.8394      7.035   270.0198 1.3550e+01    16.4869      3.260      4.728    18.6471 0.0000e+00
      3.330      0.035     0.1753      1.850     58.969  51.193495    12.2366      7.036   270.2889 1.3413e+01    17.4548      3.265      4.735    18.5765 0.0000e+00
      3.337      0.035     0.1734      1.869     59.286  51.416026    11.8913      7.036   270.4725 1.3246e+01    17.9527      3.272      4.745    18.5216 0.0000e+00
      3.345      0.039     0.1698      1.854     59.492  51.536925    11.7697      7.033   270.0889 1.3071e+01    18.1012      3.281      4.758    18.4795 0.0000e+00
      3.355      0.046     0.1708      1.831     59.612  51.575713    10.8487      7.028   268.7488 1.2870e+01    19.2836      3.290      4.771    18.4443 0.0000e+00
      3.365      0.052     0.1732      1.830     59.766  51.630913     9.1783      7.024   267.0887 1.2593e+01    21.4204      3.299      4.784    18.4052 0.0000e+00
      3.380      0.056     0.1777      1.821     60.093  51.823242     8.2613      7.022   265.5040 1.2193e+01    22.5538      3.312      4.803    18.3596 0.0000e+00
      3.401      0.060     0.1747      1.794     61.058  52.567504     8.1179      7.019   264.1284 1.1734e+01    22.6364      3.336      4.838    18.3110 0.0000e+00
      3.420      0.061     0.1704      1.775     62.698  53.898266     7.4779      7.016   262.5881 1.1427e+01    23.3417      3.358      4.871    18.2585 0.0000e+00
      3.432      0.061     0.1734      1.770     64.325  55.212137     6.3239      7.014   261.0770 1.1147e+01    24.7613      3.365      4.881    18.1944 0.0000e+00
      3.444      0.058     0.1729      1.762     65.807  56.386644     5.7016      7.014   260.1404 1.0607e+01    25.5909      3.374      4.893    18.1145 0.0000e+00
      3.462      0.053     0.1692      1.755     67.511  57.746289     5.6208      7.013   259.5231 9.9917e+00    25.6515      3.396      4.924    18.0389 0.0000e+00
      3.478      0.050     0.1670      1.765     69.252  59.138357     5.3385      7.012   258.7766 9.5240e+00    25.1531      3.412      4.949    17.9814 0.0000e+00
      3.489      0.048     0.1683      1.767     70.830  60.386599     4.8435      7.011   257.7383 9.0830e+00    24.2450      3.421      4.963    17.9181 0.0000e+00
      3.499      0.047     0.1678      1.738     72.445  61.658023     4.5884      7.008   256.6063 8.6047e+00    23.7924      3.431      4.977    17.8383 0.0000e+00
      3.509      0.046     0.1654      1.716     74.471  63.266108     4.5674      7.006   255.5866 8.1077e+00    23.6434      3.441      4.992    17.7630 0.0000e+00
      3.520      0.046     0.1683      1.716     76.770  65.089450     4.4155      7.004   254.6156 7.5862e+00    22.1689      3.452      5.007    17.6945 0.0000e+00
      3.531      0.047     0.1707      1.716     78.488  66.420937     4.1418      7.003   253.2978 6.9865e+00    19.5267      3.461      5.020    17.6255 0.0000e+00
      3.543      0.047     0.1653      1.718     79.792  67.418723     3.9883      7.001   251.7852 6.3022e+00    18.0676      3.474      5.038    17.5533 0.0000e+00
      3.558      0.047     0.1628      1.731     81.407  68.701448     3.9576      6.998   250.6944 5.7136e+00    17.8833      3.490      5.062    17.4783 0.0000e+00
      3.571      0.046     0.1655      1.756     83.028  69.982264     3.9377      6.996   249.9180 5.2883e+00    17.6741      3.503      5.081    17.3889 0.0000e+00
      3.581      0.043     0.1642      1.785     84.188  70.829323     3.7807      6.995   248.7644 4.9227e+00    15.5727      3.512      5.094    17.3028 0.0000e+00
      3.591      0.039     0.1652      1.787     84.962  71.315949     3.4824      6.994   247.3297 4.5623e+00    11.7067      3.521      5.107    17.2371 0.0000e+00
      3.601      0.038     0.1658      1.754     85.651  71.734331     3.3110      6.993   245.6483 4.2527e+00     9.5656      3.532      5.123    17.1907 0.0000e+00
      3.610      0.039     0.1689      1.723     86.383  72.201071     3.2735      6.991   243.2343 4.0305e+00     9.2242      3.541      5.136    17.1543 0.0000e+00
      3.617      0.041     0.1730      1.704     86.940  72.509569     3.1034      6.988   240.8566 3.8371e+00     8.3643      3.546      5.144    17.0706 0.0000e+00
      3.627      0.042     0.1751      1.687     86.890  72.285904     2.8023      6.985   239.0972 3.5888e+00     6.9572      3.554      5.155    16.9621 0.0000e+00
      3.640      0.043     0.1692      1.682     86.109  71.467013     2.6375      6.981   237.3630 3.3196e+00     6.2154      3.570      5.178    16.8674 0.0000e+00
      3.655      0.044     0.1664      1.670     85.085  70.553660     2.6175      6.978   235.3753 3.1300e+00     6.1586      3.585      5.201    16.7894 0.0000e+00
      3.665      0.045     0.1667      1.661     84.156  69.886978     2.5525      6.975   232.8738 2.9900e+00     5.8949      3.594      5.213    16.7054 0.0000e+00
      3.675      0.045     0.1626      1.675     83.281  69.380931     2.4258      6.971   230.0900 2.8549e+00     5.3162      3.604      5.227    16.5938 0.0000e+00
      3.685      0.045     0.1659      1.699     82.566  69.011483     2.3508      6.964   227.8726 2.7354e+00     4.9343      3.614      5.241    16.4709 0.0000e+00
      3.696      0.047     0.1628      1.713     82.067  68.725221     2.3276      6.956   225.5088 2.6030e+00     4.8640      3.623      5.255    16.4134 0.0000e+00
      3.708      0.050     0.1614      1.741     81.387  68.144347     2.2448      6.947   222.5028 2.4595e+00     4.7737      3.636      5.274    16.4935 0.0000e+00
      3.722      0.054     0.1621      1.778     80.507  67.263003     2.1156      6.939   219.5763 2.3291e+00     4.6292      3.650      5.294    16.6514 0.0000e+00
      3.737      0.056     0.1663      1.772     80.015  66.584608     2.0550      6.933   216.7109 2.2071e+00     4.5853      3.664      5.313    16.8104 0.0000e+00
      3.752      0.057     0.1651      1.745     79.985  66.169452     2.0538      6.929   213.7559 2.1071e+00     4.5848      3.679      5.335    16.9023 0.0000e+00
      3.768      0.055     0.1669      1.749     80.159  65.865080     2.0175      6.925   210.9494 2.0333e+00     4.4855      3.695      5.359    16.8867 0.0000e+00
      3.783      0.051     0.1759      1.770     80.447  65.699938     1.9412      6.922   208.8475 1.9459e+00     4.3419      3.710      5.381    16.7936 0.0000e+00
      3.797      0.047     0.1729      1.754     80.647  65.570235     1.9055      6.920   206.9270 1.8551e+00     4.3172      3.725      5.403    16.6366 0.0000e+00
      3.808      0.045     0.1696      1.717     80.565  65.313213     1.9269      6.920   202.8707 1.8114e+00     4.3569      3.736      5.419    16.3753 0.0000e+00
      3.815      0.045     0.1705      1.693     80.282  64.943214     1.9332      6.920   193.6167 1.7939e+00     4.3782      3.742      5.427    16.0660 0.0000e+00
      3.821      0.044     0.1782      1.683     80.097  64.654863     1.8983      6.920   176.7752 1.7574e+00     4.4377      3.745      5.432    15.8049 0.0000e+00
      3.833      0.044     0.1753      1.712     80.156  64.558937     1.8625      6.919   155.8338 1.6869e+00     4.4620      3.755      5.447    15.6240 0.0000e+00
      3.850      0.045     0.1694      1.756     80.304  64.545714     1.8503      6.919   138.7359 1.6159e+00     4.4336      3.778      5.478    15.5212 0.0000e+00
      3.865      0.047     0.1699      1.759     80.296  64.431284     1.8503      6.919   127.7558 1.5843e+00     4.4694      3.795      5.504    15.4449 0.0000e+00
      3.874      0.047     0.1659      1.758     79.871  64.001273     1.8466      6.920   120.1265 1.5554e+00     4.7588      3.800      5.511    15.3589 0.0000e+00
      3.883      0.046     0.1703      1.788     79.084  63.285833     1.8299      6.921   114.0317 1.5028e+00     5.2338      3.807      5.521    15.2641 0.0000e+00
      3.894      0.046     0.1798      1.802     78.398  62.643027     1.8061      6.922   108.6996 1.4479e+00     5.4647      3.818      5.538    15.1786 0.0000e+00
      3.907      0.047     0.1768      1.781     78.048  62.265059     1.7840      6.924   103.8380 1.4013e+00     5.5011      3.831      5.556    15.1125 0.0000e+00
      3.920      0.048     0.1742      1.765     77.852  62.019568     1.7460      6.926    99.7333 1.3584e+00     5.9801      3.845      5.576    15.0611 0.0000e+00
      3.934      0.050     0.1817      1.744     77.467  61.644266     1.6884      6.928    96.8403 1.3114e+00     6.8504      3.859      5.596    15.0109 0.0000e+00
      3.946      0.050     0.1840      1.708     77.004  61.221509     1.6532      6.930    94.4989 1.2644e+00     7.3473      3.869      5.612    14.9494 0.0000e+00
      3.957      0.050     0.1789      1.707     76.693  60.910499     1.6369      6.932    91.6437 1.2216e+00     7.4796      3.880      5.628    14.8833 0.0000e+00
      3.970      0.048     0.1783      1.730     76.263  60.488566     1.5743      6.933    88.4736 1.1738e+00     8.3132      3.892      5.646    14.8218 0.0000e+00
      3.985      0.046     0.1789      1.730     75.593  59.868073     1.4782      6.935    85.5949 1.1166e+00     9.9110      3.907      5.666    14.7792 0.0000e+00
      3.998      0.045     0.1704      1.730     74.845  59.189073     1.4410      6.937    83.2514 1.0706e+00    10.8458      3.923      5.689    14.7520 0.0000e+00
      4.008      0.045     0.1717      1.730     74.151  58.567786     1.4573      6.939    80.4449 1.0435e+00    11.0416      3.931      5.703    14.7119 0.0000e+00
      4.015      0.046     0.1784      1.720     73.434  57.946176     1.4507      6.941    76.0103 1.0215e+00    11.8008      3.937      5.710    14.6565 0.0000e+00
      4.025      0.046     0.1747      1.713     72.626  57.263073     1.4190      6.942    70.5021 9.9635e-01    13.1246      3.946      5.723    14.5941 0.0000e+00
      4.039      0.047     0.1764      1.719     71.844  56.596841     1.3995      6.944    64.6948 9.5696e-01    13.8280      3.961      5.744    14.5341 0.0000e+00
      4.054      0.049     0.1772      1.729     70.983  55.861437     1.3896      6.947    58.7083 8.9693e-01    13.9185      3.976      5.766    14.4842 0.0000e+00
      4.068      0.052     0.1752      1.720     69.857  54.913352     1.3655      6.950    52.9270 8.3644e-01    14.4918      3.990      5.788    14.4479 0.0000e+00
      4.081      0.054     0.1742      1.706     68.643  53.898280     1.3250      6.954    47.8797 7.9753e-01    15.5323      4.002      5.804    14.4213 0.0000e+00
      4.092      0.055     0.1752      1.712     67.719  53.114690     1.3079      6.956    43.5410 7.6082e-01    16.0803      4.011      5.818    14.3881 0.0000e+00
      4.105      0.058     0.1778      1.721     67.236  52.678810     1.3086      6.957    40.6480 7.1121e-01    16.1995      4.025      5.838    14.3454 0.0000e+00
      4.122      0.064     0.1766      1.727     66.918  52.374847     1.2835      6.958    39.9173 6.6380e-01    17.1784      4.042      5.863    14.3003 0.0000e+00
      4.138      0.070     0.1732      1.737     66.398  51.916076     1.2286      6.960    39.8687 6.2119e-01    18.9661      4.059      5.886    14.2563 0.0000e+00
      4.154      0.073     0.1760      1.733     65.793  51.386439     1.1779      6.961    39.6301 5.8071e-01    19.9154      4.071      5.904    14.2125 0.0000e+00
      4.176      0.074     0.1773      1.721     65.121  50.797089     1.1695      6.965    39.6997 5.4719e-01    19.9789      4.093      5.935    14.1712 0.0000e+00
      4.201      0.073     0.1762      1.706     64.176  49.997133     1.1682      6.969    39.4187 5.1367e-01    19.9736      4.124      5.980    14.1292 0.0000e+00
      4.221      0.071     0.1802      1.701     63.234  49.206798     1.1211      6.972    38.6418 4.7821e-01    20.0904      4.143      6.009    14.0910 0.0000e+00
      4.236      0.068     0.1781      1.718     62.453  48.543092     1.0577      6.974    37.7926 4.4854e-01    20.3328      4.153      6.024    14.0524 0.0000e+00
      4.250      0.065     0.1776      1.730     61.757  47.940540     1.0432      6.977    36.8937 4.2625e-01    20.4793      4.168      6.045    13.9980 0.0000e+00
      4.265      0.062     0.1762      1.727     61.374  47.571973     1.0612      6.980    36.5495 4.0810e-01    20.4948      4.184      6.067    13.9467 0.0000e+00
      4.280      0.062     0.1738      1.722     61.315  47.451637     1.0338      6.983    36.9865 3.8704e-01    20.0759      4.198      6.088    13.9048 0.0000e+00
      4.297      0.062     0.1783      1.712     61.223  47.310824     0.9627      6.986    37.6182 3.7308e-01    19.2409      4.213      6.111    13.8612 0.0000e+00
      4.315      0.064     0.1802      1.727     61.089  47.139088     0.9257      6.989    38.0785 3.6823e-01    18.7677      4.232      6.138    13.8148 0.0000e+00
      4.332      0.066     0.1779      1.808     61.108  47.089277     0.9267      6.992    38.8515 3.5557e-01    18.7608      4.250      6.164    13.7536 0.0000e+00
      4.346      0.067     0.1801      2.053     61.182  47.089406     0.8834      6.994    40.1683 3.3834e-01    18.6447      4.262      6.182    13.6884 0.0000e+00
      4.362      0.065     0.1763      2.646     61.233  47.077105     0.7935      6.995    41.5237 3.2494e-01    18.2863      4.274      6.199    13.6358 0.0000e+00
      4.382      0.061     0.1778      3.704     61.278  47.067458     0.7395      6.994    42.7632 3.1195e-01    18.0481      4.296      6.231    13.5782 0.0000e+00
      4.403      0.058     0.1843      5.171     61.287  47.036204     0.7298      6.994    43.9706 2.9946e-01    17.9855      4.322      6.268    13.5225 0.0000e+00
      4.416      0.054     0.1998      6.874     61.308  47.016603     0.7423      6.996    45.0231 2.9658e-01    17.9727      4.333      6.284    13.4792 0.0000e+00
      4.424      0.050     0.2584      8.777     61.362  47.020887     0.7657      6.998    45.9389 2.9988e-01    18.0308      4.337      6.291    13.4362 0.0000e+00
      4.434      0.049     0.3694     11.053     61.419  47.024471     0.7633      7.000    46.8694 2.9724e-01    18.0386      4.348      6.306    13.3989 0.0000e+00
      4.446      0.052     0.5342     13.855     61.523  47.059887     0.7385      7.001    48.3580 2.9201e-01    17.9651      4.361      6.325    13.3706 0.0000e+00
      4.457      0.056     0.7139     17.083     61.688  47.131616     0.7237      7.001    50.6872 2.8546e-01    17.9276      4.370      6.338    13.3423 0.0000e+00
      4.472      0.060     0.9042     20.404     61.849  47.193316     0.7344      7.001    52.9197 2.6576e-01    17.9946      4.381      6.355    13.3124 0.0000e+00
      4.493      0.063     1.1360     23.603     61.972  47.234443     0.7599      7.002    54.6154 2.3767e-01    18.1266      4.404      6.388    13.2781 0.0000e+00
      4.514      0.065     1.4326     26.731     62.028  47.247900     0.7726      7.003    56.7350 2.2839e-01    18.1912      4.430      6.426    13.2454 0.0000e+00
      4.528      0.066     1.7901     29.866     62.025  47.229012     0.7630      7.004    59.5326 2.4030e-01    18.1269      4.441      6.442    13.2026 0.0000e+00
      4.540      0.065     2.1504     32.998     62.100  47.260007     0.7444      7.004    62.6298 2.4807e-01    17.9982      4.448      6.452    13.1459 0.0000e+00
      4.557      0.063     2.4836     36.140     62.206  47.305184     0.7472      7.005    66.1347 2.4533e-01    17.9330      4.468      6.482    13.0987 0.0000e+00
      4.576      0.063     2.8084     39.314     62.200  47.267308     0.7641      7.007    69.5589 2.4118e-01    17.9539      4.490      6.513    13.0770 0.0000e+00
      4.591      0.063     3.1435     42.587     62.206  47.246421     0.7654      7.007    73.1430 2.4626e-01    17.9768      4.502      6.529    13.0744 0.0000e+00
      4.606      0.062     3.4703     45.885     62.294  47.306567     0.7458      7.008    77.8932 2.4953e-01    17.9029      4.515      6.548    13.0535 0.0000e+00
      4.624      0.060     3.8063     48.905     62.339  47.359639     0.7187      7.008    83.5432 2.3723e-01    17.7436      4.534      6.577    13.0175 0.0000e+00
      4.641      0.059     4.1384     51.505     62.238  47.316748     0.7132      7.008    89.1456 2.2839e-01    17.6904      4.554      6.605    12.9922 0.0000e+00
      4.653      0.059     4.4831     53.692     62.077  47.232425     0.7207      7.008    94.1797 2.3049e-01    17.7375      4.563      6.619    12.9679 0.0000e+00
      4.665      0.057     4.8541     55.539     62.039  47.228963     0.7341      7.008    99.1527 2.2740e-01    17.6983      4.572      6.631    12.9558 0.0000e+00
      4.681      0.054     5.1695     57.100     62.105  47.274922     0.7507      7.009   105.2219 2.2059e-01    17.5582      4.590      6.656    12.9806 0.0000e+00
      4.697      0.054     5.4405     58.229     62.154  47.280205     0.7464      7.009   112.4104 2.1790e-01    17.4441      4.608      6.684    13.0079 0.0000e+00
      4.712      0.056     5.6649     58.799     62.224  47.292802     0.7401      7.008   119.3881 2.0781e-01    17.4460      4.623      6.703    13.0416 0.0000e+00
      4.723      0.059     5.8474     58.898     62.337  47.363689     0.7416      7.008   125.7473 1.9463e-01    17.5816      4.633      6.719    13.0732 0.0000e+00
      4.734      0.059     6.0236     58.717     62.406  47.438904     0.7312      7.008   131.9969 1.8967e-01    17.7511      4.640      6.729    13.0631 0.0000e+00
      4.749      0.059     6.1523     58.392     62.421  47.503883     0.7147      7.008   138.0798 1.8258e-01    17.7880      4.655      6.750    13.0374 0.0000e+00
      4.771      0.060     6.2139     58.012     62.337  47.514532     0.7074      7.007   143.5423 1.7170e-01    17.7202      4.680      6.789    12.9894 0.0000e+00
      4.789      0.061     6.2179     57.687     62.168  47.440764     0.7263      7.007   148.3126 1.6120e-01    17.7164      4.700      6.817    12.9730 0.0000e+00
      4.801      0.057     6.1904     57.493     62.078  47.373886     0.7602      7.007   152.3932 1.4764e-01    17.7761      4.706      6.825    12.9996 0.0000e+00
      4.814      0.049     6.1493     57.387     62.085  47.340804     0.7762      7.007   155.9691 1.3678e-01    17.7928      4.718      6.843    13.0363 0.0000e+00
      4.831      0.039     6.0936     57.174     62.094  47.294664     0.7704      7.007   159.7998 1.3459e-01    17.7477      4.740      6.875    13.1150 0.0000e+00
      4.842      0.031     6.0482     56.650     62.117  47.260368     0.7559      7.007   163.6921 1.3547e-01    17.6750      4.752      6.892    13.1706 0.0000e+00
      4.845      0.026     6.0294     55.787     62.157  47.243514     0.7429      7.007   166.8941 1.3095e-01    17.6657      4.751      6.891    13.1661 0.0000e+00
      4.846      0.022     6.0322     54.730     62.172  47.217808     0.7302      7.007   169.4340 1.2975e-01    17.7375      4.752      6.892    13.1252 0.0000e+00
      4.848      0.020     6.0263     53.702     62.191  47.203468     0.7177      7.007   171.6868 1.3725e-01    17.7907      4.754      6.895    13.0788 0.0000e+00
      4.853      0.023     5.9769     52.949     62.209  47.197066     0.7168      7.007   173.8271 1.3980e-01    17.7631      4.757      6.899    13.0374 0.0000e+00
      4.860      0.028     5.8851     52.683     62.232  47.203874     0.7281      7.007   175.7821 1.3796e-01    17.6768      4.766      6.912    12.9966 0.0000e+00
      4.870      0.031     5.7694     53.034     62.262  47.222283     0.7376      7.007   177.6000 1.3802e-01    17.6019      4.775      6.925    12.9683 0.0000e+00
      4.880      0.031     5.6538     53.997     62.277  47.229171     0.7409      7.007   179.2885 1.3543e-01    17.6084      4.785      6.939    12.9455 0.0000e+00
      4.890      0.032     5.5688     55.411     62.279  47.223662     0.7508      7.008   180.8822 1.3054e-01    17.6877      4.799      6.959    12.9287 0.0000e+00
      4.898      0.034     5.5361     57.029     62.275  47.219158     0.7833      7.008   182.4151 1.2974e-01    17.7065      4.806      6.970    12.9199 0.0000e+00
      4.902      0.038     5.5735     58.619     62.286  47.238201     0.8248      7.008   183.9697 1.3313e-01    17.6648      4.806      6.971    12.9194 0.0000e+00
      4.907      0.043     5.6820     60.020     62.296  47.263457     0.8443      7.007   186.1711 1.3227e-01    17.6618      4.809      6.975    12.9173 0.0000e+00
      4.918      0.053     5.8419     61.099     62.285  47.270587     0.8527      7.006   188.7258 1.2688e-01    17.6701      4.820      6.991    12.9086 0.0000e+00
      4.935      0.064     6.0232     61.841     62.261  47.260944     0.8432      7.005   190.5957 1.2508e-01    17.6974      4.840      7.020    12.9054 0.0000e+00
      4.954      0.074     6.1935     62.327     62.200  47.210370     0.7966      7.005   191.9172 1.2574e-01    17.7177      4.856      7.045    12.9143 0.0000e+00
      4.975      0.077     6.3457     62.550     62.173  47.166993     0.7553      7.004   193.2598 1.2487e-01    17.6767      4.875      7.071    12.9320 0.0000e+00
      5.002      0.072     6.4589     62.516     62.235  47.180859     0.7351      7.004   195.1273 1.2390e-01    17.6462      4.906      7.115    12.9456 0.0000e+00
      5.027      0.062     6.5286     62.327     62.275  47.187526     0.7104      7.004   197.3757 1.2384e-01    17.6216      4.934      7.158    12.9528 0.0000e+00
      5.042      0.049     6.5829     62.051     62.275  47.184082     0.6807      7.004   199.1079 1.2387e-01    17.5505      4.947      7.176    12.9544 0.0000e+00
      5.048      0.034     6.6107     61.747     62.287  47.202699     0.6682      7.005   200.2398 1.2384e-01    17.4691      4.951      7.182    12.9337 0.0000e+00
      5.051      0.021     6.6053     61.526     62.297  47.222177     0.6752      7.005   201.1661 1.2377e-01    17.4574      4.953      7.184    12.8980 0.0000e+00
      5.052      0.012     6.5877     61.446     62.289  47.229145     0.6824      7.004   201.9625 1.2367e-01    17.4776      4.954      7.185    12.8754 0.0000e+00
      5.053      0.009     6.5572     61.488     62.264  47.223475     0.6888      7.004   202.8141 1.2358e-01    17.4741      4.955      7.187    12.8764 0.0000e+00
      5.054      0.010     6.5174     61.644     62.243  47.217125     0.7033      7.004   203.9765 1.2362e-01    17.5184      4.956      7.188    12.8883 0.0000e+00
      5.056      0.017     6.4903     61.864     62.234  47.215865     0.7240      7.004   205.1764 1.2374e-01    17.5339      4.958      7.191    12.8975 0.0000e+00
      5.059      0.028     6.4830     62.047     62.220  47.208248     0.7314      7.003   205.8784 1.2379e-01    17.4569      4.961      7.196    12.9075 0.0000e+00
      5.063      0.039     6.4847     62.137     62.202  47.188517     0.7250      7.002   206.1834 1.2382e-01    17.4417      4.963      7.198    12.9201 0.0000e+00
      5.073      0.047     6.5008     62.119     62.203  47.167756     0.7295      7.002   206.6278 1.2385e-01    17.5542      4.971      7.208    12.9283 0.0000e+00
      5.093      0.052     6.5302     61.991     62.214  47.147662     0.7451      7.002   207.4656 1.2382e-01    17.6904      4.993      7.241    12.9305 0.0000e+00
      5.117      0.057     6.5498     61.788     62.229  47.135988     0.7635      7.002   208.5699 1.2375e-01    17.7567      5.021      7.282    12.9350 0.0000e+00
      5.133      0.063     6.5591     61.569     62.278  47.153550     0.7768      7.000   209.2249 1.2375e-01    17.7408      5.038      7.306    12.9359 0.0000e+00
      5.141      0.071     6.5617     61.394     62.316  47.169520     0.7731      6.999   209.1896 1.2378e-01    17.7030      5.041      7.312    12.9132 0.0000e+00
      5.150      0.078     6.5500     61.321     62.281  47.138605     0.7611      6.998   209.2622 1.2376e-01    17.6755      5.047      7.320    12.8854 0.0000e+00
      5.168      0.081     6.5291     61.380     62.229  47.097182     0.7641      6.998   209.9312 1.2372e-01    17.6807      5.063      7.342    12.8692 0.0000e+00
      5.199      0.082     6.5061     61.556     62.257  47.113096     0.7513      6.998   210.9969 1.2369e-01    17.6302      5.096      7.391    12.8523 0.0000e+00
      5.235      0.083     6.4867     61.815     62.299  47.140549     0.7065      6.998   212.0807 1.2374e-01    17.4403      5.140      7.455    12.8407 0.0000e+00
      5.259      0.081     6.4784     62.136     62.264  47.111672     0.6712      6.998   213.0554 1.2380e-01    17.2635      5.164      7.489    12.8400 0.0000e+00
      5.269      0.076     6.4845     62.481     62.227  47.081375     0.6498      6.999   213.9192 1.2380e-01    17.2001      5.167      7.494    12.8400 0.0000e+00
      5.279      0.071     6.5068     62.822     62.247  47.091669     0.6638      6.999   214.7812 1.2385e-01    17.2541      5.174      7.503    12.8350 0.0000e+00
      5.295      0.066     6.5340     63.138     62.278  47.109155     0.7070      6.999   215.8198 1.2383e-01    17.3370      5.190      7.528    12.8299 0.0000e+00
      5.316      0.066     6.5703     63.383     62.276  47.102321     0.7320      6.999   217.0132 1.2375e-01    17.3483      5.213      7.560    12.8290 0.0000e+00
      5.338      0.066     6.6086     63.570     62.239  47.072522     0.7321      7.000   218.2835 1.2378e-01    17.2881      5.237      7.595    12.8278 0.0000e+00
      5.356      0.066     6.6435     63.715     62.233  47.066287     0.7171      7.000   219.5636 1.2383e-01    17.2232      5.253      7.621    12.8239 0.0000e+00
      5.371      0.066     6.6833     63.792     62.267  47.090423     0.7167      6.999   220.6175 1.2381e-01    17.2467      5.267      7.640    12.8182 0.0000e+00
      5.383      0.067     6.7072     63.821     62.295  47.110395     0.7353      6.998   221.3895 1.2374e-01    17.2997      5.279      7.658    12.8137 0.0000e+00
      5.396      0.071     6.7256     63.839     62.305  47.117311     0.7433      6.997   222.1874 1.2374e-01    17.3169      5.290      7.673    12.8127 0.0000e+00
      5.414      0.077     6.7442     63.832     62.295  47.110560     0.7293      6.997   222.8652 1.2378e-01    17.2841      5.306      7.696    12.8121 0.0000e+00
      5.439      0.085     6.7512     63.787     62.270  47.092254     0.7076      6.996   223.0455 1.2378e-01    17.2444      5.333      7.734    12.8098 0.0000e+00
      5.464      0.090     6.7518     63.759     62.258  47.086426     0.6980      6.996   223.1627 1.2378e-01    17.3150      5.361      7.774    12.8088 0.0000e+00
      5.488      0.090     6.7551     63.764     62.277  47.103585     0.7040      6.996   223.7666 1.2374e-01    17.4552      5.379      7.802    12.8087 0.0000e+00
      5.513      0.085     6.7562     63.759     62.285  47.109260     0.7135      6.996   224.6689 1.2371e-01    17.5391      5.404      7.838    12.8089 0.0000e+00
      5.539      0.079     6.7473     63.738     62.265  47.091557     0.7218      6.996   225.4681 1.2375e-01    17.5093      5.438      7.886    12.8087 0.0000e+00
      5.557      0.073     6.7435     63.745     62.253  47.080004     0.7298      6.996   226.0306 1.2379e-01    17.4372      5.453      7.910    12.8118 0.0000e+00
      5.568      0.065     6.7459     63.806     62.277  47.096543     0.7345      6.996   226.6518 1.2381e-01    17.4183      5.459      7.917    12.8167 0.0000e+00
      5.583      0.057     6.7464     63.900     62.285  47.101063     0.7450      6.995   227.2993 1.2383e-01    17.4519      5.473      7.938    12.8148 0.0000e+00
      5.601      0.052     6.7417     64.003     62.248  47.071160     0.7492      6.995   227.5787 1.2382e-01    17.5010      5.494      7.969    12.8117 0.0000e+00
      5.615      0.052     6.7412     64.074     62.221  47.052428     0.7278      6.996   227.7936 1.2376e-01    17.5004      5.510      7.991    12.8105 0.0000e+00
      5.622      0.054     6.7502     64.098     62.234  47.065028     0.7023      6.996   228.4344 1.2374e-01    17.4440      5.512      7.994    12.8091 0.0000e+00
      5.632      0.058     6.7598     64.088     62.275  47.096544     0.6899      6.995   229.3042 1.2375e-01    17.4003      5.518      8.003    12.8078 0.0000e+00
      5.649      0.065     6.7739     64.058     62.303  47.116054     0.6786      6.994   229.8782 1.2377e-01    17.4845      5.541      8.036    12.8051 0.0000e+00
      5.668      0.075     6.7816     64.018     62.295  47.110456     0.6654      6.994   230.0399 1.2376e-01    17.6766      5.560      8.066    12.8064 0.0000e+00
      5.685      0.082     6.7822     63.949     62.269  47.092348     0.6552      6.994   230.0546 1.2373e-01    17.7419      5.572      8.081    12.8115 0.0000e+00
      5.709      0.084     6.7813     63.848     62.263  47.087570     0.6471      6.994   230.4856 1.2374e-01    17.6587      5.595      8.114    12.8112 0.0000e+00
      5.740      0.082     6.7771     63.763     62.303  47.116169     0.6413      6.994   231.3796 1.2373e-01    17.5931      5.632      8.168    12.8080 0.0000e+00
      5.765      0.079     6.7745     63.723     62.310  47.120691     0.6437      6.995   231.9163 1.2375e-01    17.5974      5.659      8.208    12.8087 0.0000e+00
      5.780      0.074     6.7675     63.708     62.256  47.078757     0.6594      6.995   231.9845 1.2381e-01    17.6766      5.670      8.224    12.8113 0.0000e+00
      5.791      0.067     6.7536     63.701     62.226  47.053563     0.6649      6.995   232.0322 1.2382e-01    17.7310      5.677      8.234    12.8112 0.0000e+00
      5.806      0.060     6.7442     63.727     62.251  47.070015     0.6598      6.996   232.3217 1.2381e-01    17.6398      5.692      8.256    12.8086 0.0000e+00
      5.826      0.056     6.7407     63.786     62.277  47.087212     0.6728      6.997   232.9035 1.2381e-01    17.4963      5.715      8.288    12.8083 0.0000e+00
      5.842      0.053     6.7413     63.839     62.257  47.071027     0.6970      6.997   233.4735 1.2384e-01    17.4651      5.731      8.312    12.8078 0.0000e+00
      5.853      0.048     6.7385     63.891     62.249  47.064781     0.7199      6.996   233.9645 1.2386e-01    17.5361      5.739      8.325    12.8054 0.0000e+00
      5.865      0.041     6.7408     63.927     62.262  47.075179     0.7248      6.996   234.6245 1.2382e-01    17.5341      5.751      8.342    12.8035 0.0000e+00
      5.876      0.034     6.7516     63.923     62.251  47.069777     0.6979      6.996   235.5168 1.2381e-01    17.4413      5.764      8.360    12.8019 0.0000e+00
      5.883      0.030     6.7545     63.882     62.237  47.062957     0.6612      6.995   236.4075 1.2384e-01    17.4049      5.770      8.370    12.8008 0.0000e+00
      5.886      0.030     6.7617     63.827     62.228  47.056205     0.6476      6.995   237.0480 1.2384e-01    17.4350      5.772      8.372    12.8004 0.0000e+00
      5.890      0.034     6.7666     63.775     62.225  47.051626     0.6586      6.996   237.4970 1.2380e-01    17.4985      5.775      8.376    12.7998 0.0000e+00
      5.896      0.042     6.7656     63.704     62.254  47.071079     0.6852      6.996   237.7062 1.2375e-01    17.5580      5.780      8.383    12.8027 0.0000e+00
      5.908      0.052     6.7598     63.623     62.295  47.100942     0.7112      6.996   237.6851 1.2375e-01    17.5392      5.791      8.399    12.8081 0.0000e+00
      5.924      0.062     6.7519     63.562     62.290  47.095266     0.7068      6.996   237.9301 1.2380e-01    17.4762      5.809      8.425    12.8076 0.0000e+00
      5.944      0.071     6.7497     63.515     62.252  47.065936     0.6900      6.995   238.5162 1.2383e-01    17.4450      5.830      8.455    12.8040 0.0000e+00
      5.965      0.074     6.7416     63.499     62.250  47.063751     0.6830      6.995   239.0081 1.2376e-01    17.5030      5.849      8.483    12.8027 0.0000e+00
      5.987      0.072     6.7308     63.553     62.259  47.068843     0.6715      6.995   239.0595 1.2365e-01    17.6661      5.871      8.515    12.8011 0.0000e+00
      6.009      0.067     6.7264     63.664     62.254  47.064004     0.6603      6.996   238.9658 1.2365e-01    17.7426      5.895      8.549    12.8001 0.0000e+00
      6.027      0.062     6.7208     63.800     62.260  47.068730     0.6553      6.996   239.3373 1.2376e-01    17.6772      5.913      8.576    12.7997 0.0000e+00
      6.039      0.058     6.7163     63.946     62.250  47.062503     0.6778      6.995   240.0237 1.2385e-01    17.6605      5.924      8.592    12.7988 0.0000e+00
      6.048      0.055     6.7235     64.089     62.235  47.052201     0.7324      6.994   240.7253 1.2381e-01    17.7118      5.929      8.599    12.7981 0.0000e+00
      6.059      0.054     6.7372     64.218     62.260  47.071142     0.7662      6.994   241.2821 1.2377e-01    17.7504      5.938      8.613    12.7966 0.0000e+00
      6.075      0.057     6.7512     64.314     62.300  47.101058     0.7707      6.994   241.5070 1.2379e-01    17.7516      5.957      8.641    12.7966 0.0000e+00
      6.092      0.063     6.7677     64.368     62.294  47.096474     0.7533      6.995   241.5515 1.2373e-01    17.7258      5.976      8.668    12.7981 0.0000e+00
      6.107      0.069     6.7823     64.393     62.271  47.079207     0.7218      6.996   241.6491 1.2369e-01    17.7125      5.989      8.686    12.7988 0.0000e+00
      6.123      0.071     6.7972     64.384     62.276  47.082747     0.7067      6.995   241.9982 1.2372e-01    17.7277      6.002      8.705    12.7990 0.0000e+00
      6.143      0.070     6.8082     64.339     62.267  47.075779     0.7045      6.993   242.4172 1.2372e-01    17.7381      6.024      8.736    12.7985 0.0000e+00
      6.166      0.066     6.8123     64.279     62.244  47.058445     0.7033      6.993   242.6713 1.2372e-01    17.7361      6.050      8.775    12.7985 0.0000e+00
      6.186      0.059     6.8157     64.214     62.250  47.063639     0.7079      6.993   243.0048 1.2369e-01    17.7033      6.069      8.802    12.7990 0.0000e+00
      6.201      0.049     6.8150     64.125     62.265  47.075088     0.7273      6.993   243.3531 1.2367e-01    17.6831      6.081      8.820    12.7990 0.0000e+00
      6.212      0.037     6.8094     64.018     62.260  47.069893     0.7454      6.993   244.1290 1.2364e-01    17.6972      6.094      8.839    12.7987 0.0000e+00
      6.217      0.026     6.8014     63.915     62.254  47.064317     0.7522      6.994   245.5887 1.2362e-01    17.7027      6.099      8.846    12.7986 0.0000e+00
      6.219      0.020     6.7970     63.826     62.264  47.071152     0.7429      6.994   246.7202 1.2364e-01    17.6468      6.098      8.845    12.7996 0.0000e+00
      6.222      0.020     6.7866     63.747     62.289  47.089044     0.7170      6.995   247.0541 1.2370e-01    17.5002      6.102      8.850    12.7995 0.0000e+00
      6.224      0.029     6.7743     63.665     62.290  47.090179     0.7055      6.995   246.7874 1.2375e-01    17.4674      6.104      8.853    12.7981 0.0000e+00
      6.227      0.046     6.7636     63.593     62.282  47.084879     0.7031      6.993   246.6788 1.2374e-01    17.5225      6.104      8.854    12.7970 0.0000e+00
      6.235      0.065     6.7538     63.559     62.286  47.088451     0.6877      6.991   247.2039 1.2371e-01    17.5530      6.111      8.863    12.7961 0.0000e+00
      6.254      0.081     6.7474     63.578     62.262  47.069882     0.6694      6.990   247.8020 1.2374e-01    17.6303      6.128      8.887    12.7956 0.0000e+00
      6.286      0.091     6.7374     63.637     62.237  47.050828     0.6579      6.990   248.3174 1.2380e-01    17.6713      6.162      8.939    12.7959 0.0000e+00
      6.324      0.096     6.7287     63.715     62.235  47.048528     0.6482      6.990   248.7032 1.2380e-01    17.7069      6.205      9.000    12.7969 0.0000e+00
      6.354      0.094     6.7240     63.792     62.228  47.042066     0.6687      6.990   248.7675 1.2379e-01    17.7877      6.236      9.044    12.7974 0.0000e+00
      6.372      0.086     6.7269     63.868     62.222  47.036181     0.7307      6.991   248.9224 1.2381e-01    17.8282      6.250      9.065    12.7971 0.0000e+00
      6.386      0.075     6.7341     63.953     62.230  47.040859     0.7742      6.991   249.5441 1.2381e-01    17.7876      6.261      9.080    12.7969 0.0000e+00
      6.403      0.065     6.7431     64.011     62.225  47.035135     0.7688      6.991   250.1760 1.2380e-01    17.7061      6.279      9.107    12.7959 0.0000e+00
      6.420      0.057     6.7522     64.013     62.220  47.030460     0.7398      6.991   249.9372 1.2381e-01    17.6625      6.298      9.133    12.7949 0.0000e+00
      6.434      0.051     6.7579     63.992     62.244  47.047828     0.7156      6.991   249.2377 1.2381e-01    17.6702      6.310      9.151    12.7945 0.0000e+00
      6.448      0.045     6.7701     63.985     62.254  47.054658     0.7087      6.991   249.2038 1.2376e-01    17.7311      6.324      9.172    12.7930 0.0000e+00
      6.461      0.039     6.7782     63.990     62.245  47.049559     0.7154      6.990   249.6141 1.2376e-01    17.7502      6.338      9.192    12.7912 0.0000e+00
      6.469      0.035     6.7759     63.996     62.243  47.049664     0.7130      6.989   250.2404 1.2383e-01    17.6622      6.345      9.204    12.7904 0.0000e+00
      6.472      0.037     6.7727     64.035     62.251  47.055918     0.6963      6.990   250.4952 1.2388e-01    17.6239      6.346      9.205    12.7895 0.0000e+00
      6.477      0.043     6.7716     64.113     62.259  47.061696     0.6885      6.990   249.7691 1.2383e-01    17.6285      6.350      9.210    12.7888 0.0000e+00
      6.485      0.052     6.7742     64.182     62.251  47.056032     0.7017      6.991   249.1187 1.2375e-01    17.6153      6.359      9.222    12.7904 0.0000e+00
      6.500      0.062     6.7716     64.229     62.244  47.050922     0.7231      6.991   249.1700 1.2375e-01    17.6686      6.371      9.241    12.7929 0.0000e+00
      6.522      0.068     6.7748     64.254     62.260  47.063412     0.7223      6.990   249.5293 1.2374e-01    17.6919      6.395      9.275    12.7922 0.0000e+00
      6.547      0.070     6.7874     64.217     62.282  47.080065     0.7003      6.990   249.7637 1.2373e-01    17.6581      6.423      9.315    12.7915 0.0000e+00
      6.570      0.069     6.7937     64.123     62.259  47.061805     0.6904      6.990   249.8533 1.2381e-01    17.6706      6.446      9.349    12.7927 0.0000e+00
      6.585      0.067     6.7978     64.036     62.220  47.033095     0.7023      6.990   250.0097 1.2383e-01    17.7064      6.460      9.369    12.7930 0.0000e+00
      6.596      0.065     6.8037     63.987     62.243  47.050371     0.7025      6.990   250.1921 1.2373e-01    17.7832      6.468      9.380    12.7929 0.0000e+00
      6.607      0.063     6.7995     63.969     62.283  47.080221     0.6763      6.990   250.5962 1.2369e-01    17.8821      6.477      9.394    12.7927 0.0000e+00
      6.624      0.062     6.7859     63.972     62.279  47.076574     0.6437      6.990   251.1952 1.2369e-01    17.9116      6.494      9.419    12.7923 0.0000e+00
      6.645      0.062     6.7754     63.978     62.272  47.069761     0.6242      6.990   251.5843 1.2372e-01    17.8670      6.517      9.451    12.7926 0.0000e+00
      6.665      0.063     6.7715     63.987     62.262  47.061331     0.6322      6.989   251.6874 1.2375e-01    17.8207      6.537      9.482    12.7934 0.0000e+00
      6.682      0.063     6.7693     63.997     62.232  47.038133     0.6496      6.989   251.5814 1.2379e-01    17.7613      6.555      9.507    12.7929 0.0000e+00
      6.693      0.062     6.7711     63.992     62.239  47.043225     0.6595      6.989   251.7664 1.2380e-01    17.6608      6.564      9.521    12.7919 0.0000e+00
      6.704      0.060     6.7718     63.974     62.261  47.059408     0.6599      6.990   252.2893 1.2373e-01    17.6304      6.570      9.530    12.7911 0.0000e+00
      6.720      0.059     6.7718     63.938     62.242  47.043338     0.6468      6.990   252.4823 1.2367e-01    17.7350      6.589      9.556    12.7901 0.0000e+00
      6.740      0.061     6.7756     63.899     62.238  47.039383     0.6418      6.990   252.5517 1.2367e-01    17.9354      6.611      9.589    12.7895 0.0000e+00
      6.756      0.063     6.7730     63.894     62.286  47.075079     0.6582      6.989   252.8697 1.2369e-01    18.0721      6.626      9.611    12.7898 0.0000e+00
      6.770      0.064     6.7728     63.932     62.311  47.094012     0.6694      6.989   253.4021 1.2378e-01    18.0900      6.638      9.627    12.7890 0.0000e+00
      6.785      0.062     6.7684     63.994     62.291  47.077833     0.6615      6.989   253.9982 1.2388e-01    18.0485      6.653      9.649    12.7875 0.0000e+00
      6.803      0.061     6.7622     64.038     62.281  47.069928     0.6544      6.990   254.4845 1.2384e-01    17.9469      6.671      9.676    12.7867 0.0000e+00
      6.819      0.061     6.7618     64.023     62.271  47.061915     0.6582      6.990   254.8941 1.2376e-01    17.9205      6.689      9.701    12.7864 0.0000e+00
      6.833      0.061     6.7664     63.984     62.248  47.044431     0.6581      6.990   254.9933 1.2376e-01    17.9681      6.701      9.719    12.7860 0.0000e+00
      6.847      0.060     6.7747     63.979     62.254  47.048987     0.6451      6.990   254.9089 1.2380e-01    17.9416      6.713      9.737    12.7854 0.0000e+00
      6.863      0.057     6.7819     63.990     62.259  47.053517     0.6339      6.990   255.1642 1.2382e-01    17.8396      6.730      9.761    12.7852 0.0000e+00
      6.879      0.055     6.7792     64.001     62.235  47.035720     0.6386      6.990   255.6720 1.2382e-01    17.7249      6.747      9.786    12.7851 0.0000e+00
      6.894      0.055     6.7697     64.022     62.220  47.024262     0.6517      6.990   256.0582 1.2381e-01    17.6825      6.762      9.807    12.7855 0.0000e+00
      6.907      0.054     6.7728     64.067     62.243  47.041954     0.6682      6.989   256.0479 1.2377e-01    17.7030      6.774      9.824    12.7851 0.0000e+00
      6.918      0.052     6.7740     64.148     62.265  47.059170     0.6793      6.989   255.8060 1.2373e-01    17.6990      6.783      9.838    12.7852 0.0000e+00
      6.931      0.047     6.7742     64.262     62.243  47.041955     0.6693      6.989   255.8869 1.2370e-01    17.6687      6.796      9.856    12.7860 0.0000e+00
      6.946      0.042     6.7764     64.366     62.220  47.024271     0.6478      6.990   256.3366 1.2368e-01    17.6447      6.813      9.881    12.7858 0.0000e+00
      6.959      0.038     6.7803     64.434     62.237  47.035824     0.6437      6.990   256.8556 1.2369e-01    17.6821      6.827      9.902    12.7862 0.0000e+00
      6.966      0.036     6.7886     64.466     62.262  47.054662     0.6780      6.990   257.2576 1.2377e-01    17.7784      6.832      9.910    12.7868 0.0000e+00
      6.971      0.036     6.8029     64.444     62.270  47.061578     0.7294      6.989   257.4985 1.2387e-01    17.8187      6.836      9.915    12.7859 0.0000e+00
      6.977      0.037     6.8160     64.385     62.263  47.055963     0.7499      6.989   257.7028 1.2388e-01    17.7594      6.840      9.921    12.7853 0.0000e+00
      6.985      0.039     6.8208     64.330     62.257  47.050249     0.7424      6.990   257.9213 1.2383e-01    17.6767      6.848      9.933    12.7850 0.0000e+00
      6.998      0.043     6.8275     64.282     62.265  47.055983     0.7303      6.990   258.1609 1.2381e-01    17.7071      6.862      9.952    12.7845 0.0000e+00
      7.013      0.049     6.8232     64.238     62.274  47.061808     0.7203      6.991   258.4490 1.2378e-01    17.8541      6.878      9.975    12.7852 0.0000e+00
      7.026      0.057     6.8149     64.208     62.269  47.057181     0.7211      6.991   258.5660 1.2375e-01    17.9506      6.892      9.995    12.7855 0.0000e+00
      7.036      0.063     6.8094     64.184     62.278  47.063529     0.7155      6.991   258.3706 1.2377e-01    17.9163      6.900     10.006    12.7846 0.0000e+00
      7.050      0.067     6.8052     64.156     62.294  47.075073     0.6858      6.990   258.1512 1.2378e-01    17.8156      6.910     10.022    12.7836 0.0000e+00
      7.071      0.068     6.7995     64.146     62.287  47.069773     0.6526      6.989   258.0646 1.2375e-01    17.7246      6.932     10.054    12.7830 0.0000e+00
      7.096      0.067     6.7966     64.142     62.278  47.062938     0.6466      6.989   258.0967 1.2378e-01    17.7041      6.960     10.095    12.7825 0.0000e+00
      7.117      0.064     6.7963     64.145     62.268  47.055922     0.6636      6.989   258.2817 1.2384e-01    17.7383      6.982     10.127    12.7819 0.0000e+00
      7.131      0.060     6.7897     64.154     62.258  47.048429     0.6673      6.988   258.6674 1.2381e-01    17.7282      6.996     10.146    12.7816 0.0000e+00
      7.141      0.057     6.7916     64.181     62.241  47.035827     0.6494      6.988   259.1469 1.2379e-01    17.6842      7.003     10.157    12.7816 0.0000e+00
      7.150      0.057     6.7899     64.246     62.234  47.030528     0.6385      6.988   259.2595 1.2382e-01    17.6503      7.010     10.167    12.7818 0.0000e+00
      7.161      0.060     6.7904     64.317     62.257  47.047842     0.6443      6.987   258.9970 1.2378e-01    17.6601      7.020     10.182    12.7817 0.0000e+00
      7.178      0.064     6.7920     64.390     62.264  47.054705     0.6518      6.987   258.9850 1.2366e-01    17.7338      7.037     10.207    12.7816 0.0000e+00
      7.200      0.066     6.7913     64.474     62.255  47.050020     0.6636      6.987   259.2864 1.2361e-01    17.7563      7.060     10.240    12.7817 0.0000e+00
      7.222      0.063     6.8025     64.547     62.259  47.054694     0.6951      6.988   259.6287 1.2366e-01    17.6925      7.084     10.274    12.7819 0.0000e+00
      7.242      0.058     6.8088     64.602     62.249  47.047727     0.7163      6.988   260.1128 1.2376e-01    17.6459      7.105     10.304    12.7825 0.0000e+00
      7.255      0.053     6.8155     64.652     62.224  47.029268     0.7118      6.988   260.5803 1.2381e-01    17.6700      7.117     10.322    12.7830 0.0000e+00
      7.262      0.051     6.8259     64.697     62.215  47.021974     0.7160      6.987   260.6346 1.2377e-01    17.8145      7.122     10.329    12.7846 0.0000e+00
      7.268      0.054     6.8333     64.724     62.216  47.023024     0.7170      6.986   260.4247 1.2373e-01    17.9917      7.128     10.338    12.7864 0.0000e+00
      7.278      0.060     6.8387     64.734     62.241  47.041956     0.7074      6.985   260.7967 1.2375e-01    18.0360      7.136     10.349    12.7872 0.0000e+00
      7.294      0.066     6.8430     64.716     62.266  47.060420     0.7076      6.985   261.7771 1.2380e-01    18.0095      7.150     10.371    12.7877 0.0000e+00
      7.319      0.070     6.8498     64.638     62.261  47.055807     0.7028      6.986   262.2978 1.2381e-01    18.0812      7.177     10.409    12.7870 0.0000e+00
      7.347      0.073     6.8516     64.504     62.254  47.049668     0.6826      6.986   262.3594 1.2376e-01    18.2534      7.208     10.454    12.7867 0.0000e+00
      7.367      0.074     6.8527     64.346     62.255  47.049668     0.6626      6.986   262.4362 1.2375e-01    18.3156      7.228     10.485    12.7871 0.0000e+00
      7.379      0.075     6.8534     64.201     62.263  47.055809     0.6612      6.986   262.6242 1.2379e-01    18.2516      7.236     10.496    12.7873 0.0000e+00
      7.391      0.074     6.8441     64.094     62.268  47.060436     0.6661      6.985   263.1702 1.2384e-01    18.0956      7.246     10.509    12.7866 0.0000e+00
      7.408      0.072     6.8292     64.023     62.242  47.042124     0.6637      6.984   263.7890 1.2383e-01    17.8636      7.262     10.532    12.7855 0.0000e+00
      7.433      0.070     6.8109     63.999     62.220  47.024857     0.6737      6.983   264.0833 1.2379e-01    17.7691      7.287     10.569    12.7848 0.0000e+00
      7.460      0.069     6.7943     64.042     62.243  47.042123     0.6871      6.984   264.2342 1.2380e-01    17.8080      7.320     10.617    12.7843 0.0000e+00
      7.479      0.066     6.7840     64.122     62.268  47.060436     0.6920      6.985   264.6669 1.2383e-01    17.9571      7.339     10.645    12.7856 0.0000e+00
      7.488      0.061     6.7752     64.173     62.263  47.055809     0.6997      6.985   265.2705 1.2378e-01    18.1712      7.342     10.650    12.7875 0.0000e+00
      7.497      0.058     6.7718     64.178     62.257  47.049669     0.7052      6.985   265.6819 1.2370e-01    18.3131      7.350     10.660    12.7860 0.0000e+00
      7.510      0.058     6.7771     64.168     62.258  47.049679     0.7172      6.984   265.9419 1.2372e-01    18.4090      7.364     10.681    12.7847 0.0000e+00
      7.526      0.061     6.7893     64.148     62.265  47.055924     0.7287      6.983   265.6604 1.2376e-01    18.3750      7.379     10.703    12.7861 0.0000e+00
      7.543      0.063     6.7960     64.130     62.267  47.061690     0.7186      6.984   265.0309 1.2377e-01    18.1753      7.397     10.728    12.7857 0.0000e+00
      7.563      0.061     6.7931     64.140     62.256  47.055913     0.7037      6.985   265.0421 1.2378e-01    17.9754      7.417     10.757    12.7839 0.0000e+00
      7.583      0.056     6.7942     64.174     62.247  47.049564     0.6987      6.985   265.6236 1.2377e-01    17.9052      7.437     10.787    12.7818 0.0000e+00
      7.599      0.049     6.7911     64.244     62.244  47.048418     0.7082      6.985   266.2107 1.2372e-01    17.9408      7.456     10.814    12.7825 0.0000e+00
      7.608      0.043     6.7864     64.372     62.233  47.042061     0.7267      6.985   266.1179 1.2370e-01    17.9274      7.464     10.826    12.7877 0.0000e+00
      7.612      0.040     6.7886     64.495     62.223  47.036186     0.7310      6.985   265.5348 1.2373e-01    17.8119      7.463     10.825    12.7901 0.0000e+00
      7.617      0.041     6.7919     64.555     62.229  47.040875     0.7184      6.985   265.5272 1.2379e-01    17.7064      7.467     10.831    12.7896 0.0000e+00
      7.627      0.047     6.7961     64.588     62.222  47.035265     0.7071      6.985   266.0253 1.2385e-01    17.7103      7.479     10.847    12.7905 0.0000e+00
      7.640      0.057     6.8135     64.599     62.218  47.031840     0.6857      6.985   266.3956 1.2386e-01    17.8251      7.491     10.865    12.7920 0.0000e+00
      7.656      0.067     6.8303     64.552     62.263  47.062945     0.6601      6.985   266.3047 1.2386e-01    17.9331      7.506     10.887    12.7936 0.0000e+00
      7.676      0.074     6.8322     64.480     62.307  47.093911     0.6637      6.985   266.1307 1.2388e-01    17.9230      7.527     10.918    12.7939 0.0000e+00
      7.698      0.075     6.8360     64.432     62.300  47.088811     0.6715      6.984   266.2710 1.2386e-01    17.8733      7.549     10.948    12.7934 0.0000e+00
      7.722      0.070     6.8402     64.375     62.268  47.064779     0.6792      6.984   266.4520 1.2382e-01    17.9471      7.572     10.983    12.7933 0.0000e+00
      7.745      0.060     6.8344     64.321     62.259  47.057285     0.6990      6.985   267.0295 1.2375e-01    18.0977      7.598     11.020    12.7906 0.0000e+00
      7.761      0.048     6.8217     64.304     62.266  47.061690     0.7101      6.986   267.9183 1.2372e-01    18.1571      7.615     11.044    12.7880 0.0000e+00
      7.768      0.034     6.8220     64.303     62.258  47.054552     0.7225      6.986   268.1647 1.2373e-01    18.1534      7.619     11.050    12.7892 0.0000e+00
      7.770      0.022     6.8140     64.309     62.233  47.034466     0.7320      6.985   268.0293 1.2369e-01    18.0525      7.620     11.051    12.7898 0.0000e+00
      7.772      0.014     6.8053     64.311     62.201  47.009289     0.7254      6.984   268.2607 1.2369e-01    17.8591      7.621     11.054    12.7887 0.0000e+00
      7.773      0.012     6.8074     64.318     62.195  47.004085     0.7176      6.984   269.1554 1.2373e-01    17.7631      7.623     11.056    12.7877 0.0000e+00
      7.775      0.018     6.8055     64.349     62.235  47.035032     0.7211      6.985   270.1572 1.2373e-01    17.7453      7.624     11.058    12.7870 0.0000e+00
      7.776      0.032     6.8082     64.395     62.275  47.066031     0.7173      6.985   270.3923 1.2372e-01    17.7461      7.625     11.059    12.7860 0.0000e+00
      7.781      0.050     6.8077     64.432     62.269  47.061461     0.7050      6.984   270.1053 1.2375e-01    17.8076      7.629     11.064    12.7849 0.0000e+00
      7.793      0.072     6.8074     64.473     62.244  47.043259     0.7059      6.982   269.7850 1.2376e-01    17.9072      7.638     11.077    12.7844 0.0000e+00
      7.815      0.093     6.8106     64.523     62.236  47.036405     0.7024      6.982   269.7030 1.2376e-01    17.9267      7.660     11.109    12.7847 0.0000e+00
      7.847      0.110     6.8179     64.568     62.246  47.042083     0.6966      6.982   269.8016 1.2377e-01    17.9063      7.693     11.158    12.7855 0.0000e+00
      7.884      0.118     6.8200     64.593     62.256  47.048423     0.7026      6.981   269.7732 1.2378e-01    17.9339      7.731     11.213    12.7862 0.0000e+00
      7.922      0.116     6.8239     64.607     62.261  47.049568     0.6911      6.981   269.7899 1.2381e-01    17.9183      7.771     11.270    12.7867 0.0000e+00
      7.956      0.106     6.8308     64.647     62.271  47.055916     0.6574      6.981   269.7451 1.2381e-01    17.8887      7.806     11.322    12.7854 0.0000e+00
      7.981      0.089     6.8353     64.697     62.281  47.061693     0.6365      6.982   269.4894 1.2382e-01    17.8837      7.829     11.356    12.7840 0.0000e+00
      7.999      0.069     6.8399     64.712     62.275  47.055927     0.6545      6.982   269.6237 1.2384e-01    17.9947      7.846     11.379    12.7829 0.0000e+00
      8.012      0.052     6.8374     64.695     62.268  47.049682     0.7009      6.982   270.2507 1.2380e-01    18.2393      7.861     11.399    12.7812 0.0000e+00
      8.021      0.041     6.8435     64.662     62.268  47.049682     0.7227      6.982   270.7894 1.2379e-01    18.3486      7.867     11.410    12.7797 0.0000e+00
      8.026      0.037     6.8519     64.613     62.276  47.055926     0.7104      6.982   270.8021 1.2380e-01    18.2910      7.871     11.416    12.7786 0.0000e+00
      8.031      0.041     6.8528     64.567     62.284  47.061689     0.7103      6.982   270.4050 1.2373e-01    18.1567      7.875     11.422    12.7776 0.0000e+00
      8.039      0.048     6.8495     64.530     62.275  47.055865     0.7208      6.982   270.0314 1.2368e-01    18.0234      7.881     11.431    12.7770 0.0000e+00
      8.051      0.057     6.8474     64.486     62.264  47.048996     0.7218      6.982   270.0708 1.2378e-01    18.0117      7.894     11.449    12.7770 0.0000e+00
      8.070      0.067     6.8411     64.459     62.254  47.042127     0.7224      6.984   270.3650 1.2386e-01    18.0496      7.911     11.474    12.7767 0.0000e+00
      8.093      0.077     6.8350     64.446     62.247  47.036304     0.7030      6.984   270.2327 1.2383e-01    18.0033      7.937     11.511    12.7761 0.0000e+00
      8.116      0.086     6.8338     64.426     62.256  47.042075     0.6620      6.983   269.8485 1.2379e-01    17.8964      7.961     11.547    12.7768 0.0000e+00
      8.134      0.091     6.8257     64.396     62.266  47.048414     0.6509      6.983   269.6777 1.2384e-01    17.8842      7.976     11.568    12.7791 0.0000e+00
      8.156      0.089     6.8238     64.382     62.268  47.049455     0.6682      6.982   269.8023 1.2389e-01    17.9574      7.994     11.595    12.7797 0.0000e+00
      8.185      0.081     6.8237     64.389     62.276  47.054657     0.6884      6.982   270.2358 1.2386e-01    17.9959      8.027     11.643    12.7786 0.0000e+00
      8.214      0.072     6.8217     64.353     62.268  47.047832     0.7128      6.982   270.7037 1.2377e-01    17.9745      8.059     11.689    12.7781 0.0000e+00
      8.233      0.063     6.8175     64.252     62.245  47.030419     0.7215      6.982   270.9854 1.2366e-01    17.9037      8.078     11.716    12.7775 0.0000e+00
      8.241      0.054     6.8144     64.149     62.250  47.034573     0.7187      6.983   271.0609 1.2365e-01    17.8910      8.084     11.724    12.7764 0.0000e+00
      8.245      0.047     6.8198     64.087     62.249  47.034573     0.7280      6.983   271.0998 1.2371e-01    17.9580      8.084     11.725    12.7755 0.0000e+00
      8.252      0.044     6.8176     64.052     62.242  47.030419     0.7346      6.983   271.5424 1.2377e-01    17.8933      8.089     11.733    12.7750 0.0000e+00
      8.266      0.046     6.8025     64.022     62.264  47.047838     0.7244      6.983   272.1957 1.2382e-01    17.7233      8.105     11.756    12.7751 0.0000e+00
      8.282      0.051     6.7897     63.968     62.272  47.054720     0.7040      6.983   272.4607 1.2387e-01    17.6452      8.123     11.780    12.7754 0.0000e+00
      8.295      0.056     6.7850     63.886     62.266  47.050142     0.6965      6.983   272.5949 1.2391e-01    17.6663      8.134     11.798    12.7760 0.0000e+00
      8.309      0.060     6.7810     63.806     62.274  47.055971     0.7004      6.983   273.0435 1.2389e-01    17.7396      8.147     11.817    12.7772 0.0000e+00
      8.324      0.063     6.7793     63.726     62.282  47.061709     0.6843      6.984   273.4971 1.2382e-01    17.7798      8.164     11.840    12.7780 0.0000e+00
      8.339      0.067     6.7746     63.664     62.275  47.056043     0.6596      6.984   273.6914 1.2379e-01    17.7427      8.179     11.862    12.7782 0.0000e+00
      8.356      0.068     6.7626     63.666     62.268  47.050944     0.6421      6.983   273.8440 1.2375e-01    17.6658      8.194     11.884    12.7781 0.0000e+00
      8.376      0.066     6.7557     63.720     62.283  47.063546     0.6405      6.983   274.0521 1.2373e-01    17.7045      8.212     11.911    12.7780 0.0000e+00
      8.398      0.062     6.7477     63.819     62.305  47.081437     0.6570      6.982   274.1419 1.2376e-01    17.9031      8.238     11.948    12.7778 0.0000e+00
      8.416      0.059     6.7363     63.969     62.295  47.076806     0.6661      6.982   274.1552 1.2383e-01    18.0186      8.257     11.976    12.7773 0.0000e+00
      8.426      0.056     6.7395     64.129     62.282  47.071038     0.6676      6.982   274.3850 1.2381e-01    17.9732      8.264     11.986    12.7774 0.0000e+00
      8.435      0.052     6.7448     64.284     62.284  47.075192     0.6842      6.982   274.6837 1.2371e-01    17.8999      8.270     11.995    12.7789 0.0000e+00
      8.446      0.049     6.7533     64.423     62.270  47.063545     0.7248      6.983   274.7562 1.2364e-01    17.9186      8.281     12.012    12.7799 0.0000e+00
      8.461      0.048     6.7727     64.520     62.268  47.057189     0.7594      6.984   274.5731 1.2366e-01    17.9944      8.298     12.035    12.7811 0.0000e+00
      8.476      0.047     6.7884     64.567     62.280  47.061815     0.7689      6.984   274.3624 1.2371e-01    17.9968      8.313     12.057    12.7858 0.0000e+00
      8.489      0.045     6.8045     64.589     62.278  47.055991     0.7564      6.984   274.4452 1.2372e-01    17.8796      8.326     12.076    12.7895 0.0000e+00
      8.500      0.044     6.8212     64.614     62.273  47.050259     0.7250      6.983   274.8001 1.2367e-01    17.7045      8.337     12.090    12.7873 0.0000e+00
      8.509      0.044     6.8323     64.638     62.282  47.055992     0.7057      6.983   274.9541 1.2366e-01    17.6216      8.345     12.104    12.7828 0.0000e+00
      8.517      0.046     6.8370     64.642     62.291  47.061817     0.6980      6.983   274.7585 1.2373e-01    17.6621      8.352     12.114    12.7789 0.0000e+00
      8.525      0.050     6.8380     64.605     62.285  47.057189     0.6900      6.983   274.7583 1.2376e-01    17.7167      8.358     12.122    12.7757 0.0000e+00
      8.540      0.054     6.8417     64.534     62.290  47.063526     0.6747      6.983   275.0364 1.2373e-01    17.7692      8.372     12.142    12.7740 0.0000e+00
      8.559      0.058     6.8449     64.468     62.298  47.074956     0.6462      6.982   275.1969 1.2375e-01    17.8529      8.395     12.175    12.7731 0.0000e+00
      8.578      0.061     6.8465     64.419     62.287  47.068417     0.6290      6.981   275.2363 1.2376e-01    17.9082      8.415     12.205    12.7727 0.0000e+00
      8.592      0.061     6.8432     64.387     62.263  47.047949     0.6327      6.981   275.3405 1.2375e-01    17.9602      8.426     12.221    12.7717 0.0000e+00
      8.606      0.058     6.8320     64.347     62.228  47.017943     0.6658      6.981   275.4240 1.2375e-01    18.0372      8.437     12.239    12.7731 0.0000e+00
      8.622      0.053     6.8252     64.285     62.239  47.023043     0.7058      6.981   275.4716 1.2379e-01    18.0202      8.457     12.264    12.7797 0.0000e+00
      8.637      0.049     6.8184     64.241     62.273  47.046119     0.7159      6.981   275.5717 1.2391e-01    17.9249      8.472     12.287    12.7823 0.0000e+00
      8.649      0.047     6.8169     64.226     62.270  47.043013     0.7130      6.981   275.6873 1.2401e-01    17.8752      8.482     12.302    12.7788 0.0000e+00
      8.659      0.044     6.8154     64.234     62.279  47.048974     0.6955      6.980   275.8382 1.2396e-01    17.9326      8.492     12.317    12.7752 0.0000e+00
      8.668      0.041     6.8049     64.270     62.288  47.054702     0.6718      6.980   276.0191 1.2386e-01    18.0717      8.500     12.329    12.7727 0.0000e+00
      8.678      0.038     6.8018     64.335     62.281  47.048780     0.6682      6.980   276.2401 1.2378e-01    18.1228      8.508     12.341    12.7710 0.0000e+00
      8.689      0.036     6.8003     64.405     62.271  47.040862     0.6683      6.981   276.4447 1.2374e-01    18.1068      8.522     12.361    12.7698 0.0000e+00
      8.699      0.035     6.8009     64.473     62.247  47.022456     0.6556      6.981   276.5137 1.2369e-01    18.1858      8.533     12.376    12.7692 0.0000e+00
      8.707      0.033     6.8046     64.551     62.239  47.016686     0.6474      6.981   276.5586 1.2364e-01    18.2918      8.538     12.385    12.7692 0.0000e+00
      8.714      0.030     6.8126     64.611     62.263  47.034576     0.6608      6.982   276.6429 1.2369e-01    18.3636      8.545     12.394    12.7687 0.0000e+00
      8.721      0.027     6.8212     64.644     62.280  47.048313     0.6686      6.982   276.7586 1.2376e-01    18.3711      8.553     12.405    12.7683 0.0000e+00
      8.729      0.025     6.8259     64.687     62.290  47.055806     0.6669      6.981   277.0111 1.2377e-01    18.1426      8.560     12.415    12.7681 0.0000e+00
      8.735      0.026     6.8370     64.730     62.298  47.061686     0.6644      6.981   277.2008 1.2381e-01    17.7871      8.568     12.426    12.7681 0.0000e+00
      8.740      0.028     6.8442     64.737     62.291  47.055920     0.6556      6.982   277.1598 1.2383e-01    17.6592      8.572     12.433    12.7681 0.0000e+00
      8.745      0.029     6.8442     64.720     62.282  47.049572     0.6608      6.982   277.1182 1.2387e-01    17.7245      8.573     12.435    12.7682 0.0000e+00
      8.752      0.032     6.8498     64.682     62.280  47.048427     0.6685      6.982   277.2134 1.2388e-01    17.7563      8.581     12.444    12.7683 0.0000e+00
      8.765      0.039     6.8573     64.628     62.272  47.042070     0.6646      6.981   277.3644 1.2386e-01    17.7022      8.596     12.467    12.7682 0.0000e+00
      8.775      0.049     6.8560     64.585     62.265  47.036195     0.6558      6.980   277.3949 1.2384e-01    17.6170      8.607     12.485    12.7681 0.0000e+00
      8.782      0.060     6.8539     64.535     62.271  47.040874     0.6458      6.980   277.2382 1.2378e-01    17.6139      8.610     12.488    12.7683 0.0000e+00
      8.794      0.066     6.8515     64.494     62.263  47.035150     0.6515      6.979   277.1911 1.2373e-01    17.6994      8.618     12.499    12.7682 0.0000e+00
      8.818      0.069     6.8418     64.490     62.257  47.030475     0.6670      6.979   277.5998 1.2377e-01    17.7955      8.645     12.539    12.7679 0.0000e+00
      8.848      0.069     6.8407     64.485     62.280  47.047842     0.6753      6.979   278.2220 1.2383e-01    17.8890      8.681     12.590    12.7678 0.0000e+00
      8.869      0.066     6.8347     64.472     62.289  47.054671     0.6682      6.979   278.6054 1.2384e-01    17.9418      8.701     12.620    12.7679 0.0000e+00
      8.880      0.058     6.8261     64.472     62.280  47.049563     0.6478      6.978   278.7075 1.2380e-01    17.9210      8.709     12.632    12.7679 0.0000e+00
      8.890      0.047     6.8310     64.482     62.278  47.049563     0.6536      6.978   278.6819 1.2386e-01    17.9113      8.717     12.644    12.7679 0.0000e+00
      8.900      0.038     6.8291     64.511     62.283  47.054672     0.6966      6.979   278.8974 1.2393e-01    17.9610      8.728     12.659    12.7679 0.0000e+00
      8.909      0.035     6.8265     64.565     62.272  47.047847     0.7263      6.979   279.4213 1.2381e-01    18.0092      8.738     12.673    12.7685 0.0000e+00
      8.915      0.037     6.8272     64.621     62.250  47.030537     0.7217      6.980   279.7673 1.2368e-01    18.0160      8.742     12.679    12.7691 0.0000e+00
      8.921      0.041     6.8276     64.664     62.259  47.035837     0.7158      6.980   279.8121 1.2371e-01    18.0092      8.747     12.686    12.7702 0.0000e+00
      8.931      0.043     6.8295     64.695     62.279  47.048439     0.7211      6.980   279.8768 1.2372e-01    18.0291      8.757     12.701    12.7721 0.0000e+00
      8.946      0.046     6.8365     64.714     62.290  47.055932     0.7197      6.980   280.0329 1.2369e-01    18.0521      8.772     12.723    12.7735 0.0000e+00
      8.961      0.050     6.8431     64.689     62.300  47.062949     0.7240      6.981   280.1510 1.2371e-01    18.0476      8.790     12.748    12.7732 0.0000e+00
      8.975      0.054     6.8479     64.605     62.309  47.069793     0.7308      6.981   280.2721 1.2373e-01    18.0776      8.803     12.768    12.7712 0.0000e+00
      8.986      0.056     6.8508     64.526     62.316  47.075198     0.7184      6.980   280.4654 1.2372e-01    18.2095      8.811     12.780    12.7694 0.0000e+00
      8.998      0.058     6.8543     64.488     62.302  47.064800     0.7163      6.980   280.6808 1.2376e-01    18.3444      8.821     12.794    12.7687 0.0000e+00
      9.014      0.061     6.8544     64.508     62.311  47.071045     0.7306      6.980   280.4668 1.2384e-01    18.4109      8.839     12.819    12.7682 0.0000e+00
      9.032      0.063     6.8398     64.569     62.332  47.087215     0.7334      6.979   279.9436 1.2385e-01    18.5691      8.858     12.848    12.7683 0.0000e+00
      9.050      0.064     6.8319     64.638     62.307  47.069859     0.7246      6.979   280.0333 1.2380e-01    18.8223      8.874     12.871    12.7685 0.0000e+00
      9.068      0.062     6.8269     64.720     62.282  47.051649     0.7070      6.979   280.5188 1.2376e-01    18.9786      8.892     12.898    12.7684 0.0000e+00
      9.085      0.059     6.8286     64.801     62.290  47.057497     0.6955      6.978   280.3934 1.2375e-01    19.0249      8.911     12.925    12.7680 0.0000e+00
      9.099      0.056     6.8391     64.841     62.316  47.077077     0.7020      6.978   279.8074 1.2376e-01    19.0401      8.924     12.943    12.7680 0.0000e+00
      9.109      0.053     6.8432     64.809     62.346  47.097939     0.7350      6.978   279.6285 1.2374e-01    19.4011      8.932     12.953    12.7694 0.0000e+00
      9.120      0.051     6.8534     64.715     62.376  47.119273     0.7868      6.978   279.9507 1.2370e-01    20.1447      8.943     12.970    12.7705 0.0000e+00
      9.135      0.051     6.8633     64.609     62.411  47.144553     0.8040      6.978   280.3481 1.2375e-01    20.5852      8.959     12.994    12.7706 0.0000e+00
      9.149      0.053     6.8693     64.520     62.420  47.149656     0.7930      6.979   280.4753 1.2382e-01    20.6277      8.973     13.014    12.7700 0.0000e+00
      9.162      0.056     6.8662     64.460     62.378  47.117479     0.7871      6.980   280.2846 1.2380e-01    20.5895      8.984     13.030    12.7685 0.0000e+00
      9.175      0.060     6.8529     64.420     62.318  47.072940     0.7756      6.980   279.9354 1.2371e-01    20.5337      8.997     13.049    12.7673 0.0000e+00
      9.189      0.064     6.8419     64.394     62.294  47.055551     0.7615      6.980   279.5220 1.2370e-01    20.4996      9.011     13.068    12.7664 0.0000e+00
      9.207      0.067     6.8312     64.372     62.349  47.097693     0.7585      6.979   279.2442 1.2378e-01    20.5868      9.027     13.093    12.7650 0.0000e+00
      9.227      0.068     6.8264     64.333     62.654  47.328522     0.8390      6.979   279.4157 1.2386e-01    22.1004      9.049     13.124    12.7643 0.0000e+00
      9.247      0.067     6.8220     64.289     63.129  47.687897     1.0022      6.979   279.9605 1.2384e-01    25.0345      9.068     13.152    12.7651 0.0000e+00
      9.266      0.064     6.8187     64.256     63.394  47.887522     1.1087      6.979   280.3253 1.2374e-01    26.9249      9.088     13.179    12.7663 0.0000e+00
      9.282      0.058     6.8186     64.251     63.329  47.837512     1.2274      6.979   280.2997 1.2371e-01    29.1752      9.105     13.205    12.7667 0.0000e+00
      9.295      0.050     6.8125     64.270     63.089  47.654619     2.4634      6.978   280.5967 1.2376e-01    51.9700      9.115     13.221    12.7672 0.0000e+00
      9.306      0.042     6.8079     64.259     62.992  47.580840     4.7493      6.976   281.4209 1.2381e-01    93.9231      9.125     13.235    12.7670 0.0000e+00
      9.316      0.036     6.8039     64.144     63.076  47.643847     6.0105      6.976   281.8342 1.2384e-01   117.2900      9.137     13.253    12.7662 0.0000e+00
      9.325      0.031     6.8025     63.875     63.091  47.654567     6.1687      6.976   281.6358 1.2384e-01   124.2461      9.146     13.266    12.7656 0.0000e+00
      9.330      0.029     6.8077     63.451     63.334  47.837434     6.5454      6.976   281.3445 1.2384e-01   177.7897      9.149     13.271    12.7646 0.0000e+00
      9.335      0.030     6.8095     62.925     64.659  48.839024     7.2104      6.976   281.4958 1.2384e-01   275.5526      9.154     13.277    12.7640 0.0000e+00
      9.340      0.031     6.7996     62.379     68.364  51.637691     7.5678      6.976   282.0019 1.2381e-01   328.3385      9.159     13.284    12.7639 0.0000e+00
      9.348      0.035     6.7710     61.875     89.047  67.262551     7.5798      6.976   282.0446 1.2380e-01   327.5053      9.166     13.294    12.7633 0.0000e+00
      9.359      0.040     6.7243     61.439    170.780 129.003121     7.4050      6.975   281.6673 1.2381e-01   265.2732      9.177     13.311    12.7628 0.0000e+00
      9.371      0.044     6.6647     61.070    297.790 224.936540     5.5043      6.975   281.3122 1.2382e-01   132.7627      9.191     13.330    12.7630 0.0000e+00
      9.383      0.046     6.6043     60.725    380.591 287.458287     2.0270      6.975   280.6756 1.2386e-01    33.3648      9.202     13.346    12.7637 0.0000e+00
      9.396      0.047     6.5507     60.309    405.400 306.169661     0.1359      6.975   279.6489 1.2388e-01     6.8083      9.213     13.362    12.7644 0.0000e+00
      9.409      0.046     6.5020     59.715    412.829 311.767678    -0.0250      6.975   278.5350 1.2384e-01     3.8522      9.227     13.382    12.7662 0.0000e+00
      9.421      0.043     6.4613     58.895    415.775 313.989233    -0.0341      6.975   277.7043 1.2384e-01     2.5070      9.239     13.400    12.7665 0.0000e+00
      9.431      0.041     6.4272     57.852    417.142 315.021903    -0.0408      6.974   277.6930 1.2384e-01     1.8157      9.250     13.415    12.7620 0.0000e+00
      9.441      0.038     6.3890     56.631    418.113 315.762994    -0.0562      6.974   278.2259 1.2382e-01     1.6766      9.259     13.429    12.7573 0.0000e+00
      9.450      0.035     6.3277     55.360    418.838 316.324152    -0.0627      6.974   278.3827 1.2379e-01     1.5771      9.267     13.441    12.7566 0.0000e+00
      9.459      0.032     6.2395     54.148    419.437 316.789277    -0.0523      6.974   278.1271 1.2377e-01     1.4331      9.276     13.454    12.7565 0.0000e+00
      9.466      0.029     6.1302     53.071    420.054 317.269707    -0.0472      6.974   278.0604 1.2375e-01     1.2676      9.283     13.464    12.7559 0.0000e+00
      9.474      0.025     5.9932     52.177    420.511 317.629832    -0.0507      6.974   278.2641 1.2375e-01     1.2147      9.291     13.475    12.7572 0.0000e+00
      9.480      0.020     5.8550     51.479    420.721 317.798284    -0.0443      6.974   278.4388 1.2374e-01     1.0328      9.297     13.485    12.7592 0.0000e+00
      9.485      0.016     5.7246     51.004    420.843 317.891142    -0.0278      6.974   278.2799 1.2375e-01     0.6060      9.302     13.492    12.7604 0.0000e+00
      9.488      0.012     5.6067     50.694    420.968 317.980572    -0.0187      6.974   277.9777 1.2382e-01     0.3584      9.305     13.496    12.7621 0.0000e+00
      9.490      0.010     5.5145     50.449    421.144 318.107550    -0.0250      6.974   277.9686 1.2387e-01     0.3277      9.306     13.497    12.7644 0.0000e+00
      9.490      0.008     5.4363     50.239    421.362 318.268394    -0.0457      6.973   278.0837 1.2382e-01     0.2682      9.306     13.498    12.7657 0.0000e+00
      9.491      0.008     5.3891     50.054    421.517 318.381290    -0.0693      6.972   278.1647 1.2376e-01     0.1182      9.307     13.498    12.7655 0.0000e+00
      9.493      0.008     5.3620     49.864    421.606 318.443216    -0.0781      6.968   278.0884 1.2380e-01    -0.0520      9.309     13.502    12.7648 0.0000e+00
      9.497      0.009     5.3362     49.655    421.776 318.566782    -0.0770      6.957   277.9354 1.2385e-01    -0.1156      9.313     13.508    12.7639 0.0000e+00
      9.499      0.010     5.3136     49.420    422.063 318.781594    -0.0804      6.929   278.0342 1.2382e-01    -0.1044      9.316     13.512    12.7635 0.0000e+00
      9.501      0.011     5.2964     49.124    422.328 318.981731    -0.0784      6.880   277.7346 1.2372e-01    -0.0529      9.317     13.514    12.7632 0.0000e+00
      9.503      0.011     5.2765     48.775    422.508 319.120869    -0.0606      6.820   276.6371 1.2367e-01     0.0291      9.319     13.516    12.7624 0.0000e+00
      9.506      0.011     5.2534     48.420    422.662 319.241497    -0.0392      6.768   275.4326 1.2368e-01     0.0661      9.322     13.519    12.7617 0.0000e+00
      9.509      0.010     5.2320     48.063    422.793 319.346496    -0.0369      6.731   274.3566 1.2372e-01     0.0535      9.326     13.525    12.7615 0.0000e+00
      9.513      0.009     5.1998     47.700    422.887 319.425336    -0.0491      6.708   273.1776 1.2380e-01     0.0821      9.329     13.532    12.7616 0.0000e+00
      9.516      0.008     5.1595     47.359    422.957 319.487031    -0.0621      6.696   271.7591 1.2385e-01     0.1723      9.332     13.536    12.7619 0.0000e+00
      9.518      0.007     5.1235     47.199    422.986 319.513418    -0.0694      6.693   270.9729 1.2381e-01     0.2222      9.334     13.538    12.7624 0.0000e+00
      9.518 -9.990e-29     5.0847 -9.990e-29 -9.990e-29 -9.990e-29 -9.990e-29 -9.990e-29 -9.990e-29 1.2380e-01 -9.990e-29      9.334     13.538    12.7632 0.0000e+00
      9.518 -9.990e-29     5.0474 -9.990e-29 -9.990e-29 -9.990e-29 -9.990e-29 -9.990e-29 -9.990e-29 1.2384e-01 -9.990e-29      9.334     13.538    12.7639 0.0000e+00
      9.519 -9.990e-29     5.0049 -9.990e-29 -9.990e-29 -9.990e-29 -9.990e-29 -9.990e-29 -9.990e-29 1.2384e-01 -9.990e-29      9.335     13.539    12.7652 0.0000e+00
      9.519 -9.990e-29     4.9757 -9.990e-29 -9.990e-29 -9.990e-29 -9.990e-29 -9.990e-29 -9.990e-29 1.2381e-01 -9.990e-29      9.335     13.539    12.7664 0.0000e+00
