* Sea-Bird SBE19plus  Data File:
* FileName = C:\DATA\082819_fcr_0005.hex
* Software version 2.8.0.119 SB_Terminal.dll
* Temperature SN = 7809
* Conductivity SN = 7809
* System UpLoad Time = Aug 28 2019 11:50:47
* <ApplicationData>
* <Seaterm232>
* <SoftwareVersion>2.8.0.119</SoftwareVersion>
* <BuildDate>07-Nov-2018</BuildDate>
* </Seaterm232>
* </ApplicationData>
* cast   5 28 Aug 2019 11:14:25 samples 2160 to 3318, avg = 1, stop = mag switch
# nquan = 15
# nvalues = 991                         
# units = specified
# name 0 = depFM: Depth [fresh water, m]
# name 1 = dz/dtM: Descent Rate [m/s]
# name 2 = sbeox0ML/L: Oxygen, SBE 43 [ml/l]
# name 3 = sbeox0PS: Oxygen, SBE 43 [% saturation]
# name 4 = specc: Specific Conductance [uS/cm]
# name 5 = c0uS/cm: Conductivity [uS/cm]
# name 6 = flECO-AFL: Fluorescence, WET Labs ECO-AFL/FL [mg/m^3]
# name 7 = ph: pH
# name 8 = orp: Oxidation Reduction Potential [mV]
# name 9 = par/sat/log: PAR/Logarithmic, Satlantic
# name 10 = turbWETntu0: Turbidity, WET Labs ECO [NTU]
# name 11 = prdM: Pressure, Strain Gauge [db]
# name 12 = prdE: Pressure, Strain Gauge [psi]
# name 13 = tv290C: Temperature [ITS-90, deg C]
# name 14 = flag:  0.000e+00
# span 0 =     -0.500,      9.491       
# span 1 =     -0.010,      0.215       
# span 2 =    -0.3493,     6.1744       
# span 3 =     -5.370,    102.228       
# span 4 =     35.436,    209.044       
# span 5 =  34.003267, 153.267460       
# span 6 =     0.0296,    16.8122       
# span 7 =      6.225,      7.735       
# span 8 =    61.0653,   264.2511       
# span 9 = 1.2354e-01, 3.8794e+02       
# span 10 =     0.2879,    11.0731      
# span 11 =     -0.500,      9.308      
# span 12 =     -0.725,     13.501      
# span 13 =    11.5696,    23.6931      
# span 14 = 0.0000e+00, 0.0000e+00      
# interval = seconds: 0.25
# start_time = Aug 28 2019 11:14:25 [Instrument's time stamp, header]
# bad_flag = -9.990e-29
# <Sensors count="9" >
#   <sensor Channel="1" >
#     <!-- Count, Temperature -->
#     <TemperatureSensor SensorID="58" >
#       <SerialNumber>7809</SerialNumber>
#       <CalibrationDate>24-Mar-19</CalibrationDate>
#       <A0>1.21792325e-003</A0>
#       <A1>2.81669265e-004</A1>
#       <A2>-1.60333336e-006</A2>
#       <A3>1.98414625e-007</A3>
#       <Slope>1.00000000</Slope>
#       <Offset>0.0000</Offset>
#     </TemperatureSensor>
#   </sensor>
#   <sensor Channel="2" >
#     <!-- Frequency 0, Conductivity -->
#     <ConductivitySensor SensorID="3" >
#       <SerialNumber>7809</SerialNumber>
#       <CalibrationDate>24-Mar-19</CalibrationDate>
#       <UseG_J>1</UseG_J>
#       <!-- Cell const and series R are applicable only for wide range sensors. -->
#       <SeriesR>0.0000</SeriesR>
#       <CellConst>2000.0000</CellConst>
#       <ConductivityType>0</ConductivityType>
#       <Coefficients equation="0" >
#         <A>0.00000000e+000</A>
#         <B>0.00000000e+000</B>
#         <C>0.00000000e+000</C>
#         <D>0.00000000e+000</D>
#         <M>0.0</M>
#         <CPcor>-9.57000000e-008</CPcor>
#       </Coefficients>
#       <Coefficients equation="1" >
#         <G>-1.00589325e+000</G>
#         <H>1.26816302e-001</H>
#         <I>-1.51560448e-004</I>
#         <J>2.67137274e-005</J>
#         <CPcor>-9.57000000e-008</CPcor>
#         <CTcor>3.2500e-006</CTcor>
#         <!-- WBOTC not applicable unless ConductivityType = 1. -->
#         <WBOTC>0.00000000e+000</WBOTC>
#       </Coefficients>
#       <Slope>1.00000000</Slope>
#       <Offset>0.00000</Offset>
#     </ConductivitySensor>
#   </sensor>
#   <sensor Channel="3" >
#     <!-- Count, Pressure, Strain Gauge -->
#     <PressureSensor SensorID="46" >
#       <SerialNumber>7809</SerialNumber>
#       <CalibrationDate>11-Mar-19</CalibrationDate>
#       <PA0>4.56561833e-002</PA0>
#       <PA1>4.85095118e-004</PA1>
#       <PA2>-2.88327090e-012</PA2>
#       <PTEMPA0>-5.48784562e+001</PTEMPA0>
#       <PTEMPA1>5.53756816e+001</PTEMPA1>
#       <PTEMPA2>-5.86727098e-001</PTEMPA2>
#       <PTCA0>5.25246745e+005</PTCA0>
#       <PTCA1>1.22304214e+001</PTCA1>
#       <PTCA2>-3.56745036e-001</PTCA2>
#       <PTCB0>2.51668750e+001</PTCB0>
#       <PTCB1>3.75000000e-004</PTCB1>
#       <PTCB2>0.00000000e+000</PTCB2>
#       <Offset>0.000000</Offset>
#     </PressureSensor>
#   </sensor>
#   <sensor Channel="4" >
#     <!-- A/D voltage 0, Oxygen, SBE 43 -->
#     <OxygenSensor SensorID="38" >
#       <SerialNumber>0434</SerialNumber>
#       <CalibrationDate>13-Apr-19</CalibrationDate>
#       <Use2007Equation>1</Use2007Equation>
#       <CalibrationCoefficients equation="0" >
#         <!-- Coefficients for Owens-Millard equation. -->
#         <Boc>0.0000</Boc>
#         <Soc>0.0000e+000</Soc>
#         <offset>0.0000</offset>
#         <Pcor>0.00e+000</Pcor>
#         <Tcor>0.0000</Tcor>
#         <Tau>0.0</Tau>
#       </CalibrationCoefficients>
#       <CalibrationCoefficients equation="1" >
#         <!-- Coefficients for Sea-Bird equation - SBE calibration in 2007 and later. -->
#         <Soc>4.2007e-001</Soc>
#         <offset>-0.6109</offset>
#         <A>-4.3656e-003</A>
#         <B> 1.7017e-004</B>
#         <C>-2.5341e-006</C>
#         <D0> 2.5826e+000</D0>
#         <D1> 1.92634e-004</D1>
#         <D2>-4.64803e-002</D2>
#         <E> 3.6000e-002</E>
#         <Tau20> 1.1800</Tau20>
#         <H1>-3.3000e-002</H1>
#         <H2> 5.0000e+003</H2>
#         <H3> 1.4500e+003</H3>
#       </CalibrationCoefficients>
#     </OxygenSensor>
#   </sensor>
#   <sensor Channel="5" >
#     <!-- A/D voltage 1, PAR/Logarithmic, Satlantic -->
#     <PARLog_SatlanticSensor SensorID="76" >
#       <SerialNumber>1122</SerialNumber>
#       <CalibrationDate>08-May-2019</CalibrationDate>
#       <a0>9.7456e-001</a0>
#       <a1>8.1640e-001</a1>
#       <Im>1.3589e+000</Im>
#       <Multiplier>1.0000e+000</Multiplier>
#     </PARLog_SatlanticSensor>
#   </sensor>
#   <sensor Channel="6" >
#     <!-- A/D voltage 2, pH -->
#     <pH_Sensor SensorID="43" >
#       <SerialNumber>0363</SerialNumber>
#       <CalibrationDate>15-Apr-19</CalibrationDate>
#       <Slope>4.5952</Slope>
#       <Offset>2.5370</Offset>
#     </pH_Sensor>
#   </sensor>
#   <sensor Channel="7" >
#     <!-- A/D voltage 3, Oxidation Reduction Potential -->
#     <OxidationReductionPotentialSensor SensorID="41" >
#       <SerialNumber>0363</SerialNumber>
#       <CalibrationDate>15-Apr-19</CalibrationDate>
#       <B>2.499480</B>
#       <M>-0.496195</M>
#       <Offset>0.0</Offset>
#     </OxidationReductionPotentialSensor>
#   </sensor>
#   <sensor Channel="8" >
#     <!-- A/D voltage 4, Fluorometer, WET Labs ECO-AFL/FL -->
#     <FluoroWetlabECO_AFL_FL_Sensor SensorID="20" >
#       <SerialNumber>FLNTURT-2496</SerialNumber>
#       <CalibrationDate>08-May-2019</CalibrationDate>
#       <ScaleFactor>5.00000000e+001</ScaleFactor>
#       <!-- Dark output -->
#       <Vblank>0.0550</Vblank>
#     </FluoroWetlabECO_AFL_FL_Sensor>
#   </sensor>
#   <sensor Channel="9" >
#     <!-- A/D voltage 5, Turbidity Meter, WET Labs, ECO-NTU -->
#     <TurbidityMeter SensorID="67" >
#       <SerialNumber>FLNTURT-2496</SerialNumber>
#       <CalibrationDate>08-May-2019</CalibrationDate>
#       <ScaleFactor>189.000000</ScaleFactor>
#       <!-- Dark output -->
#       <DarkVoltage>0.071000</DarkVoltage>
#     </TurbidityMeter>
#   </sensor>
# </Sensors>
# datcnv_date = Sep 18 2019 09:14:14, 7.26.7.129 [datcnv_vars = 14]
# datcnv_in = C:\DATA\082819_fcr50.hex C:\DATA\SBE19plusV2_7809.xmlcon
# datcnv_skipover = 0
# datcnv_ox_hysteresis_correction = yes
# datcnv_ox_tau_correction = yes
# filter_date = Sep 18 2019 09:14:32, 7.26.7.129
# filter_in = C:\DATA\082819_fcr50.cnv
# filter_low_pass_tc_A = 0.030
# filter_low_pass_tc_B = 0.150
# filter_low_pass_A_vars = sbeox0ML/L prdM prdE tv290C
# filter_low_pass_B_vars = depFM dz/dtM sbeox0PS specc c0uS/cm flECO-AFL ph orp par/sat/log turbWETntu0
# alignctd_date = Sep 18 2019 09:15:31, 7.26.7.129
# alignctd_in = C:\DATA\082819_fcr50.cnv
# alignctd_adv = dz/dtM 1.000, sbeox0PS 1.000, specc 1.000, c0uS/cm 1.000, flECO-AFL 1.000, ph 1.000, orp 1.000, turbWETntu0 1.000                                                                                                   
# file_type = ascii
*END*
     -0.500      0.079     6.1744     96.913     36.757  34.861921     0.2294      7.607   262.9400 3.7477e+02     3.4143     -0.500     -0.725    20.0096 0.0000e+00
     -0.469      0.105     6.0774     96.882     36.754  35.072943     0.2470      7.665   259.4510 3.7867e+02     3.5174     -0.463     -0.671    20.7876 0.0000e+00
     -0.430      0.135     5.9806     96.861     36.704  35.199816     0.2947      7.695   255.9510 3.8370e+02     3.5912     -0.419     -0.608    21.5636 0.0000e+00
     -0.392      0.168     5.9223     96.893     36.533  35.190289     0.7727      7.718   254.0920 3.8794e+02     4.4052     -0.383     -0.556    22.0591 0.0000e+00
     -0.355      0.196     5.8772     97.025     36.293  35.084908     1.6474      7.733   253.6641 3.8336e+02     5.9524     -0.350     -0.506    22.4610 0.0000e+00
     -0.309      0.211     5.8455     97.312     36.125  35.004802     2.1319      7.735   253.8751 3.3919e+02     6.8308     -0.311     -0.453    22.7191 0.0000e+00
     -0.242      0.215     5.8174     97.753     36.061  34.983459     2.1826      7.726   254.1484 2.5904e+02     6.9632     -0.245     -0.355    22.9502 0.0000e+00
     -0.162      0.205     5.7946     98.288     36.083  35.017306     2.2519      7.713   253.9569 2.0292e+02     7.2583     -0.152     -0.220    23.1715 0.0000e+00
     -0.097      0.182     5.7803     98.845     36.162  35.096725     2.3977      7.699   253.5391 1.8599e+02     7.7766     -0.084     -0.122    23.3543 0.0000e+00
     -0.055      0.147     5.7856     99.340     36.251  35.182099     2.4892      7.684   253.3125 1.6963e+02     8.0846     -0.050     -0.073    23.4642 0.0000e+00
     -0.029      0.104     5.8080     99.868     36.298  35.224470     2.4902      7.671   253.0245 1.4988e+02     8.1320     -0.024     -0.035    23.5160 0.0000e+00
     -0.015      0.064     5.8405    100.691     36.303  35.228217     2.4798      7.660   252.5520 1.5004e+02     7.9560     -0.010     -0.015    23.5184 0.0000e+00
     -0.010      0.035     5.8760    101.539     36.300  35.227404     2.4847      7.649   252.1595 1.5640e+02     7.6275     -0.007     -0.011    23.5208 0.0000e+00
     -0.011      0.020     5.9056    101.617     36.280  35.214637     2.4980      7.638   251.4618 1.5375e+02     7.4710     -0.010     -0.015    23.5232 0.0000e+00
     -0.012      0.017     5.9258    100.576     36.256  35.200801     2.5017      7.627   250.4828 1.4875e+02     7.4400     -0.013     -0.019    23.5148 0.0000e+00
     -0.010      0.023     5.9788     98.526     36.235  35.187067     2.4943      7.615   250.1317 1.4532e+02     7.4162     -0.010     -0.015    23.5108 0.0000e+00
     -0.006      0.033     6.0562     95.740     36.217  35.175525     2.4858      7.603   250.2276 1.4293e+02     7.4122     -0.006     -0.009    23.5147 0.0000e+00
      0.004      0.041     6.0639     92.766     36.222  35.188185     2.4777      7.593   250.0079 1.3649e+02     7.3921     -0.001     -0.001    23.5251 0.0000e+00
      0.022      0.043     5.9939     89.943     36.240  35.213211     2.4746      7.585   249.4541 1.2628e+02     7.3691      0.020      0.029    23.5421 0.0000e+00
      0.043      0.039     5.8713     87.280     36.247  35.224261     2.5088      7.577   248.7794 1.1554e+02     7.2651      0.046      0.067    23.5505 0.0000e+00
      0.057      0.031     5.6877     84.956     36.216  35.194860     2.5710      7.568   248.3890 1.0715e+02     7.0526      0.060      0.087    23.5536 0.0000e+00
      0.062      0.021     5.5014     83.187     36.134  35.111596     2.6019      7.560   248.3483 1.0644e+02     6.9304      0.064      0.093    23.5681 0.0000e+00
      0.059      0.011     5.3390     81.938     36.071  35.042598     2.6051      7.554   248.2007 1.1194e+02     6.9353      0.059      0.085    23.5809 0.0000e+00
      0.054      0.002     5.1735     81.028     36.095  35.058745     2.5746      7.547   247.8951 1.1480e+02     6.8491      0.050      0.073    23.5843 0.0000e+00
      0.053     -0.002     5.0293     80.314     36.155  35.116414     2.5106      7.540   247.4928 1.1327e+02     6.6425      0.051      0.073    23.5863 0.0000e+00
      0.056     -0.001     4.9262     79.724     36.205  35.168664     2.4817      7.533   247.0370 1.1247e+02     6.5350      0.055      0.080    23.5834 0.0000e+00
      0.057      0.002     4.8587     79.259     36.215  35.182759     2.4852      7.526   246.7717 1.1332e+02     6.4994      0.057      0.082    23.5684 0.0000e+00
      0.056      0.004     4.8085     78.904     36.189  35.159902     2.4756      7.518   246.6077 1.1317e+02     6.4408      0.055      0.079    23.5544 0.0000e+00
      0.056      0.006     4.7676     78.577     36.172  35.146170     2.4524      7.512   246.3445 1.1198e+02     6.5483      0.054      0.078    23.5554 0.0000e+00
      0.058      0.008     4.7317     78.239     36.167  35.143675     2.4294      7.507   245.9983 1.1131e+02     6.7831      0.057      0.081    23.5640 0.0000e+00
      0.061      0.013     4.7023     77.850     36.153  35.129725     2.4233      7.501   245.7778 1.1133e+02     6.8869      0.060      0.087    23.5693 0.0000e+00
      0.063      0.018     4.6854     77.465     36.129  35.104443     2.4302      7.496   245.7433 1.1151e+02     6.8862      0.062      0.090    23.5721 0.0000e+00
      0.067      0.022     4.6644     77.354     36.117  35.091863     2.4433      7.490   245.4953 1.1109e+02     6.9706      0.064      0.093    23.5757 0.0000e+00
      0.075      0.024     4.6455     77.705     36.130  35.104556     2.4688      7.485   245.0167 1.0954e+02     7.1214      0.074      0.107    23.5809 0.0000e+00
      0.085      0.024     4.6233     78.456     36.156  35.130973     2.4878      7.481   244.6882 1.0813e+02     7.1691      0.085      0.124    23.5812 0.0000e+00
      0.093      0.023     4.5923     79.433     36.181  35.157398     2.4906      7.477   244.6217 1.0799e+02     7.1536      0.092      0.134    23.5756 0.0000e+00
      0.098      0.021     4.5812     80.472     36.194  35.170195     2.4945      7.473   244.6422 1.0786e+02     7.2295      0.097      0.141    23.5736 0.0000e+00
      0.102      0.016     4.6045     81.457     36.181  35.158760     2.5000      7.468   244.3330 1.0649e+02     7.3658      0.100      0.146    23.5749 0.0000e+00
      0.106      0.010     4.6531     82.323     36.167  35.146077     2.4966      7.464   243.7229 1.0489e+02     7.4245      0.103      0.151    23.5781 0.0000e+00
      0.108      0.005     4.7141     83.030     36.164  35.143789     2.4877      7.460   243.3744 1.0399e+02     7.3828      0.106      0.154    23.5806 0.0000e+00
      0.108      0.001     4.7785     83.520     36.149  35.131095     2.4878      7.456   243.3889 1.0344e+02     7.2546      0.107      0.155    23.5812 0.0000e+00
      0.108     -0.001     4.8378     83.752     36.135  35.119535     2.4978      7.452   243.3818 1.0344e+02     7.0865      0.107      0.155    23.5818 0.0000e+00
      0.106     -0.003     4.8897     83.798     36.146  35.130958     2.5048      7.447   243.2884 1.0398e+02     6.9891      0.104      0.151    23.5827 0.0000e+00
      0.104     -0.003     4.9326     83.745     36.157  35.142272     2.5038      7.442   243.1202 1.0422e+02     6.9619      0.101      0.147    23.5846 0.0000e+00
      0.103     -0.002     4.9637     83.622     36.144  35.129399     2.4943      7.438   242.7244 1.0429e+02     6.9545      0.101      0.146    23.5867 0.0000e+00
      0.103      0.001     4.9747     83.456     36.119  35.102245     2.4844      7.435   242.2890 1.0413e+02     6.9323      0.100      0.145    23.5884 0.0000e+00
      0.104      0.003     4.9747     83.271     36.085  35.067818     2.4803      7.433   242.0724 1.0359e+02     6.9227      0.101      0.146    23.5904 0.0000e+00
      0.105      0.004     4.9719     83.061     36.047  35.030482     2.4786      7.429   242.0839 1.0321e+02     6.9363      0.103      0.150    23.5917 0.0000e+00
      0.107      0.004     4.9639     82.826     36.050  35.031626     2.4806      7.424   242.1702 1.0263e+02     6.9333      0.105      0.153    23.5901 0.0000e+00
      0.109      0.003     4.9536     82.561     36.104  35.081646     2.4786      7.419   242.2553 1.0145e+02     7.0830      0.107      0.155    23.5870 0.0000e+00
      0.109      0.001     4.9432     82.218     36.153  35.127516     2.4809      7.414   242.3387 1.0066e+02     7.4356      0.108      0.157    23.5854 0.0000e+00
      0.109      0.001     4.9310     81.802     36.170  35.141963     2.4906      7.410   242.2316 1.0108e+02     7.6576      0.108      0.157    23.5841 0.0000e+00
      0.108      0.000     4.9165     81.369     36.160  35.129389     2.4918      7.405   241.3907 1.0155e+02     7.6366      0.105      0.153    23.5814 0.0000e+00
      0.107      0.000     4.9034     80.927     36.136  35.102424     2.4693      7.400   237.5917 1.0131e+02     7.5099      0.104      0.151    23.5783 0.0000e+00
      0.108     -0.001     4.8831     80.455     36.107  35.069790     2.4354      7.397   234.3287 1.0104e+02     7.3709      0.106      0.153    23.5755 0.0000e+00
      0.109     -0.001     4.8566     80.002     36.093  35.052142     2.4291      7.395   233.7718 1.0109e+02     7.3315      0.107      0.156    23.5725 0.0000e+00
      0.109      0.002     4.8310     79.669     36.123  35.079445     2.4278      7.391   230.2554 1.0144e+02     7.3619      0.108      0.157    23.5689 0.0000e+00
      0.108      0.009     4.8065     79.539     36.128  35.082575     2.4116      7.384   226.5728 1.0208e+02     7.2789      0.107      0.154    23.5661 0.0000e+00
      0.106      0.019     4.7776     79.582     36.013  34.963043     2.4069      7.374   225.6395 1.0293e+02     7.0815      0.104      0.149    23.5591 0.0000e+00
      0.107      0.030     4.7492     79.633     35.830  34.776596     2.4143      7.364   224.9940 1.0339e+02     6.9755      0.101      0.146    23.5508 0.0000e+00
      0.117      0.037     4.7272     79.498     35.723  34.668787     2.4223      7.354   224.6184 1.0241e+02     6.9804      0.109      0.159    23.5493 0.0000e+00
      0.137      0.039     4.7195     79.073     35.738  34.674995     2.4427      7.347   224.3676 1.0129e+02     7.0748      0.134      0.194    23.5537 0.0000e+00
      0.158      0.037     4.7277     78.380     35.804  34.724710     2.4795      7.341   224.0278 1.0335e+02     7.2652      0.158      0.229    23.5389 0.0000e+00
      0.169      0.032     4.7370     77.538     35.851  34.762131     2.4948      7.336   223.6077 1.0897e+02     7.3816      0.170      0.246    23.5163 0.0000e+00
      0.170      0.023     4.7310     76.715     35.838  34.746641     2.4883      7.332   223.2453 1.1530e+02     7.4008      0.169      0.245    23.5243 0.0000e+00
      0.167      0.014     4.7056     76.043     35.756  34.664347     2.4965      7.328   223.0010 1.2017e+02     7.3992      0.164      0.237    23.5137 0.0000e+00
      0.167      0.008     4.6648     75.525     35.684  34.592185     2.5151      7.323   222.7199 1.2408e+02     7.3945      0.163      0.236    23.4819 0.0000e+00
      0.171      0.006     4.6115     75.073     35.664  34.572266     2.5320      7.318   222.4269 1.2769e+02     7.4095      0.168      0.244    23.4726 0.0000e+00
      0.175      0.008     4.5591     74.633     35.642  34.550438     2.5441      7.313   222.2119 1.3064e+02     7.4166      0.172      0.251    23.4743 0.0000e+00
      0.177      0.009     4.5197     74.182     35.613  34.518655     2.5409      7.308   222.0133 1.3282e+02     7.3823      0.174      0.252    23.4689 0.0000e+00
      0.178      0.008     4.4926     73.697     35.609  34.505309     2.5018      7.304   221.9186 1.3389e+02     7.1908      0.174      0.252    23.4608 0.0000e+00
      0.181      0.007     4.4662     73.152     35.632  34.515995     2.4438      7.300   221.9276 1.3405e+02     6.8704      0.178      0.257    23.4623 0.0000e+00
      0.184      0.007     4.4401     72.557     35.646  34.520903     2.4201      7.296   221.7771 1.3410e+02     6.7213      0.182      0.263    23.4653 0.0000e+00
      0.185      0.007     4.4142     71.949     35.633  34.501171     2.4234      7.293   221.5618 1.3393e+02     6.7641      0.183      0.265    23.4614 0.0000e+00
      0.185      0.007     4.3872     71.376     35.606  34.467815     2.4235      7.290   221.4751 1.3278e+02     6.7322      0.181      0.263    23.4458 0.0000e+00
      0.187      0.006     4.3563     70.871     35.581  34.434911     2.4214      7.288   221.3314 1.3118e+02     6.5977      0.183      0.265    23.4269 0.0000e+00
      0.190      0.005     4.3206     70.420     35.574  34.420648     2.4145      7.285   221.2012 1.3026e+02     6.5148      0.187      0.270    23.4150 0.0000e+00
      0.192      0.003     4.2844     69.988     35.583  34.422282     2.4096      7.280   221.1042 1.3005e+02     6.4829      0.189      0.273    23.4067 0.0000e+00
      0.193      0.000     4.2497     69.544     35.623  34.454663     2.4316      7.274   220.7616 1.3006e+02     6.4090      0.190      0.275    23.3961 0.0000e+00
      0.193     -0.003     4.2215     69.081     35.669  34.494830     2.4729      7.269   220.4149 1.3041e+02     6.3094      0.190      0.275    23.3837 0.0000e+00
      0.191     -0.005     4.1964     68.643     35.640  34.463665     2.4934      7.264   220.3533 1.3139e+02     6.2628      0.189      0.274    23.3728 0.0000e+00
      0.187     -0.005     4.1715     68.215     35.572  34.395171     2.4882      7.260   220.3609 1.3239e+02     6.2714      0.183      0.265    23.3633 0.0000e+00
      0.184     -0.005     4.1474     67.806     35.543  34.364792     2.4792      7.256   220.4208 1.3280e+02     6.4794      0.179      0.259    23.3543 0.0000e+00
      0.184     -0.004     4.1172     67.455     35.530  34.350207     2.4803      7.252   220.6473 1.3290e+02     6.8430      0.181      0.261    23.3472 0.0000e+00
      0.185     -0.002     4.0929     67.090     35.530  34.345761     2.4833      7.247   220.8627 1.3312e+02     6.9978      0.182      0.264    23.3446 0.0000e+00
      0.186     -0.001     4.0684     66.687     35.566  34.374492     2.4813      7.242   220.8743 1.3367e+02     6.9748      0.183      0.266    23.3411 0.0000e+00
      0.185     -0.001     4.0403     66.297     35.580  34.380249     2.4728      7.237   220.7018 1.3397e+02     6.9576      0.182      0.263    23.3362 0.0000e+00
      0.184     -0.001     4.0245     65.942     35.556  34.351901     2.4498      7.234   220.4976 1.3372e+02     6.9546      0.180      0.261    23.3345 0.0000e+00
      0.183     -0.001     4.0024     65.609     35.559  34.349064     2.4297      7.233   220.3838 1.3347e+02     6.9707      0.180      0.261    23.3301 0.0000e+00
      0.183     -0.001     3.9776     65.296     35.565  34.345934     2.4204      7.230   220.3584 1.3338e+02     6.9881      0.179      0.259    23.3186 0.0000e+00
      0.183     -0.000     3.9550     64.996     35.546  34.314044     2.4157      7.228   220.4491 1.3336e+02     7.0013      0.179      0.260    23.3077 0.0000e+00
      0.183 -4.132e-07     3.9345     64.683     35.527  34.280792     2.4336      7.227   220.6197 1.3348e+02     6.9663      0.180      0.260    23.3017 0.0000e+00
      0.183     -0.000     3.9155     64.364     35.521  34.261191     2.4716      7.226   220.7005 1.3368e+02     6.8595      0.180      0.260    23.2952 0.0000e+00
      0.184     -0.000     3.8969     64.040     35.541  34.267424     2.4945      7.225   220.6510 1.3379e+02     6.7595      0.180      0.261    23.2825 0.0000e+00
      0.184     -0.001     3.8824     63.702     35.576  34.292677     2.4929      7.224   220.6239 1.3388e+02     6.7068      0.181      0.262    23.2632 0.0000e+00
      0.184     -0.001     3.8640     63.343     35.602  34.312642     2.4953      7.223   220.8029 1.3391e+02     6.7471      0.181      0.262    23.2404 0.0000e+00
      0.183     -0.002     3.8472     62.984     35.612  34.318416     2.5153      7.221   221.0950 1.3400e+02     6.8528      0.180      0.260    23.2189 0.0000e+00
      0.182     -0.002     3.8289     62.670     35.594  34.299017     2.5349      7.219   221.3164 1.3416e+02     6.9033      0.178      0.259    23.2022 0.0000e+00
      0.181     -0.001     3.8099     62.401     35.565  34.268497     2.5417      7.217   221.4148 1.3418e+02     6.8993      0.177      0.257    23.1903 0.0000e+00
      0.181     -0.000     3.7890     62.151     35.568  34.266719     2.5113      7.216   221.3374 1.3406e+02     6.9026      0.177      0.257    23.1820 0.0000e+00
      0.181      0.001     3.7656     61.911     35.583  34.277510     2.4532      7.216   221.1555 1.3390e+02     6.9437      0.178      0.258    23.1780 0.0000e+00
      0.182      0.001     3.7478     61.670     35.583  34.272033     2.4288      7.215   221.1082 1.3390e+02     7.0032      0.179      0.260    23.1760 0.0000e+00
      0.183      0.001     3.7324     61.415     35.581  34.263956     2.4328      7.213   221.1953 1.3411e+02     7.0314      0.180      0.261    23.1723 0.0000e+00
      0.183      0.001     3.7181     61.158     35.565  34.243309     2.4413      7.211   221.2623 1.3431e+02     6.9900      0.179      0.260    23.1663 0.0000e+00
      0.183      0.001     3.7044     60.928     35.537  34.212779     2.4615      7.210   221.2310 1.3431e+02     6.9290      0.180      0.261    23.1593 0.0000e+00
      0.183      0.001     3.6911     60.713     35.540  34.212135     2.4783      7.209   221.1610 1.3413e+02     6.9163      0.180      0.261    23.1517 0.0000e+00
      0.183      0.001     3.6760     60.498     35.569  34.235525     2.4794      7.208   221.1909 1.3401e+02     6.9344      0.181      0.262    23.1442 0.0000e+00
      0.183      0.002     3.6599     60.301     35.580  34.241710     2.4577      7.207   221.2475 1.3392e+02     7.0173      0.180      0.261    23.1374 0.0000e+00
      0.184      0.003     3.6473     60.122     35.565  34.223445     2.4242      7.206   221.2426 1.3369e+02     7.1316      0.180      0.261    23.1314 0.0000e+00
      0.185      0.004     3.6354     59.936     35.550  34.205078     2.4123      7.204   221.2180 1.3348e+02     7.1687      0.181      0.263    23.1256 0.0000e+00
      0.186      0.005     3.6220     59.762     35.559  34.210025     2.4183      7.202   221.2940 1.3330e+02     7.1714      0.182      0.264    23.1201 0.0000e+00
      0.187      0.007     3.6104     59.608     35.573  34.219786     2.4178      7.201   221.4736 1.3304e+02     7.1974      0.184      0.267    23.1145 0.0000e+00
      0.189      0.007     3.6017     59.460     35.551  34.196170     2.4240      7.200   221.5825 1.3261e+02     7.2540      0.185      0.269    23.1083 0.0000e+00
      0.191      0.007     3.5897     59.341     35.536  34.178331     2.4500      7.199   221.4927 1.3208e+02     7.3308      0.187      0.272    23.1026 0.0000e+00
      0.194      0.006     3.5791     59.196     35.556  34.194495     2.4719      7.198   221.2473 1.3160e+02     7.3727      0.190      0.276    23.0968 0.0000e+00
      0.196      0.004     3.5723     58.998     35.567  34.201211     2.4809      7.196   221.0249 1.3135e+02     7.3994      0.192      0.279    23.0915 0.0000e+00
      0.197      0.002     3.5606     58.838     35.566  34.196056     2.4799      7.195   220.9553 1.3150e+02     7.3586      0.194      0.281    23.0876 0.0000e+00
      0.197     -0.001     3.5562     58.713     35.569  34.195629     2.4770      7.193   221.0069 1.3190e+02     7.2068      0.195      0.282    23.0838 0.0000e+00
      0.196     -0.003     3.5503     58.588     35.574  34.196045     2.4808      7.193   221.0466 1.3240e+02     7.1379      0.193      0.279    23.0796 0.0000e+00
      0.194     -0.004     3.5331     58.461     35.582  34.201077     2.4829      7.192   221.0917 1.3300e+02     7.1807      0.191      0.276    23.0750 0.0000e+00
      0.193     -0.003     3.5262     58.361     35.575  34.193009     2.4849      7.191   221.1219 1.3375e+02     7.1338      0.189      0.274    23.0695 0.0000e+00
      0.190     -0.002     3.5197     58.337     35.543  34.161958     2.4876      7.190   221.0676 1.3442e+02     6.9971      0.186      0.270    23.0635 0.0000e+00
      0.189      0.001     3.5121     58.358     35.523  34.142961     2.4803      7.190   221.0371 1.3462e+02     6.9377      0.185      0.268    23.0580 0.0000e+00
      0.191      0.004     3.5054     58.366     35.533  34.153719     2.4749      7.189   221.0986 1.3406e+02     6.9732      0.186      0.270    23.0531 0.0000e+00
      0.194      0.008     3.4964     58.347     35.544  34.165102     2.4838      7.184   221.2076 1.3335e+02     7.0988      0.191      0.276    23.0504 0.0000e+00
      0.196      0.010     3.4970     58.307     35.530  34.153659     2.4834      7.175   221.3228 1.3304e+02     7.3089      0.193      0.280    23.0510 0.0000e+00
      0.199      0.009     3.4995     58.246     35.515  34.142303     2.4709      7.168   221.3735 1.3205e+02     7.4486      0.192      0.279    23.0525 0.0000e+00
      0.204      0.007     3.4999     58.159     35.530  34.154724     2.4709      7.165   221.3900 1.3081e+02     7.4444      0.200      0.290    23.0542 0.0000e+00
      0.207      0.005     3.4983     58.047     35.558  34.176912     2.4834      7.165   221.5218 1.3075e+02     7.2255      0.207      0.300    23.0544 0.0000e+00
      0.206      0.005     3.4961     57.961     35.540  34.156705     2.4916      7.166   221.6768 1.3163e+02     6.8991      0.202      0.294    23.0574 0.0000e+00
      0.203      0.003     3.4918     57.984     35.481  34.100792     2.4926      7.168   221.8018 1.3201e+02     6.7750      0.199      0.288    23.0635 0.0000e+00
      0.203      0.001     3.4874     58.098     35.450  34.072058     2.4859      7.168   221.9147 1.3145e+02     6.7732      0.198      0.287    23.0604 0.0000e+00
      0.206      0.001     3.4804     58.207     35.440  34.063153     2.4809      7.167   222.0090 1.3121e+02     6.6811      0.202      0.293    23.0500 0.0000e+00
      0.208      0.002     3.4721     58.274     35.436  34.056579     2.4835      7.166   222.0818 1.3183e+02     6.5787      0.206      0.299    23.0473 0.0000e+00
      0.208      0.003     3.4744     58.312     35.439  34.056033     2.4834      7.166   222.0201 1.3281e+02     6.5515      0.205      0.297    23.0491 0.0000e+00
      0.207      0.002     3.4841     58.307     35.443  34.056553     2.4787      7.166   221.9513 1.3304e+02     6.5164      0.202      0.292    23.0516 0.0000e+00
      0.207      0.000     3.4910     58.230     35.452  34.062856     2.4707      7.165   222.1108 1.3212e+02     6.4824      0.203      0.294    23.0543 0.0000e+00
      0.209     -0.003     3.4943     58.077     35.462  34.068772     2.4561      7.164   222.3998 1.3128e+02     6.5339      0.206      0.299    23.0493 0.0000e+00
      0.210     -0.006     3.4977     57.872     35.462  34.064616     2.4320      7.164   222.6058 1.3160e+02     6.6468      0.207      0.300    23.0425 0.0000e+00
      0.208     -0.008     3.4985     57.657     35.479  34.076064     2.4133      7.164   222.7090 1.3248e+02     6.7334      0.204      0.296    23.0375 0.0000e+00
      0.203     -0.010     3.4941     57.502     35.487  34.080257     2.4118      7.164   222.7019 1.3341e+02     6.7286      0.199      0.289    23.0340 0.0000e+00
      0.198     -0.010     3.4845     57.448     35.461  34.051843     2.4494      7.164   222.6914 1.3446e+02     6.6537      0.195      0.282    23.0320 0.0000e+00
      0.194     -0.010     3.4723     57.485     35.462  34.049825     2.5210      7.163   222.6680 1.3533e+02     6.5819      0.190      0.275    23.0260 0.0000e+00
      0.193     -0.010     3.4575     57.564     35.474  34.055855     2.5580      7.162   222.5051 1.3588e+02     6.5493      0.188      0.273    23.0170 0.0000e+00
      0.193     -0.010     3.4479     57.605     35.487  34.061280     2.5491      7.162   222.3565 1.3609e+02     6.5208      0.189      0.275    23.0116 0.0000e+00
      0.192     -0.008     3.4451     57.579     35.551  34.115409     2.5360      7.162   222.3341 1.3639e+02     6.4998      0.189      0.275    23.0092 0.0000e+00
      0.189     -0.005     3.4484     57.548     35.579  34.139131     2.5385      7.161   222.4929 1.3728e+02     6.5246      0.186      0.270    23.0047 0.0000e+00
      0.184     -0.001     3.4560     57.595     35.533  34.094236     2.5526      7.157   222.7270 1.3828e+02     6.5585      0.180      0.262    22.9974 0.0000e+00
      0.181      0.002     3.4601     57.751     35.521  34.080306     2.5583      7.153   222.5840 1.3786e+02     6.5491      0.175      0.253    22.9877 0.0000e+00
      0.184      0.004     3.4575     57.962     35.555  34.097626     2.5208      7.150   222.2266 1.3557e+02     6.5427      0.177      0.258    22.9728 0.0000e+00
      0.192      0.005     3.4539     58.126     35.607  34.113236     2.4550      7.149   222.2771 1.3321e+02     6.6119      0.189      0.274    22.9693 0.0000e+00
      0.198      0.008     3.4559     58.254     35.669  34.142070     2.4215      7.146   222.5927 1.3275e+02     6.6980      0.197      0.286    22.9693 0.0000e+00
      0.197      0.009     3.4661     58.489     35.665  34.128880     2.4198      7.141   222.8586 1.3394e+02     6.7320      0.195      0.282    22.9702 0.0000e+00
      0.192      0.009     3.4830     58.921     35.610  34.080674     2.4255      7.135   223.0837 1.3476e+02     6.7276      0.186      0.269    22.9626 0.0000e+00
      0.192      0.006     3.4970     59.465     35.595  34.066941     2.4555      7.132   223.0771 1.3391e+02     6.6450      0.185      0.268    22.8955 0.0000e+00
      0.200      0.004     3.5045     59.968     35.629  34.089774     2.5132      7.132   222.7786 1.3247e+02     6.5204      0.197      0.286    22.8372 0.0000e+00
      0.207      0.004     3.5157     60.364     35.654  34.102865     2.5521      7.133   222.5712 1.3272e+02     6.4979      0.208      0.301    22.8355 0.0000e+00
      0.207      0.003     3.5439     60.749     35.649  34.098289     2.5613      7.135   222.5492 1.3455e+02     6.5372      0.206      0.297    22.8495 0.0000e+00
      0.202      0.001     3.5799     61.246     35.643  34.097910     2.5544      7.137   222.5978 1.3565e+02     6.5370      0.196      0.284    22.8555 0.0000e+00
      0.199     -0.002     3.6138     61.836     35.639  34.098287     2.5393      7.139   222.7293 1.3515e+02     6.5283      0.194      0.281    22.8341 0.0000e+00
      0.200     -0.003     3.6365     62.431     35.646  34.102847     2.5342      7.140   222.8486 1.3416e+02     6.5302      0.196      0.284    22.8121 0.0000e+00
      0.201     -0.001     3.6547     62.961     35.637  34.089577     2.5366      7.140   222.9215 1.3374e+02     6.5275      0.197      0.285    22.8159 0.0000e+00
      0.201      0.001     3.6859     63.408     35.615  34.064772     2.5416      7.141   222.9222 1.3376e+02     6.6267      0.197      0.285    22.8306 0.0000e+00
      0.202      0.001     3.7224     63.778     35.608  34.056790     2.5428      7.142   222.9426 1.3371e+02     6.8119      0.197      0.286    22.8362 0.0000e+00
      0.202      0.000     3.7605     64.048     35.607  34.056528     2.5421      7.143   223.0822 1.3386e+02     6.8984      0.199      0.288    22.8313 0.0000e+00
      0.202     -0.002     3.7936     64.211     35.611  34.061601     2.5418      7.143   223.2341 1.3424e+02     6.9188      0.199      0.288    22.8224 0.0000e+00
      0.201     -0.003     3.8196     64.284     35.602  34.054662     2.5227      7.143   223.3167 1.3474e+02     6.9929      0.197      0.286    22.8161 0.0000e+00
      0.200     -0.002     3.8439     64.309     35.582  34.036095     2.4930      7.144   223.3059 1.3549e+02     7.1061      0.197      0.286    22.8148 0.0000e+00
      0.198     -0.001     3.8595     64.330     35.572  34.027508     2.4765      7.144   223.2755 1.3626e+02     7.1734      0.194      0.282    22.8162 0.0000e+00
      0.196      0.002     3.8690     64.331     35.558  34.014295     2.4714      7.144   223.2936 1.3641e+02     7.1839      0.190      0.276    22.8188 0.0000e+00
      0.196      0.004     3.8724     64.292     35.548  34.003267     2.4744      7.142   223.3533 1.3556e+02     7.1677      0.191      0.277    22.8206 0.0000e+00
      0.200      0.006     3.8719     64.187     35.567  34.021105     2.4868      7.139   223.4805 1.3428e+02     7.1744      0.195      0.284    22.8223 0.0000e+00
      0.204      0.006     3.8745     63.982     35.587  34.039574     2.4912      7.137   223.7136 1.3328e+02     7.1992      0.202      0.292    22.8240 0.0000e+00
      0.207      0.006     3.8746     63.704     35.585  34.036175     2.4838      7.137   223.9349 1.3271e+02     7.1718      0.204      0.295    22.8235 0.0000e+00
      0.208      0.005     3.8728     63.418     35.594  34.043475     2.4674      7.137   224.0047 1.3261e+02     7.0075      0.204      0.296    22.8216 0.0000e+00
      0.207      0.003     3.8677     63.153     35.616  34.064365     2.4400      7.138   224.0416 1.3275e+02     6.7200      0.204      0.296    22.8212 0.0000e+00
      0.207      0.003     3.8550     62.931     35.849  34.288758     2.4219      7.141   224.1217 1.3271e+02     6.5467      0.202      0.294    22.8206 0.0000e+00
      0.208      0.003     3.8360     62.902     36.410  34.852603     2.4214      7.144   224.1993 1.3254e+02     6.5180      0.203      0.294    22.8172 0.0000e+00
      0.209      0.004     3.8191     63.698     36.840  35.360229     2.4255      7.146   224.3776 1.3240e+02     6.5043      0.205      0.297    22.8148 0.0000e+00
      0.210      0.006     3.8032     66.460     36.865  35.539585     2.4370      7.147   224.5575 1.3230e+02     6.4795      0.206      0.299    22.8151 0.0000e+00
      0.212      0.006     3.7878     71.680     36.737  35.561645     2.4646      7.147   224.6530 1.3199e+02     6.4154      0.208      0.301    22.8150 0.0000e+00
      0.214      0.006     3.7769     78.460     36.641  35.563689     2.4824      7.147   224.8446 1.3147e+02     6.3514      0.210      0.304    22.8156 0.0000e+00
      0.216      0.005     3.7823     85.438     36.585  35.564435     2.4785      7.148   224.9811 1.3090e+02     6.3287      0.213      0.309    22.9425 0.0000e+00
      0.218      0.005     3.9114     91.744     36.560  35.570742     2.4607      7.148   224.9273 1.3055e+02     6.4023      0.214      0.311    23.2133 0.0000e+00
      0.218      0.007     4.2336     96.864     36.549  35.576520     2.4407      7.149   224.8815 1.3051e+02     6.5861      0.214      0.311    23.4251 0.0000e+00
      0.218      0.011     4.6613    100.382     36.534  35.570853     2.4272      7.150   224.8575 1.3060e+02     6.7165      0.214      0.310    23.5418 0.0000e+00
      0.219      0.017     5.0840    102.113     36.523  35.565707     2.4111      7.151   224.8104 1.3042e+02     6.7327      0.214      0.310    23.6115 0.0000e+00
      0.223      0.025     5.4631    102.228     36.532  35.577776     2.4279      7.149   224.9134 1.2940e+02     6.8475      0.217      0.315    23.6465 0.0000e+00
      0.231      0.034     5.7751    101.266     36.542  35.589836     2.4738      7.146   225.1567 1.2750e+02     7.0892      0.226      0.328    23.6673 0.0000e+00
      0.242      0.042     5.9858     99.878     36.536  35.584586     2.4976      7.141   225.3430 1.2461e+02     7.1970      0.237      0.344    23.6782 0.0000e+00
      0.256      0.047     6.0852     98.530     36.529  35.577776     2.5080      7.136   225.5312 1.2073e+02     7.1665      0.250      0.362    23.6858 0.0000e+00
      0.271      0.049     6.0783     97.389     36.524  35.570961     2.5040      7.130   225.7978 1.1607e+02     7.1474      0.266      0.386    23.6895 0.0000e+00
      0.286      0.049     6.0066     96.469     36.519  35.565656     2.4833      7.124   225.9855 1.1161e+02     7.1624      0.280      0.408    23.6921 0.0000e+00
      0.298      0.045     5.9134     95.755     36.533  35.577099     2.4837      7.120   226.0791 1.0858e+02     7.1842      0.291      0.423    23.6931 0.0000e+00
      0.310      0.039     5.8319     95.210     36.539  35.582382     2.4998      7.121   226.2409 1.0654e+02     7.1822      0.304      0.441    23.6928 0.0000e+00
      0.320      0.032     5.7647     94.800     36.523  35.566056     2.4961      7.123   226.4789 1.0519e+02     7.0074      0.316      0.458    23.6911 0.0000e+00
      0.326      0.026     5.7099     94.470     36.528  35.570109     2.4828      7.124   226.5482 1.0446e+02     6.6760      0.321      0.465    23.6889 0.0000e+00
      0.330      0.020     5.6700     94.181     36.526  35.567921     2.4866      7.125   226.4765 1.0322e+02     6.5176      0.323      0.468    23.6867 0.0000e+00
      0.334      0.014     5.6372     93.948     36.497  35.539592     2.4985      7.128   226.6447 1.0137e+02     6.5342      0.327      0.474    23.6848 0.0000e+00
      0.338      0.009     5.6153     93.800     36.504  35.544927     2.4956      7.131   226.9463 9.9871e+01     6.5164      0.333      0.482    23.6837 0.0000e+00
      0.340      0.007     5.5964     93.741     36.529  35.568964     2.4866      7.133   227.0266 9.8879e+01     6.4997      0.335      0.485    23.6833 0.0000e+00
      0.339      0.007     5.5789     93.736     36.536  35.576347     2.4852      7.135   227.0989 9.7939e+01     6.5283      0.331      0.482    23.6830 0.0000e+00
      0.338      0.007     5.5643     93.752     36.530  35.570725     2.4873      7.137   227.3903 9.6256e+01     6.5345      0.329      0.478    23.6822 0.0000e+00
      0.340      0.006     5.5553     93.779     36.523  35.564459     2.4952      7.138   227.6248 9.3658e+01     6.5105      0.332      0.482    23.6809 0.0000e+00
      0.345      0.005     5.5532     93.815     36.523  35.564045     2.5109      7.139   227.6975 9.0979e+01     6.4669      0.338      0.490    23.6802 0.0000e+00
      0.349      0.004     5.5534     93.851     36.525  35.565720     2.5298      7.140   227.7523 8.8749e+01     6.4322      0.342      0.496    23.6804 0.0000e+00
      0.350      0.002     5.5545     93.827     36.545  35.584712     2.5416      7.143   227.6856 8.6945e+01     6.4514      0.344      0.499    23.6809 0.0000e+00
      0.348      0.000     5.5563     93.723     36.565  35.603269     2.5405      7.144   227.5787 8.5391e+01     6.5024      0.342      0.495    23.6811 0.0000e+00
      0.345      0.000     5.5578     93.630     36.562  35.599688     2.5251      7.145   227.5786 8.3921e+01     6.5258      0.339      0.491    23.6811 0.0000e+00
      0.343      0.000     5.5619     93.624     36.567  35.604883     2.5032      7.146   227.5131 8.2407e+01     6.5041      0.336      0.487    23.6810 0.0000e+00
      0.343      0.001     5.5620     93.694     36.563  35.602604     2.4930      7.148   227.5610 8.0784e+01     6.5019      0.335      0.486    23.6797 0.0000e+00
      0.346      0.003     5.5528     93.800     36.531  35.572139     2.4884      7.150   227.7266 7.9359e+01     6.4995      0.340      0.492    23.6783 0.0000e+00
      0.349      0.005     5.5454     93.910     36.512  35.553880     2.4907      7.150   227.7088 7.8489e+01     6.3111      0.344      0.499    23.6784 0.0000e+00
      0.350      0.005     5.5459     94.014     36.531  35.572248     2.4942      7.150   227.6898 7.7859e+01     5.9608      0.343      0.498    23.6796 0.0000e+00
      0.350      0.005     5.5504     94.107     36.564  35.603811     2.4880      7.150   227.8414 7.7051e+01     5.7715      0.342      0.497    23.6816 0.0000e+00
      0.351      0.006     5.5573     94.161     36.579  35.618158     2.4928      7.150   228.2511 7.5941e+01     5.8240      0.343      0.498    23.6827 0.0000e+00
      0.353      0.013     5.5642     94.147     36.579  35.618782     2.5004      7.148   229.1156 7.4856e+01     6.0391      0.347      0.502    23.6824 0.0000e+00
      0.354      0.030     5.5700     94.090     36.571  35.611347     2.4942      7.140   230.0337 7.4089e+01     6.3403      0.349      0.505    23.6819 0.0000e+00
      0.355      0.055     5.5764     94.040     36.551  35.591741     2.4868      7.131   230.4044 7.3237e+01     6.5158      0.348      0.506    23.6813 0.0000e+00
      0.361      0.080     5.5807     94.015     36.531  35.572135     2.4893      7.126   230.4145 7.1575e+01     6.5229      0.349      0.507    23.6812 0.0000e+00
      0.385      0.099     5.5793     94.015     36.522  35.564700     2.4979      7.125   230.3275 6.7162e+01     6.4921      0.365      0.530    23.6814 0.0000e+00
      0.432      0.110     5.5741     94.006     36.523  35.565314     2.5475      7.128   230.1267 6.0887e+01     6.5363      0.422      0.613    23.6811 0.0000e+00
      0.482      0.112     5.5713     93.952     36.538  35.579558     2.6298      7.132   230.0516 5.6777e+01     6.6640      0.482      0.699    23.6815 0.0000e+00
      0.515      0.104     5.5694     93.893     36.570  35.609986     2.6688      7.135   230.3665 5.5057e+01     6.7253      0.511      0.740    23.6830 0.0000e+00
      0.532      0.087     5.5698     93.882     36.576  35.615860     2.6727      7.137   230.7512 5.4089e+01     6.6875      0.523      0.759    23.6840 0.0000e+00
      0.544      0.067     5.5712     93.896     36.547  35.587111     2.6417      7.139   230.8308 5.3000e+01     6.5672      0.532      0.772    23.6841 0.0000e+00
      0.555      0.052     5.5665     93.905     36.541  35.579733     2.5803      7.141   230.8121 5.1734e+01     6.3854      0.543      0.789    23.6829 0.0000e+00
      0.565      0.045     5.5613     93.926     36.553  35.590115     2.5461      7.143   230.8698 5.0634e+01     6.2919      0.554      0.804    23.6820 0.0000e+00
      0.576      0.044     5.5619     93.983     36.548  35.585702     2.5401      7.143   231.0979 4.9440e+01     6.2889      0.564      0.819    23.6827 0.0000e+00
      0.587      0.045     5.5638     94.074     36.552  35.589845     2.5336      7.144   231.4194 4.8322e+01     6.3482      0.575      0.834    23.6815 0.0000e+00
      0.598      0.046     5.5636     94.166     36.539  35.576741     2.5119      7.145   231.5730 4.7227e+01     6.4514      0.586      0.851    23.6787 0.0000e+00
      0.610      0.046     5.5646     94.222     36.515  35.554200     2.4943      7.145   231.5785 4.6082e+01     6.4884      0.599      0.868    23.6774 0.0000e+00
      0.623      0.046     5.5678     94.239     36.533  35.571180     2.4851      7.145   231.5722 4.5069e+01     6.4678      0.611      0.886    23.6776 0.0000e+00
      0.635      0.044     5.5740     94.208     36.555  35.591633     2.4872      7.146   231.6688 4.4098e+01     6.4646      0.622      0.903    23.6780 0.0000e+00
      0.648      0.040     5.5808     94.126     36.575  35.611083     2.5201      7.146   231.8012 4.3207e+01     6.4828      0.636      0.921    23.6780 0.0000e+00
      0.659      0.037     5.5834     94.054     36.580  35.615944     2.5449      7.146   231.8825 4.2567e+01     6.4908      0.647      0.938    23.6782 0.0000e+00
      0.667      0.035     5.5849     94.065     36.550  35.586944     2.5435      7.145   232.0491 4.2085e+01     6.4957      0.654      0.949    23.6782 0.0000e+00
      0.672      0.035     5.5836     94.149     36.541  35.577785     2.5291      7.144   232.2666 4.1480e+01     6.4772      0.659      0.956    23.6771 0.0000e+00
      0.679      0.035     5.5774     94.239     36.532  35.568683     2.5100      7.144   232.4476 4.0758e+01     6.4634      0.665      0.964    23.6764 0.0000e+00
      0.689      0.035     5.5707     94.334     36.504  35.540354     2.5039      7.144   232.6026 4.0013e+01     6.4923      0.676      0.979    23.6768 0.0000e+00
      0.700      0.036     5.5714     94.415     36.517  35.552602     2.4974      7.144   232.6777 3.9323e+01     6.4993      0.687      0.997    23.6770 0.0000e+00
      0.711      0.036     5.5796     94.402     36.557  35.589829     2.4834      7.143   232.6667 3.8793e+01     6.4827      0.697      1.013    23.6769 0.0000e+00
      0.720      0.035     5.5836     94.269     36.578  35.609649     2.4911      7.141   232.6424 3.8316e+01     6.5214      0.706      1.024    23.6761 0.0000e+00
      0.727      0.033     5.5894     94.060     36.570  35.601837     2.5303      7.141   232.6424 3.7800e+01     6.6390      0.713      1.034    23.6746 0.0000e+00
      0.735      0.030     5.5975     93.845     36.525  35.558849     2.5579      7.141   232.6669 3.7250e+01     6.7241      0.721      1.046    23.6728 0.0000e+00
      0.743      0.028     5.5972     93.679     36.500  35.534164     2.5559      7.141   232.7659 3.6771e+01     6.7314      0.729      1.057    23.6713 0.0000e+00
      0.750      0.026     5.5881     93.572     36.524  35.557249     2.5499      7.142   232.8930 3.6421e+01     6.7271      0.736      1.067    23.6706 0.0000e+00
      0.757      0.025     5.5742     93.492     36.552  35.584097     2.5464      7.143   232.9988 3.6128e+01     6.7386      0.743      1.077    23.6703 0.0000e+00
      0.762      0.024     5.5601     93.407     36.573  35.604900     2.5475      7.143   233.0987 3.5913e+01     6.7392      0.748      1.085    23.6709 0.0000e+00
      0.767      0.023     5.5500     93.337     36.588  35.618373     2.5545      7.144   233.1545 3.5703e+01     6.7338      0.752      1.092    23.6715 0.0000e+00
      0.773      0.023     5.5445     93.315     36.590  35.620052     2.5537      7.144   233.2433 3.5482e+01     6.8053      0.758      1.100    23.6714 0.0000e+00
      0.779      0.023     5.5407     93.325     36.595  35.625199     2.5467      7.143   233.3986 3.5334e+01     6.9146      0.765      1.109    23.6711 0.0000e+00
      0.784      0.024     5.5355     93.342     36.586  35.617132     2.5473      7.142   233.4841 3.5192e+01     6.9408      0.769      1.116    23.6706 0.0000e+00
      0.790      0.024     5.5296     93.374     36.555  35.585985     2.5518      7.142   233.5026 3.4987e+01     6.9253      0.774      1.123    23.6702 0.0000e+00
      0.798      0.024     5.5297     93.444     36.535  35.565952     2.5500      7.142   233.5355 3.4663e+01     6.9899      0.782      1.134    23.6693 0.0000e+00
      0.806      0.024     5.5306     93.543     36.535  35.565318     2.5511      7.142   233.6240 3.4364e+01     7.0995      0.791      1.148    23.6692 0.0000e+00
      0.811      0.025     5.5317     93.653     36.549  35.578322     2.5656      7.141   233.7980 3.4227e+01     7.1689      0.797      1.156    23.6693 0.0000e+00
      0.816      0.026     5.5326     93.764     36.568  35.596244     2.5696      7.139   233.8324 3.4035e+01     7.2059      0.799      1.159    23.6691 0.0000e+00
      0.821      0.027     5.5370     93.833     36.563  35.591604     2.5551      7.138   233.6959 3.3723e+01     7.3175      0.804      1.166    23.6682 0.0000e+00
      0.828      0.028     5.5440     93.849     36.557  35.585683     2.5383      7.137   233.6955 3.3334e+01     7.5360      0.811      1.177    23.6669 0.0000e+00
      0.837      0.028     5.5495     93.844     36.559  35.588119     2.5225      7.135   233.8277 3.2896e+01     7.6512      0.821      1.191    23.6662 0.0000e+00
      0.846      0.028     5.5585     93.848     36.527  35.557592     2.5292      7.134   234.0044 3.2529e+01     7.6287      0.830      1.204    23.6657 0.0000e+00
      0.854      0.027     5.5623     93.855     36.503  35.533935     2.5416      7.133   234.0247 3.2250e+01     7.5589      0.837      1.215    23.6654 0.0000e+00
      0.860      0.026     5.5624     93.852     36.526  35.555954     2.5243      7.135   233.8148 3.2095e+01     7.4295      0.844      1.224    23.6658 0.0000e+00
      0.864      0.025     5.5613     93.844     36.541  35.569951     2.5019      7.138   233.7040 3.1961e+01     7.3435      0.847      1.229    23.6668 0.0000e+00
      0.869      0.025     5.5618     93.824     36.547  35.576241     2.4880      7.140   233.8030 3.1727e+01     7.3381      0.852      1.236    23.6665 0.0000e+00
      0.876      0.026     5.5629     93.767     36.539  35.568533     2.4856      7.141   233.9795 3.1442e+01     7.3641      0.859      1.245    23.6659 0.0000e+00
      0.884      0.026     5.5621     93.674     36.511  35.540218     2.5249      7.142   234.1176 3.1125e+01     7.3622      0.867      1.256    23.6661 0.0000e+00
      0.892      0.026     5.5617     93.581     36.524  35.551229     2.5900      7.144   234.2677 3.0829e+01     7.2823      0.875      1.268    23.6671 0.0000e+00
      0.899      0.025     5.5612     93.510     36.549  35.574723     2.6228      7.145   234.4187 3.0603e+01     7.2182      0.882      1.279    23.6684 0.0000e+00
      0.905      0.022     5.5582     93.440     36.546  35.570411     2.6273      7.144   234.4800 3.0463e+01     7.2092      0.888      1.288    23.6670 0.0000e+00
      0.910      0.018     5.5514     93.335     36.539  35.562560     2.6699      7.141   234.5786 3.0343e+01     7.3048      0.893      1.294    23.6645 0.0000e+00
      0.914      0.013     5.5460     93.205     36.519  35.543260     2.7479      7.140   234.6648 3.0153e+01     7.4897      0.896      1.300    23.6623 0.0000e+00
      0.918      0.009     5.5422     93.109     36.503  35.527460     2.7818      7.141   234.6623 3.0010e+01     7.5767      0.900      1.306    23.6604 0.0000e+00
      0.919      0.007     5.5394     93.092     36.538  35.561931     2.7763      7.142   234.8063 3.0036e+01     7.5692      0.902      1.308    23.6594 0.0000e+00
      0.918      0.006     5.5332     93.148     36.557  35.579240     2.7682      7.143   235.0291 3.0123e+01     7.5638      0.901      1.307    23.6588 0.0000e+00
      0.918      0.007     5.5239     93.256     36.525  35.546323     2.7440      7.144   235.1188 3.0144e+01     7.5763      0.899      1.305    23.6583 0.0000e+00
      0.919      0.009     5.5170     93.398     36.526  35.544744     2.7178      7.147   235.2032 3.0079e+01     7.5903      0.901      1.305    23.6581 0.0000e+00
      0.922      0.012     5.5164     93.552     36.544  35.560155     2.7122      7.149   235.2745 2.9966e+01     7.6011      0.904      1.311    23.6581 0.0000e+00
      0.927      0.015     5.5205     93.686     36.528  35.542246     2.7019      7.149   235.2062 2.9850e+01     7.5758      0.909      1.319    23.6573 0.0000e+00
      0.932      0.017     5.5272     93.746     36.506  35.518613     2.6803      7.150   235.2383 2.9737e+01     7.4817      0.915      1.326    23.6554 0.0000e+00
      0.936      0.018     5.5365     93.685     36.517  35.528278     2.6758      7.150   235.5767 2.9638e+01     7.4137      0.918      1.332    23.6522 0.0000e+00
      0.940      0.019     5.5465     93.508     36.524  35.532173     2.6824      7.149   235.8566 2.9578e+01     7.4087      0.923      1.339    23.6487 0.0000e+00
      0.944      0.021     5.5561     93.274     36.499  35.502222     2.6909      7.149   235.8682 2.9473e+01     7.3884      0.926      1.343    23.6455 0.0000e+00
      0.949      0.022     5.5610     93.020     36.486  35.483481     2.7259      7.149   235.8902 2.9230e+01     7.3648      0.930      1.349    23.6431 0.0000e+00
      0.956      0.024     5.5577     92.757     36.501  35.495979     2.7851      7.149   236.0353 2.8891e+01     7.3855      0.938      1.360    23.6417 0.0000e+00
      0.964      0.025     5.5456     92.527     36.532  35.526393     2.8091      7.148   236.3320 2.8514e+01     7.4087      0.945      1.371    23.6377 0.0000e+00
      0.971      0.025     5.5319     92.363     36.538  35.533864     2.7904      7.148   236.6390 2.8205e+01     7.4167      0.952      1.381    23.6289 0.0000e+00
      0.977      0.024     5.5183     92.267     36.526  35.522847     2.7494      7.148   236.7356 2.7941e+01     7.4167      0.958      1.390    23.6189 0.0000e+00
      0.983      0.023     5.5019     92.255     36.525  35.520129     2.6952      7.146   236.7263 2.7681e+01     7.4086      0.964      1.398    23.6154 0.0000e+00
      0.988      0.022     5.4867     92.339     36.506  35.500999     2.6722      7.142   236.6988 2.7468e+01     7.4174      0.969      1.406    23.6189 0.0000e+00
      0.993      0.022     5.4775     92.500     36.489  35.481950     2.6793      7.141   236.6604 2.7258e+01     7.4251      0.974      1.412    23.6218 0.0000e+00
      0.999      0.022     5.4711     92.698     36.491  35.480218     2.6688      7.142   236.6927 2.7068e+01     7.3696      0.980      1.421    23.6215 0.0000e+00
      1.004      0.023     5.4701     92.847     36.493  35.480053     2.6315      7.144   236.7448 2.6887e+01     7.2707      0.985      1.428    23.6190 0.0000e+00
      1.010      0.023     5.4762     92.881     36.494  35.479943     2.6091      7.145   236.6878 2.6662e+01     7.2132      0.990      1.435    23.6175 0.0000e+00
      1.016      0.022     5.4861     92.800     36.493  35.478892     2.6239      7.147   236.6066 2.6431e+01     7.1983      0.996      1.445    23.6160 0.0000e+00
      1.023      0.021     5.5007     92.621     36.483  35.467344     2.6891      7.149   236.6236 2.6263e+01     7.1893      1.004      1.456    23.6099 0.0000e+00
      1.029      0.019     5.5119     92.376     36.484  35.467249     2.7830      7.150   236.5484 2.6154e+01     7.1699      1.010      1.465    23.6058 0.0000e+00
      1.033      0.017     5.5133     92.103     36.498  35.477741     2.8306      7.151   236.2999 2.6061e+01     7.1607      1.014      1.471    23.6055 0.0000e+00
      1.036      0.016     5.5082     91.819     36.490  35.467260     2.8400      7.151   236.1997 2.5992e+01     7.1760      1.017      1.474    23.6042 0.0000e+00
      1.039      0.016     5.4975     91.554     36.492  35.467460     2.8362      7.152   236.3694 2.5895e+01     7.1912      1.018      1.477    23.6022 0.0000e+00
      1.042      0.017     5.4814     91.345     36.506  35.480154     2.8099      7.153   236.6315 2.5747e+01     7.1807      1.022      1.482    23.6011 0.0000e+00
      1.047      0.019     5.4660     91.218     36.521  35.493809     2.7910      7.155   236.7012 2.5566e+01     7.1465      1.026      1.488    23.5980 0.0000e+00
      1.052      0.021     5.4488     91.183     36.534  35.505615     2.7901      7.156   236.5237 2.5346e+01     7.1383      1.031      1.495    23.5925 0.0000e+00
      1.058      0.022     5.4323     91.200     36.525  35.495957     2.7729      7.156   236.3791 2.5106e+01     7.1146      1.038      1.505    23.5902 0.0000e+00
      1.065      0.021     5.4200     91.227     36.533  35.503978     2.7393      7.156   236.4148 2.4861e+01     7.0236      1.045      1.516    23.5900 0.0000e+00
      1.072      0.020     5.4114     91.275     36.567  35.539131     2.7219      7.156   236.5253 2.4623e+01     6.9560      1.051      1.525    23.5889 0.0000e+00
      1.077      0.018     5.4112     91.372     36.565  35.540171     2.7184      7.155   236.5967 2.4430e+01     6.9526      1.057      1.533    23.5864 0.0000e+00
      1.081      0.015     5.4135     91.510     36.539  35.516557     2.7233      7.155   236.7616 2.4352e+01     6.9499      1.061      1.539    23.5851 0.0000e+00
      1.083      0.013     5.4146     91.658     36.529  35.507495     2.7553      7.157   236.9709 2.4313e+01     6.9232      1.062      1.541    23.5857 0.0000e+00
      1.086      0.013     5.4161     91.799     36.518  35.494073     2.7924      7.158   236.9754 2.4202e+01     6.8912      1.064      1.544    23.5877 0.0000e+00
      1.089      0.014     5.4217     91.916     36.510  35.481209     2.7998      7.159   236.9020 2.4087e+01     6.8917      1.068      1.549    23.5925 0.0000e+00
      1.092      0.016     5.4305     91.991     36.514  35.478895     2.8012      7.160   236.9444 2.3996e+01     6.9287      1.071      1.553    23.5969 0.0000e+00
      1.096      0.019     5.4392     91.999     36.506  35.466088     2.8435      7.160   237.0584 2.3890e+01     6.9459      1.075      1.559    23.5973 0.0000e+00
      1.101      0.021     5.4483     91.911     36.495  35.453280     2.9037      7.161   237.3331 2.3751e+01     6.9358      1.080      1.566    23.5933 0.0000e+00
      1.107      0.023     5.4568     91.744     36.494  35.450973     2.9139      7.161   237.6846 2.3519e+01     6.9374      1.085      1.573    23.5849 0.0000e+00
      1.114      0.025     5.4622     91.557     36.483  35.438184     2.8971      7.161   237.8667 2.3228e+01     6.9652      1.093      1.585    23.5762 0.0000e+00
      1.122      0.025     5.4644     91.387     36.473  35.425585     2.9176      7.160   237.9862 2.3019e+01     7.1405      1.102      1.598    23.5697 0.0000e+00
      1.128      0.024     5.4596     91.244     36.477  35.425576     2.9620      7.160   238.0110 2.2860e+01     7.4518      1.107      1.605    23.5659 0.0000e+00
      1.134      0.023     5.4475     91.126     36.492  35.438069     2.9830      7.160   238.1672 2.2660e+01     7.6153      1.112      1.612    23.5644 0.0000e+00
      1.140      0.020     5.4365     91.027     36.503  35.449703     2.9812      7.160   238.5843 2.2480e+01     7.6101      1.118      1.621    23.5628 0.0000e+00
      1.145      0.018     5.4264     90.927     36.489  35.439308     2.9929      7.160   238.7514 2.2342e+01     7.4867      1.122      1.629    23.5586 0.0000e+00
      1.150      0.018     5.4188     90.803     36.488  35.439317     3.0199      7.160   238.7244 2.2219e+01     7.3027      1.128      1.636    23.5515 0.0000e+00
      1.154      0.019     5.4123     90.685     36.501  35.449817     3.0398      7.160   238.6881 2.2109e+01     7.2211      1.132      1.641    23.5482 0.0000e+00
      1.157      0.021     5.4060     90.599     36.494  35.439318     3.0505      7.160   238.6573 2.1953e+01     7.1887      1.133      1.644    23.5517 0.0000e+00
      1.161      0.023     5.4012     90.526     36.498  35.439310     3.0626      7.161   238.7821 2.1724e+01     7.2056      1.138      1.650    23.5568 0.0000e+00
      1.168      0.025     5.3920     90.467     36.512  35.449705     3.0822      7.161   238.9064 2.1467e+01     7.2937      1.145      1.661    23.5592 0.0000e+00
      1.177      0.025     5.3844     90.434     36.504  35.438060     3.0968      7.161   238.9558 2.1218e+01     7.3696      1.155      1.675    23.5557 0.0000e+00
      1.185      0.026     5.3817     90.436     36.495  35.425453     3.1008      7.162   239.0356 2.1018e+01     7.4030      1.163      1.686    23.5486 0.0000e+00
      1.191      0.026     5.3769     90.460     36.497  35.424204     3.1042      7.163   239.1831 2.0888e+01     7.4022      1.169      1.695    23.5438 0.0000e+00
      1.196      0.025     5.3738     90.443     36.501  35.422956     3.1462      7.163   239.3621 2.0758e+01     7.4577      1.173      1.701    23.5402 0.0000e+00
      1.201      0.024     5.3722     90.350     36.493  35.410358     3.2272      7.162   239.3071 2.0573e+01     7.5824      1.177      1.707    23.5345 0.0000e+00
      1.207      0.023     5.3724     90.209     36.484  35.398808     3.2775      7.162   239.0349 2.0343e+01     7.6322      1.184      1.717    23.5289 0.0000e+00
      1.215      0.021     5.3766     90.055     36.494  35.410233     3.2864      7.162   238.9963 2.0112e+01     7.6011      1.191      1.728    23.5247 0.0000e+00
      1.221      0.021     5.3772     89.941     36.504  35.421572     3.2654      7.162   239.2700 1.9949e+01     7.5991      1.199      1.739    23.5179 0.0000e+00
      1.226      0.021     5.3710     89.854     36.490  35.408972     3.2310      7.163   239.5048 1.9844e+01     7.6406      1.203      1.746    23.5099 0.0000e+00
      1.229      0.022     5.3629     89.698     36.465  35.384823     3.2261      7.163   239.5979 1.9742e+01     7.6776      1.206      1.748    23.5063 0.0000e+00
      1.233      0.025     5.3521     89.503     36.465  35.383460     3.2403      7.161   239.6219 1.9604e+01     7.6861      1.208      1.752    23.5090 0.0000e+00
      1.238      0.029     5.3437     89.350     36.480  35.392494     3.2903      7.160   239.5367 1.9366e+01     7.7101      1.213      1.759    23.5128 0.0000e+00
      1.247      0.034     5.3437     89.229     36.462  35.367108     3.3889      7.159   239.6005 1.9054e+01     7.8045      1.222      1.772    23.5140 0.0000e+00
      1.258      0.039     5.3321     89.102     36.432  35.330382     3.4526      7.158   239.8762 1.8747e+01     7.8774      1.234      1.790    23.5147 0.0000e+00
      1.270      0.043     5.3178     88.940     36.435  35.329237     3.4716      7.156   240.0315 1.8449e+01     7.8700      1.246      1.806    23.5130 0.0000e+00
      1.282      0.045     5.3112     88.748     36.462  35.353262     3.5227      7.154   240.1014 1.8185e+01     7.8790      1.257      1.823    23.5042 0.0000e+00
      1.293      0.045     5.3055     88.556     36.479  35.366985     3.6027      7.153   240.2046 1.7943e+01     7.8876      1.268      1.839    23.4913 0.0000e+00
      1.306      0.044     5.3003     88.399     36.482  35.368223     3.6402      7.152   240.2474 1.7664e+01     7.8435      1.280      1.857    23.4816 0.0000e+00
      1.317      0.042     5.2903     88.286     36.482  35.368233     3.6392      7.150   240.2753 1.7404e+01     7.8040      1.292      1.876    23.4771 0.0000e+00
      1.327      0.040     5.2792     88.213     36.482  35.367099     3.6423      7.148   240.3690 1.7174e+01     7.7052      1.302      1.889    23.4736 0.0000e+00
      1.336      0.038     5.2665     88.152     36.470  35.354512     3.6432      7.147   240.5199 1.6925e+01     7.5015      1.310      1.901    23.4699 0.0000e+00
      1.345      0.037     5.2579     88.059     36.460  35.342972     3.6409      7.146   240.8091 1.6708e+01     7.3728      1.320      1.915    23.4676 0.0000e+00
      1.354      0.037     5.2511     87.940     36.472  35.354512     3.6403      7.145   241.1124 1.6500e+01     7.3621      1.328      1.926    23.4664 0.0000e+00
      1.363      0.037     5.2471     87.828     36.486  35.367102     3.6368      7.143   241.2624 1.6250e+01     7.3712      1.336      1.938    23.4654 0.0000e+00
      1.374      0.038     5.2457     87.763     36.487  35.368256     3.6416      7.142   241.4180 1.6002e+01     7.4504      1.348      1.954    23.4640 0.0000e+00
      1.384      0.038     5.2392     87.744     36.488  35.368464     3.6462      7.142   241.4454 1.5785e+01     7.5980      1.358      1.969    23.4628 0.0000e+00
      1.393      0.039     5.2319     87.729     36.490  35.369617     3.6403      7.142   241.2495 1.5588e+01     7.6493      1.366      1.981    23.4618 0.0000e+00
      1.403      0.040     5.2240     87.694     36.504  35.382198     3.6399      7.142   241.4582 1.5395e+01     7.6109      1.376      1.995    23.4617 0.0000e+00
      1.414      0.041     5.2201     87.660     36.516  35.393634     3.6154      7.143   242.0755 1.5185e+01     7.6255      1.386      2.011    23.4615 0.0000e+00
      1.424      0.042     5.2205     87.635     36.504  35.380950     3.5606      7.143   242.4326 1.4971e+01     7.6626      1.396      2.025    23.4606 0.0000e+00
      1.434      0.044     5.2201     87.572     36.478  35.355773     3.5236      7.143   242.5066 1.4770e+01     7.6327      1.406      2.039    23.4595 0.0000e+00
      1.446      0.045     5.2177     87.478     36.465  35.343088     3.5053      7.143   242.4531 1.4546e+01     7.5927      1.417      2.056    23.4581 0.0000e+00
      1.458      0.045     5.2147     87.409     36.478  35.354514     3.5045      7.141   242.4756 1.4303e+01     7.6037      1.430      2.075    23.4570 0.0000e+00
      1.470      0.044     5.2157     87.371     36.492  35.366989     3.5228      7.139   242.6916 1.4059e+01     7.6351      1.441      2.091    23.4562 0.0000e+00
      1.482      0.041     5.2118     87.350     36.492  35.366999     3.5271      7.139   242.9140 1.3801e+01     7.6449      1.452      2.106    23.4557 0.0000e+00
      1.493      0.038     5.2038     87.333     36.479  35.354628     3.5222      7.140   243.0997 1.3591e+01     7.6248      1.466      2.125    23.4552 0.0000e+00
      1.502      0.036     5.2005     87.298     36.469  35.344346     3.5407      7.140   243.2162 1.3469e+01     7.6209      1.474      2.139    23.4542 0.0000e+00
      1.508      0.036     5.1986     87.258     36.495  35.369620     3.5687      7.139   243.2894 1.3340e+01     7.6624      1.478      2.145    23.4534 0.0000e+00
      1.515      0.037     5.1975     87.270     36.533  35.406338     3.5833      7.139   243.2971 1.3165e+01     7.7010      1.485      2.154    23.4530 0.0000e+00
      1.524      0.039     5.1971     87.347     36.534  35.407483     3.5965      7.140   243.3100 1.2970e+01     7.6947      1.495      2.168    23.4528 0.0000e+00
      1.535      0.042     5.1951     87.419     36.510  35.383458     3.6587      7.139   243.4447 1.2733e+01     7.5540      1.505      2.183    23.4525 0.0000e+00
      1.547      0.047     5.1910     87.464     36.496  35.369743     3.7635      7.139   243.6356 1.2489e+01     7.3095      1.518      2.201    23.4523 0.0000e+00
      1.560      0.051     5.1905     87.514     36.495  35.368590     3.8231      7.139   243.8972 1.2264e+01     7.1965      1.529      2.218    23.4524 0.0000e+00
      1.573      0.056     5.1984     87.564     36.496  35.369507     3.8243      7.138   244.0266 1.2027e+01     7.2037      1.543      2.237    23.4522 0.0000e+00
      1.588      0.060     5.2030     87.609     36.508  35.380837     3.8038      7.137   243.8232 1.1783e+01     7.1995      1.557      2.258    23.4519 0.0000e+00
      1.603      0.061     5.2037     87.665     36.506  35.378643     3.7408      7.137   243.5893 1.1498e+01     7.2769      1.570      2.277    23.4517 0.0000e+00
      1.621      0.060     5.2078     87.736     36.470  35.342975     3.6432      7.136   243.6071 1.1193e+01     7.4848      1.590      2.305    23.4511 0.0000e+00
      1.640      0.056     5.2109     87.813     36.457  35.330386     3.5946      7.136   243.6942 1.0946e+01     7.6481      1.610      2.335    23.4509 0.0000e+00
      1.655      0.049     5.2129     87.893     36.482  35.353370     3.5866      7.137   243.7825 1.0747e+01     7.6783      1.623      2.356    23.4507 0.0000e+00
      1.667      0.042     5.2162     87.965     36.497  35.366999     3.4947      7.139   243.7276 1.0594e+01     7.4899      1.637      2.374    23.4497 0.0000e+00
      1.675      0.036     5.2211     88.005     36.498  35.368238     3.3247      7.139   243.4607 1.0529e+01     7.1404      1.645      2.387    23.4491 0.0000e+00
      1.680      0.031     5.2256     87.997     36.498  35.368351     3.2294      7.140   243.3090 1.0489e+01     6.9585      1.647      2.389    23.4487 0.0000e+00
      1.684      0.030     5.2304     87.932     36.499  35.368362     3.2272      7.141   243.2696 1.0400e+01     6.9624      1.650      2.393    23.4478 0.0000e+00
      1.691      0.031     5.2357     87.826     36.500  35.368363     3.2204      7.143   243.4145 1.0266e+01     6.9911      1.657      2.404    23.4473 0.0000e+00
      1.701      0.033     5.2381     87.711     36.500  35.368363     3.1816      7.144   243.6837 1.0099e+01     6.9771      1.668      2.420    23.4470 0.0000e+00
      1.712      0.038     5.2380     87.616     36.501  35.368364     3.1567      7.144   243.8583 9.9441e+00     6.9241      1.680      2.437    23.4465 0.0000e+00
      1.721      0.042     5.2341     87.549     36.502  35.368373     3.1620      7.143   243.9771 9.8326e+00     6.9072      1.689      2.450    23.4453 0.0000e+00
      1.731      0.045     5.2270     87.504     36.503  35.368478     3.2116      7.141   244.0019 9.7142e+00     6.9364      1.696      2.461    23.4445 0.0000e+00
      1.742      0.047     5.2195     87.483     36.505  35.369633     3.2962      7.139   244.0716 9.5660e+00     6.9497      1.708      2.477    23.4438 0.0000e+00
      1.755      0.048     5.2138     87.489     36.519  35.382326     3.3357      7.139   244.2173 9.3975e+00     6.9380      1.720      2.495    23.4429 0.0000e+00
      1.769      0.049     5.2103     87.492     36.533  35.395010     3.3425      7.139   244.3005 9.2092e+00     6.9590      1.735      2.516    23.4420 0.0000e+00
      1.783      0.050     5.2076     87.449     36.534  35.396059     3.3786      7.138   244.5622 9.0436e+00     6.9739      1.751      2.538    23.4406 0.0000e+00
      1.795      0.052     5.2061     87.387     36.534  35.395012     3.4337      7.136   245.0583 8.9096e+00     6.9539      1.762      2.554    23.4394 0.0000e+00
      1.805      0.055     5.2070     87.332     36.521  35.382338     3.4630      7.134   245.3939 8.7648e+00     6.9462      1.770      2.568    23.4382 0.0000e+00
      1.818      0.058     5.2094     87.236     36.510  35.369758     3.4632      7.132   245.4374 8.5787e+00     6.9469      1.781      2.583    23.4372 0.0000e+00
      1.834      0.061     5.2056     87.088     36.511  35.369853     3.4629      7.129   245.3263 8.3547e+00     6.9291      1.796      2.605    23.4365 0.0000e+00
      1.853      0.062     5.2004     86.948     36.526  35.383482     3.4761      7.126   245.2549 8.1163e+00     6.9281      1.817      2.635    23.4360 0.0000e+00
      1.872      0.061     5.1999     86.885     36.552  35.407601     3.5017      7.123   245.5206 7.8883e+00     6.9670      1.837      2.664    23.4355 0.0000e+00
      1.889      0.056     5.1941     86.911     36.552  35.407601     3.5209      7.122   245.9569 7.7207e+00     6.9738      1.854      2.690    23.4339 0.0000e+00
      1.903      0.049     5.1841     86.987     36.528  35.383483     3.5254      7.122   246.1421 7.6026e+00     6.9446      1.866      2.706    23.4323 0.0000e+00
      1.914      0.043     5.1739     87.075     36.515  35.369868     3.5139      7.123   246.1261 7.5161e+00     6.8764      1.877      2.722    23.4309 0.0000e+00
      1.922      0.038     5.1700     87.156     36.516  35.369911     3.4949      7.124   246.0216 7.4814e+00     6.7714      1.886      2.736    23.4297 0.0000e+00
      1.927      0.038     5.1730     87.233     36.531  35.383996     3.4858      7.127   245.9965 7.4318e+00     6.7235      1.889      2.740    23.4290 0.0000e+00
      1.934      0.042     5.1781     87.298     36.562  35.413234     3.4823      7.128   246.2524 7.3329e+00     6.7237      1.895      2.749    23.4281 0.0000e+00
      1.944      0.047     5.1842     87.313     36.623  35.469549     3.4353      7.128   246.5349 7.2024e+00     6.7083      1.906      2.764    23.4272 0.0000e+00
      1.959      0.052     5.1886     87.261     36.786  35.620610     3.3415      7.127   246.6581 7.0307e+00     6.7011      1.921      2.786    23.4261 0.0000e+00
      1.975      0.056     5.1934     87.121     37.028  35.843371     3.2930      7.126   246.7970 6.8597e+00     6.7346      1.938      2.810    23.4255 0.0000e+00
      1.992      0.056     5.1988     86.813     37.213  36.004944     3.2917      7.125   246.9236 6.7090e+00     6.7526      1.953      2.832    23.4238 0.0000e+00
      2.008      0.052     5.2002     86.125     37.280  36.050860     3.2310      7.125   246.8114 6.5643e+00     6.7558      1.969      2.856    23.4201 0.0000e+00
      2.023      0.046     5.1976     84.650     37.262  36.017695     3.1139      7.125   246.5585 6.4725e+00     6.7723      1.987      2.882    23.4132 0.0000e+00
      2.033      0.041     5.1927     82.060     37.240  35.984746     3.0544      7.125   246.5337 6.4343e+00     6.7560      1.996      2.895    23.3978 0.0000e+00
      2.039      0.037     5.1794     78.427     37.362  36.096748     3.0669      7.125   246.7694 6.3766e+00     6.7551      1.999      2.900    23.3735 0.0000e+00
      2.045      0.037     5.1517     74.226     37.700  36.419823     3.1689      7.125   247.0856 6.2929e+00     6.8930      2.005      2.908    23.3454 0.0000e+00
      2.053      0.038     5.0753     70.084     38.081  36.780910     3.3521      7.125   247.3454 6.2044e+00     7.1121      2.013      2.919    23.3221 0.0000e+00
      2.063      0.040     4.9196     66.308     38.366  37.035111     3.4608      7.125   247.2437 6.0938e+00     7.2086      2.022      2.932    23.3063 0.0000e+00
      2.076      0.041     4.6936     62.621     38.515  37.144810     3.4693      7.124   246.8884 5.9571e+00     7.2080      2.035      2.951    23.2986 0.0000e+00
      2.091      0.039     4.4262     58.392     38.428  37.028158     3.4547      7.122   246.7493 5.8278e+00     7.2028      2.051      2.975    23.2997 0.0000e+00
      2.103      0.034     4.1717     53.207     38.236  36.830625     3.4483      7.122   246.8517 5.7470e+00     7.1784      2.064      2.993    23.2939 0.0000e+00
      2.110      0.030     3.9555     47.246     38.186  36.787596     3.4533      7.123   247.0943 5.7141e+00     7.1750      2.070      3.003    23.2687 0.0000e+00
      2.114      0.027     3.7549     41.170     38.351  36.952223     3.4547      7.125   247.1873 5.6963e+00     7.1940      2.073      3.007    23.2145 0.0000e+00
      2.116      0.027     3.5183     36.034     38.780  37.361226     3.4558      7.126   246.9440 5.6714e+00     7.2123      2.075      3.009    23.1602 0.0000e+00
      2.120      0.032     3.2011     32.728     39.392  37.924344     3.4494      7.125   246.7337 5.6351e+00     7.1666      2.079      3.014    23.1493 0.0000e+00
      2.129      0.039     2.8322     31.231     39.970  38.428833     3.4296      7.124   246.7955 5.5730e+00     7.0346      2.086      3.026    23.1628 0.0000e+00
      2.142      0.049     2.4436     30.760     40.321  38.700085     3.4154      7.121   247.0887 5.4792e+00     6.9271      2.099      3.045    23.1735 0.0000e+00
      2.157      0.058     2.1104     30.126     40.488  38.791765     3.4076      7.116   247.6125 5.3651e+00     6.8826      2.115      3.067    23.1755 0.0000e+00
      2.173      0.064     1.9182     28.037     40.665  38.902434     3.4052      7.111   248.3962 5.2282e+00     6.8901      2.130      3.089    23.1458 0.0000e+00
      2.192      0.069     1.8490     23.922     40.840  39.022414     3.4117      7.105   249.0791 5.0894e+00     6.9205      2.149      3.117    23.0727 0.0000e+00
      2.211      0.069     1.8481     18.327     40.967  39.099733     3.4082      7.099   249.5020 4.9503e+00     6.9225      2.168      3.145    22.9861 0.0000e+00
      2.230      0.065     1.8454     12.133     41.048  39.138948     3.3889      7.095   250.0676 4.7817e+00     6.8807      2.186      3.171    22.8942 0.0000e+00
      2.249      0.059     1.7396      6.108     41.113  39.179098     3.3261      7.092   250.6692 4.6321e+00     6.7102      2.208      3.202    22.8217 0.0000e+00
      2.264      0.051     1.4721      0.900     41.214  39.267745     3.2213      7.088   251.3558 4.5483e+00     6.4666      2.223      3.225    22.7715 0.0000e+00
      2.274      0.044     1.1177     -2.938     41.279  39.322034     3.1626      7.084   252.3467 4.4937e+00     6.3609      2.230      3.235    22.7133 0.0000e+00
      2.281      0.038     0.7292     -5.000     41.230  39.264154     3.1540      7.080   253.1862 4.4397e+00     6.3167      2.236      3.244    22.6618 0.0000e+00
      2.289      0.035     0.3507     -5.370     41.105  39.139239     3.1083      7.076   253.7623 4.3857e+00     6.1292      2.244      3.254    22.6347 0.0000e+00
      2.297      0.035     0.0268     -4.592     41.039  39.081304     3.0268      7.072   254.2365 4.3241e+00     5.8960      2.252      3.265    22.6360 0.0000e+00
      2.305      0.037    -0.2188     -3.297     41.089  39.134996     2.9838      7.068   254.8754 4.2585e+00     5.8241      2.260      3.279    22.6286 0.0000e+00
      2.315      0.042    -0.3398     -1.879     41.177  39.217113     2.9782      7.063   255.6355 4.2090e+00     5.8496      2.270      3.291    22.6058 0.0000e+00
      2.325      0.047    -0.3493     -0.472     41.287  39.312407     2.9848      7.058   256.0282 4.1633e+00     5.8114      2.280      3.306    22.5980 0.0000e+00
      2.338      0.052    -0.2867      0.828     41.462  39.461913     3.0719      7.053   256.1817 4.0938e+00     5.5587      2.293      3.325    22.6082 0.0000e+00
      2.352      0.057    -0.2000      1.889     41.799  39.755123     3.2329      7.048   256.2871 4.0002e+00     5.1534      2.306      3.344    22.6218 0.0000e+00
      2.368      0.061    -0.1136      2.624     42.302  40.191281     3.3281      7.043   256.2703 3.8942e+00     4.9422      2.321      3.368    22.6178 0.0000e+00
      2.386      0.062    -0.0267      3.003     42.663  40.482016     3.3472      7.038   256.3226 3.7969e+00     4.9385      2.340      3.395    22.6036 0.0000e+00
      2.404      0.061     0.0556      3.081     42.709  40.477008     3.4385      7.033   256.4886 3.7174e+00     4.8798      2.358      3.419    22.5873 0.0000e+00
      2.420      0.060     0.1213      2.975     42.642  40.384602     3.6080      7.029   256.6436 3.6459e+00     4.7235      2.374      3.443    22.5562 0.0000e+00
      2.434      0.057     0.1667      2.749     42.650  40.380464     3.7059      7.025   256.9066 3.5815e+00     4.6225      2.388      3.463    22.5054 0.0000e+00
      2.447      0.052     0.1894      2.450     42.642  40.363480     3.7728      7.022   257.0864 3.5269e+00     4.6086      2.400      3.481    22.4382 0.0000e+00
      2.460      0.046     0.1900      2.165     42.525  40.242707     4.3643      7.020   256.9248 3.4710e+00     4.4250      2.412      3.499    22.3724 0.0000e+00
      2.473      0.039     0.1835      1.962     42.467  40.189877     5.4392      7.016   256.7597 3.4131e+00     4.0406      2.425      3.518    22.3379 0.0000e+00
      2.483      0.034     0.1690      1.877     42.502  40.232607     6.0356      7.012   256.8966 3.3644e+00     3.7946      2.437      3.534    22.3362 0.0000e+00
      2.490      0.030     0.1484      1.913     42.519  40.251489     6.2341      7.010   257.1176 3.3299e+00     3.7456      2.444      3.543    22.3267 0.0000e+00
      2.495      0.026     0.1299      2.082     42.500  40.227733     7.8400      7.008   257.1949 3.3026e+00     3.6442      2.446      3.548    22.3036 0.0000e+00
      2.500      0.023     0.1163      2.376     42.405  40.135815    10.7743      7.007   257.0564 3.2742e+00     3.4211      2.450      3.554    22.3086 0.0000e+00
      2.505      0.022     0.1119      2.716     42.279  40.028889    12.3737      7.006   256.9056 3.2468e+00     3.2757      2.457      3.563    22.3304 0.0000e+00
      2.510      0.023     0.1136      3.026     42.239  40.014143    12.4653      7.003   257.0071 3.2213e+00     3.2628      2.463      3.572    22.3332 0.0000e+00
      2.515      0.025     0.1233      3.286     42.295  40.084520    11.9171      7.000   257.2516 3.1953e+00     3.2990      2.467      3.578    22.3205 0.0000e+00
      2.522      0.028     0.1437      3.519     42.468  40.244998    10.9029      6.996   257.7097 3.1656e+00     3.3522      2.472      3.585    22.3101 0.0000e+00
      2.530      0.033     0.1659      3.736     42.898  40.621309    10.3550      6.994   258.0725 3.1332e+00     3.3817      2.481      3.598    22.3282 0.0000e+00
      2.538      0.040     0.1853      3.914     43.458  41.079242    10.3479      6.991   258.0244 3.0940e+00     3.3605      2.489      3.610    22.3653 0.0000e+00
      2.547      0.048     0.1999      4.021     43.792  41.274229    10.8517      6.987   257.9883 3.0409e+00     3.3250      2.497      3.622    22.3907 0.0000e+00
      2.559      0.055     0.2137      4.035     43.867  41.201099    12.8218      6.984   258.0656 2.9730e+00     3.3139      2.508      3.638    22.3887 0.0000e+00
      2.574      0.060     0.2279      3.943     43.815  41.020153    15.4852      6.979   258.2712 2.8830e+00     3.2912      2.523      3.659    22.3572 0.0000e+00
      2.594      0.064     0.2394      3.698     43.767  40.863872    16.7511      6.974   258.4955 2.7834e+00     3.2802      2.544      3.690    22.2834 0.0000e+00
      2.615      0.066     0.2478      3.309     43.840  40.835042    16.8122      6.969   258.3675 2.7111e+00     3.2797      2.565      3.721    22.1301 0.0000e+00
      2.633      0.064     0.2485      2.856     43.960  40.861910    16.1896      6.965   258.1010 2.6516e+00     3.2191      2.582      3.745    21.9473 0.0000e+00
      2.648      0.060     0.2458      2.396     44.045  40.871180    15.0318      6.962   257.9407 2.5821e+00     3.1375      2.597      3.766    21.7961 0.0000e+00
      2.662      0.054     0.2316      1.996     44.101  40.883536    14.3958      6.957   257.8056 2.5305e+00     3.1125      2.611      3.786    21.6740 0.0000e+00
      2.675      0.048     0.2047      1.687     44.110  40.884279    14.2492      6.952   257.7587 2.4958e+00     3.1463      2.623      3.804    21.5644 0.0000e+00
      2.688      0.043     0.1774      1.467     44.093  40.880156    13.2766      6.948   257.8902 2.4541e+00     3.2508      2.637      3.824    21.4656 0.0000e+00
      2.698      0.039     0.1466      1.349     44.098  40.897186    11.5049      6.944   258.1038 2.4129e+00     3.4255      2.648      3.840    21.3799 0.0000e+00
      2.705      0.038     0.1213      1.332     44.098  40.899748    10.5407      6.942   258.2766 2.3887e+00     3.5550      2.652      3.847    21.3315 0.0000e+00
      2.712      0.038     0.1032      1.370     44.048  40.847648    10.4443      6.938   258.4313 2.3652e+00     3.5708      2.659      3.857    21.3325 0.0000e+00
      2.722      0.040     0.0885      1.418     43.929  40.711647    10.1753      6.933   258.5969 2.3315e+00     3.4852      2.670      3.872    21.3513 0.0000e+00
      2.732      0.045     0.0810      1.469     43.865  40.588534     9.6723      6.929   258.9882 2.2901e+00     3.3723      2.678      3.884    21.3716 0.0000e+00
      2.743      0.050     0.0812      1.518     43.922  40.565234     9.3898      6.926   259.4627 2.2345e+00     3.3524      2.688      3.899    21.3705 0.0000e+00
      2.759      0.053     0.0851      1.558     43.972  40.556795     9.3174      6.923   259.5162 2.1805e+00     3.3769      2.704      3.922    21.3665 0.0000e+00
      2.776      0.053     0.0874      1.584     44.020  40.549918     8.8152      6.919   259.3770 2.1402e+00     3.4056      2.723      3.949    21.3561 0.0000e+00
      2.791      0.050     0.0914      1.595     44.087  40.545499     7.8866      6.917   259.4148 2.0967e+00     3.4696      2.737      3.969    21.2675 0.0000e+00
      2.805      0.045     0.0945      1.596     44.118  40.503271     7.3749      6.916   259.8871 2.0542e+00     3.4955      2.750      3.989    21.1541 0.0000e+00
      2.816      0.039     0.0972      1.597     44.183  40.483646     7.3882      6.914   260.6141 2.0381e+00     3.4564      2.763      4.008    21.1129 0.0000e+00
      2.823      0.034     0.0991      1.609     44.296  40.498563     8.0047      6.912   260.8909 2.0348e+00     3.3901      2.768      4.015    21.0648 0.0000e+00
      2.828      0.029     0.0996      1.603     44.376  40.493058     9.1241      6.910   260.8240 2.0233e+00     3.3170      2.773      4.021    20.9762 0.0000e+00
      2.834      0.027     0.1000      1.572     44.416  40.480465     9.7383      6.909   260.6657 2.0106e+00     3.2940      2.779      4.032    20.9021 0.0000e+00
      2.841      0.027     0.0991      1.553     44.438  40.473206     9.7957      6.909   260.5266 2.0034e+00     3.3082      2.787      4.042    20.8160 0.0000e+00
      2.847      0.028     0.1017      1.541     44.463  40.468738     9.8181      6.908   260.6909 1.9924e+00     3.2912      2.792      4.049    20.7064 0.0000e+00
      2.853      0.029     0.1019      1.521     44.514  40.489897    10.2167      6.906   260.8449 1.9683e+00     3.2861      2.797      4.057    20.6060 0.0000e+00
      2.862      0.030     0.0979      1.493     44.582  40.538547    10.9739      6.904   260.7545 1.9328e+00     3.3114      2.807      4.070    20.5532 0.0000e+00
      2.871      0.031     0.0977      1.467     44.688  40.612549    11.3783      6.902   260.6295 1.9066e+00     3.3022      2.817      4.085    20.5400 0.0000e+00
      2.879      0.034     0.0974      1.458     44.847  40.686278    11.3958      6.901   260.4528 1.9036e+00     3.2742      2.824      4.096    20.5048 0.0000e+00
      2.885      0.037     0.0959      1.458     45.011  40.731562    11.2725      6.900   260.2525 1.8785e+00     3.3328      2.828      4.101    20.4643 0.0000e+00
      2.893      0.041     0.0943      1.458     45.154  40.779009    11.0313      6.898   260.1861 1.8185e+00     3.4533      2.836      4.112    20.4601 0.0000e+00
      2.905      0.046     0.0918      1.455     45.241  40.815438    10.8904      6.895   260.2526 1.7766e+00     3.5183      2.850      4.134    20.4608 0.0000e+00
      2.918      0.051     0.0919      1.450     45.310  40.854540    10.8345      6.893   260.4537 1.7516e+00     3.5618      2.861      4.150    20.3766 0.0000e+00
      2.933      0.055     0.0926      1.446     45.495  40.997805    10.4251      6.890   260.6388 1.7168e+00     3.6515      2.875      4.169    20.2249 0.0000e+00
      2.950      0.055     0.0924      1.440     45.760  41.214387     9.6946      6.888   260.5125 1.6732e+00     3.7514      2.894      4.196    20.1319 0.0000e+00
      2.966      0.054     0.0926      1.421     46.032  41.441591     9.2936      6.886   260.3026 1.6307e+00     3.7863      2.909      4.218    20.0976 0.0000e+00
      2.980      0.051     0.0921      1.398     46.357  41.713271     9.2167      6.884   260.5103 1.6106e+00     3.7792      2.923      4.239    20.0798 0.0000e+00
      2.991      0.046     0.0918      1.373     46.668  41.959670     8.8515      6.881   260.9593 1.6056e+00     3.8288      2.934      4.255    20.0539 0.0000e+00
      3.001      0.042     0.0921      1.356     46.913  42.135107     8.1994      6.878   261.1711 1.5898e+00     3.9275      2.942      4.268    20.0236 0.0000e+00
      3.011      0.039     0.0903      1.354     47.167  42.310635     7.8430      6.876   260.9206 1.5719e+00     3.9891      2.953      4.283    20.0101 0.0000e+00
      3.020      0.038     0.0891      1.356     47.439  42.494626     7.7671      6.874   260.5111 1.5554e+00     3.9835      2.962      4.296    19.9926 0.0000e+00
      3.028      0.039     0.0873      1.352     47.693  42.645373     7.2906      6.871   260.4366 1.5294e+00     4.0569      2.968      4.306    19.9563 0.0000e+00
      3.037      0.041     0.0858      1.347     47.912  42.736382     6.4165      6.869   260.6215 1.5066e+00     4.2534      2.977      4.320    19.9032 0.0000e+00
      3.047      0.044     0.0864      1.350     48.095  42.769470     5.9383      6.866   260.7685 1.4803e+00     4.3929      2.987      4.332    19.8504 0.0000e+00
      3.059      0.048     0.0866      1.353     48.238  42.791289     5.8952      6.864   260.6646 1.4398e+00     4.4661      2.999      4.349    19.7887 0.0000e+00
      3.074      0.053     0.0867      1.353     48.445  42.936562     5.8434      6.862   260.3976 1.4098e+00     4.5155      3.014      4.372    19.7122 0.0000e+00
      3.088      0.057     0.0860      1.363     48.838  43.256035     5.3465      6.860   260.2939 1.3961e+00     4.9246      3.028      4.392    19.6113 0.0000e+00
      3.101      0.061     0.0869      1.375     49.343  43.606284     4.4397      6.857   260.5293 1.3759e+00     5.7421      3.041      4.410    19.4534 0.0000e+00
      3.116      0.063     0.0877      1.388     49.810  43.869536     3.9396      6.853   260.9202 1.3410e+00     6.2386      3.055      4.431    19.3102 0.0000e+00
      3.135      0.064     0.0865      1.404     50.150  44.025956     3.8940      6.849   261.2351 1.3026e+00     6.3727      3.074      4.458    19.3017 0.0000e+00
      3.154      0.063     0.0883      1.425     50.362  44.100434     3.9235      6.846   261.4969 1.2641e+00     6.6106      3.093      4.486    19.3214 0.0000e+00
      3.171      0.061     0.0888      1.449     50.570  44.198426     3.9839      6.843   261.5913 1.2322e+00     6.9848      3.110      4.511    19.2023 0.0000e+00
      3.186      0.058     0.0899      1.450     50.872  44.385195     4.0089      6.840   261.4297 1.2162e+00     7.1933      3.126      4.533    19.0261 0.0000e+00
      3.200      0.053     0.0914      1.447     51.192  44.580608     3.9913      6.837   261.3496 1.2085e+00     7.2309      3.138      4.552    18.8785 0.0000e+00
      3.212      0.049     0.0921      1.452     51.443  44.719594     3.8846      6.833   261.7409 1.2024e+00     7.4729      3.151      4.570    18.7669 0.0000e+00
      3.224      0.046     0.0960      1.443     51.593  44.795587     3.6985      6.831   262.2899 1.1915e+00     7.8898      3.162      4.586    18.6946 0.0000e+00
      3.234      0.045     0.0947      1.423     51.698  44.864375     3.5964      6.829   262.3949 1.1706e+00     8.0765      3.172      4.600    18.6257 0.0000e+00
      3.244      0.045     0.0942      1.394     51.832  44.979774     3.5771      6.826   262.2353 1.1411e+00     8.0595      3.181      4.613    18.5381 0.0000e+00
      3.255      0.046     0.0962      1.361     51.898  45.047872     3.5352      6.822   262.5970 1.1135e+00     8.2086      3.191      4.629    18.4489 0.0000e+00
      3.268      0.048     0.0945      1.330     51.899  45.052757     3.4713      6.819   263.4128 1.0900e+00     8.5359      3.205      4.648    18.3957 0.0000e+00
      3.280      0.050     0.0939      1.300     52.271  45.356350     3.4459      6.816   263.8400 1.0630e+00     8.7394      3.217      4.666    18.3807 0.0000e+00
      3.293      0.050     0.0915      1.266     53.351  46.241993     3.4623      6.812   263.7175 1.0513e+00     8.7682      3.230      4.684    18.3795 0.0000e+00
      3.307      0.050     0.0893      1.235     54.470  47.124470     3.4693      6.809   263.3941 1.0470e+00     8.6867      3.244      4.704    18.3976 0.0000e+00
      3.321      0.048     0.0873      1.223     54.739  47.262558     3.4616      6.806   263.2858 1.0247e+00     8.5739      3.257      4.724    18.4104 0.0000e+00
      3.334      0.043     0.0855      1.222     54.445  46.958925     3.4557      6.803   263.5267 9.9668e-01     8.5521      3.268      4.740    18.3897 0.0000e+00
      3.346      0.038     0.0836      1.221     54.282  46.819070     3.4590      6.803   263.8975 9.7018e-01     8.5536      3.282      4.760    18.3495 0.0000e+00
      3.356      0.034     0.0804      1.221     54.287  46.841721     3.4577      6.802   264.0700 9.5293e-01     8.5271      3.294      4.776    18.2605 0.0000e+00
      3.361      0.031     0.0809      1.231     54.208  46.788283     3.3358      6.801   263.8916 9.5054e-01     8.5596      3.296      4.781    18.1451 0.0000e+00
      3.364      0.030     0.0807      1.227     54.012  46.617504     3.1039      6.800   263.5476 9.4975e-01     8.6838      3.297      4.784    18.1001 0.0000e+00
      3.370      0.032     0.0808      1.197     54.025  46.618497     2.9784      6.796   263.0931 9.4181e-01     8.7834      3.303      4.791    18.1192 0.0000e+00
      3.380      0.035     0.0802      1.177     54.468  46.990791     2.9709      6.792   263.0422 9.2666e-01     8.8134      3.313      4.806    18.1397 0.0000e+00
      3.391      0.039     0.0813      1.169     55.161  47.562528     2.9611      6.789   263.7072 9.1156e-01     8.8169      3.325      4.823    18.1586 0.0000e+00
      3.402      0.044     0.0826      1.153     55.953  48.196691     2.9379      6.785   264.2511 9.0869e-01     8.7934      3.336      4.838    18.1549 0.0000e+00
      3.414      0.048     0.0780      1.137     56.761  48.815492     2.9247      6.781   264.1112 8.9405e-01     8.7589      3.349      4.857    18.1345 0.0000e+00
      3.425      0.052     0.0774      1.126     57.358  49.201294     2.9139      6.777   263.5645 8.5266e-01     8.6947      3.360      4.873    18.1399 0.0000e+00
      3.437      0.054     0.0778      1.129     57.660  49.304547     2.8769      6.772   263.2339 8.2310e-01     8.4428      3.369      4.886    18.1174 0.0000e+00
      3.452      0.057     0.0759      1.150     57.812  49.301555     2.8240      6.767   263.1248 8.0494e-01     8.0721      3.386      4.910    18.0675 0.0000e+00
      3.470      0.060     0.0757      1.190     57.857  49.228466     2.7945      6.762   262.5898 7.7366e-01     7.8840      3.404      4.937    18.0186 0.0000e+00
      3.486      0.064     0.0740      1.225     57.867  49.119344     2.7887      6.757   261.8410 7.4537e-01     7.8401      3.419      4.958    17.8983 0.0000e+00
      3.501      0.065     0.0750      1.230     57.945  49.061746     2.7631      6.753   261.5560 7.2797e-01     7.5088      3.433      4.979    17.7364 0.0000e+00
      3.518      0.065     0.0761      1.244     58.060  49.040001     2.7091      6.749   261.6400 7.0467e-01     6.8924      3.449      5.002    17.6264 0.0000e+00
      3.536      0.066     0.0794      1.273     58.274  49.110332     2.6743      6.744   261.8236 6.7643e-01     6.5482      3.467      5.028    17.5456 0.0000e+00
      3.553      0.067     0.0837      1.281     58.668  49.340360     2.6711      6.740   261.7969 6.5112e-01     6.4930      3.485      5.055    17.4395 0.0000e+00
      3.569      0.070     0.0819      1.271     59.164  49.661653     2.6619      6.736   261.4891 6.3182e-01     6.2253      3.501      5.076    17.3288 0.0000e+00
      3.585      0.072     0.0828      1.266     59.692  50.009763     2.6328      6.733   261.3725 6.1679e-01     5.7048      3.515      5.098    17.2266 0.0000e+00
      3.604      0.074     0.0869      1.256     60.239  50.373445     2.6133      6.729   261.4190 5.9054e-01     5.4095      3.534      5.125    17.1296 0.0000e+00
      3.625      0.076     0.0871      1.246     60.737  50.692391     2.6176      6.724   261.4500 5.6223e-01     5.3748      3.554      5.154    17.0460 0.0000e+00
      3.646      0.077     0.0853      1.249     61.080  50.880668     2.6506      6.720   261.5750 5.4828e-01     5.1538      3.575      5.185    16.9658 0.0000e+00
      3.667      0.074     0.0864      1.257     61.257  50.934778     2.6998      6.717   261.8971 5.3681e-01     4.7051      3.596      5.216    16.8862 0.0000e+00
      3.687      0.068     0.0853      1.262     61.389  50.965401     2.7265      6.715   262.2473 5.1447e-01     4.4396      3.617      5.246    16.8079 0.0000e+00
      3.705      0.063     0.0841      1.257     61.584  51.060270     2.7394      6.713   262.2821 4.9165e-01     4.4656      3.636      5.273    16.7283 0.0000e+00
      3.719      0.058     0.0851      1.255     61.820  51.192475     2.7526      6.710   262.2321 4.7812e-01     4.4957      3.649      5.293    16.6451 0.0000e+00
      3.730      0.054     0.0856      1.252     61.940  51.229893     2.7819      6.707   262.2449 4.6423e-01     4.1154      3.657      5.305    16.5665 0.0000e+00
      3.740      0.049     0.0869      1.243     61.783  51.067972     2.8324      6.705   261.9204 4.3903e-01     3.4392      3.665      5.316    16.5009 0.0000e+00
      3.754      0.046     0.0855      1.230     61.376  50.759117     2.8605      6.703   261.4054 4.0828e-01     3.1041      3.681      5.339    16.4521 0.0000e+00
      3.770      0.045     0.0860      1.199     61.031  50.544498     2.8618      6.702   261.2666 3.9973e-01     3.0790      3.699      5.365    16.4034 0.0000e+00
      3.781      0.045     0.0864      1.163     61.122  50.696273     2.8657      6.701   261.1888 3.9930e-01     3.0377      3.709      5.379    16.3434 0.0000e+00
      3.788      0.046     0.0847      1.127     61.584  51.133373     2.8736      6.699   260.7223 3.8216e-01     2.9654      3.714      5.387    16.3025 0.0000e+00
      3.798      0.047     0.0853      1.081     62.125  51.573740     2.8699      6.697   260.1865 3.6678e-01     2.8933      3.724      5.401    16.3339 0.0000e+00
      3.810      0.051     0.0821      1.049     62.616  51.891896     2.8559      6.694   259.7015 3.6078e-01     2.8206      3.736      5.418    16.4080 0.0000e+00
      3.824      0.057     0.0792      1.046     63.206  52.248643     2.8345      6.689   259.3321 3.5589e-01     2.7087      3.749      5.438    16.4696 0.0000e+00
      3.839      0.065     0.0778      1.049     64.162  52.901386     2.8105      6.685   259.0757 3.4917e-01     2.5895      3.764      5.459    16.5308 0.0000e+00
      3.856      0.071     0.0734      1.046     65.169  53.558553     2.7991      6.682   258.6664 3.4175e-01     2.5269      3.780      5.484    16.5329 0.0000e+00
      3.875      0.075     0.0707      1.056     65.782  53.841603     2.7919      6.678   258.2558 3.2283e-01     2.4761      3.799      5.511    16.4447 0.0000e+00
      3.897      0.076     0.0718      1.100     66.282  54.036486     2.7844      6.674   257.9818 2.8833e-01     2.3351      3.820      5.541    16.3224 0.0000e+00
      3.921      0.075     0.0724      1.155     66.861  54.326378     2.7868      6.671   257.7631 2.6368e-01     2.1329      3.846      5.579    16.2327 0.0000e+00
      3.941      0.070     0.0718      1.185     67.321  54.551150     2.7943      6.667   257.5903 2.6132e-01     2.0314      3.866      5.608    16.1130 0.0000e+00
      3.957      0.063     0.0719      1.199     67.809  54.848117     2.7981      6.663   257.3545 2.5873e-01     2.0254      3.880      5.627    15.9108 0.0000e+00
      3.972      0.057     0.0759      1.218     68.464  55.312063     2.7715      6.661   256.8905 2.5427e-01     2.0267      3.896      5.651    15.7485 0.0000e+00
      3.985      0.054     0.0815      1.235     69.146  55.776878     2.7152      6.659   256.3685 2.5771e-01     2.0141      3.910      5.671    15.6205 0.0000e+00
      3.995      0.056     0.0833      1.252     69.830  56.211313     2.6808      6.657   256.0337 2.4836e-01     2.0037      3.917      5.681    15.4946 0.0000e+00
      4.005      0.061     0.0831      1.266     70.582  56.688985     2.6764      6.654   255.8532 2.2510e-01     2.0326      3.925      5.693    15.4272 0.0000e+00
      4.019      0.068     0.0856      1.262     71.436  57.231724     2.6704      6.649   255.6489 2.1143e-01     2.0033      3.940      5.714    15.4015 0.0000e+00
      4.039      0.076     0.0865      1.256     72.220  57.690292     2.6525      6.644   255.3705 2.0511e-01     1.8784      3.959      5.742    15.3401 0.0000e+00
      4.062      0.082     0.0875      1.246     72.723  57.912602     2.6333      6.639   255.2408 2.0667e-01     1.8011      3.983      5.778    15.2448 0.0000e+00
      4.087      0.084     0.0902      1.227     72.974  57.949679     2.6201      6.637   255.1130 2.0857e-01     1.7895      4.009      5.814    15.1580 0.0000e+00
      4.112      0.081     0.0885      1.227     73.067  57.884229     2.6149      6.634   254.5996 1.9197e-01     1.7710      4.033      5.849    15.0636 0.0000e+00
      4.134      0.073     0.0887      1.239     73.047  57.756504     2.6054      6.628   253.6799 1.7852e-01     1.7090      4.056      5.883    14.9413 0.0000e+00
      4.152      0.063     0.0891      1.234     72.960  57.612508     2.5820      6.624   252.3388 1.6792e-01     1.6292      4.074      5.908    14.8082 0.0000e+00
      4.165      0.053     0.0860      1.225     72.922  57.540991     2.5662      6.621   250.6018 1.5577e-01     1.5927      4.085      5.924    14.6959 0.0000e+00
      4.175      0.046     0.0866      1.214     72.867  57.463620     2.5623      6.618   248.9401 1.5795e-01     1.5959      4.095      5.940    14.6027 0.0000e+00
      4.182      0.044     0.0896      1.196     72.569  57.185299     2.5695      6.615   247.4754 1.6217e-01     1.7000      4.103      5.950    14.5199 0.0000e+00
      4.189      0.044     0.0876      1.182     72.214  56.844433     2.5924      6.612   245.8846 1.6352e-01     1.9014      4.106      5.956    14.4690 0.0000e+00
      4.200      0.048     0.0875      1.161     71.892  56.519103     2.6142      6.610   244.2463 1.6309e-01     2.0312      4.117      5.972    14.4500 0.0000e+00
      4.215      0.053     0.0873      1.135     71.457  56.110857     2.6247      6.608   242.8955 1.5623e-01     2.0570      4.134      5.996    14.4297 0.0000e+00
      4.230      0.058     0.0846      1.117     71.038  55.720464     2.6070      6.605   241.7710 1.5525e-01     1.9843      4.149      6.017    14.4028 0.0000e+00
      4.245      0.062     0.0852      1.096     70.585  55.293272     2.5646      6.603   240.5437 1.5687e-01     1.8400      4.164      6.039    14.3592 0.0000e+00
      4.261      0.062     0.0834      1.074     70.083  54.821166     2.5456      6.602   239.1562 1.4775e-01     1.7875      4.178      6.059    14.3019 0.0000e+00
      4.280      0.061     0.0808      1.074     69.545  54.332393     2.5600      6.604   237.8138 1.4170e-01     1.8075      4.196      6.086    14.2556 0.0000e+00
      4.297      0.059     0.0804      1.087     68.585  53.512990     2.5994      6.609   236.7878 1.4359e-01     1.8204      4.216      6.116    14.2200 0.0000e+00
      4.312      0.056     0.0792      1.086     67.445  52.537118     2.6494      6.609   235.9575 1.4914e-01     1.8121      4.229      6.135    14.1679 0.0000e+00
      4.324      0.053     0.0762      1.077     66.771  51.935005     2.6696      6.602   234.9160 1.5300e-01     1.7726      4.240      6.150    14.1027 0.0000e+00
      4.335      0.048     0.0767      1.055     66.605  51.759436     2.6703      6.599   233.6594 1.4837e-01     1.7696      4.252      6.166    14.0576 0.0000e+00
      4.348      0.044     0.0796      1.035     66.787  51.875300     2.6930      6.604   232.5519 1.4187e-01     1.8077      4.263      6.185    14.0188 0.0000e+00
      4.361      0.041     0.0780      1.051     66.955  52.001905     2.7270      6.612   231.6782 1.3763e-01     1.8397      4.277      6.204    13.9415 0.0000e+00
      4.371      0.040     0.0786      1.066     66.389  51.575088     2.7343      6.612   230.8387 1.3413e-01     1.8620      4.288      6.218    13.8734 0.0000e+00
      4.378      0.041     0.0767      1.048     65.215  50.652963     2.7301      6.602   229.9726 1.3188e-01     1.8487      4.293      6.227    13.8511 0.0000e+00
      4.386      0.043     0.0728      1.020     64.530  50.062973     2.7366      6.594   229.0356 1.3334e-01     1.7771      4.299      6.237    13.8268 0.0000e+00
      4.396      0.046     0.0764      1.003     64.503  49.967664     2.7520      6.592   228.1132 1.3264e-01     1.7497      4.309      6.251    13.8220 0.0000e+00
      4.409      0.051     0.0785      0.997     64.376  49.818093     2.7771      6.594   227.3391 1.2899e-01     1.8126      4.323      6.270    13.8471 0.0000e+00
      4.425      0.057     0.0759      0.991     63.631  49.207204     2.7894      6.596   226.6454 1.2777e-01     1.8496      4.339      6.293    13.8494 0.0000e+00
      4.441      0.062     0.0735      0.979     62.028  47.916628     2.7872      6.598   226.0914 1.2749e-01     1.8370      4.355      6.316    13.7927 0.0000e+00
      4.456      0.067     0.0724      0.982     59.784  46.090348     2.7769      6.601   225.6312 1.2734e-01     1.8226      4.370      6.338    13.7190 0.0000e+00
      4.472      0.071     0.0723      1.004     57.763  44.399532     2.7519      6.605   225.1255 1.2559e-01     1.8066      4.385      6.360    13.6827 0.0000e+00
      4.491      0.072     0.0726      1.020     56.666  43.412089     2.7364      6.608   224.6225 1.2378e-01     1.8085      4.403      6.387    13.6686 0.0000e+00
      4.511      0.071     0.0706      1.026     56.424  43.104417     2.7275      6.610   224.1965 1.2361e-01     1.8129      4.423      6.416    13.6347 0.0000e+00
      4.533      0.069     0.0708      1.035     56.442  43.028718     2.6711      6.612   223.7600 1.2371e-01     1.7929      4.445      6.447    13.5564 0.0000e+00
      4.553      0.067     0.0737      1.048     55.995  42.623718     2.5836      6.615   223.3029 1.2388e-01     1.7634      4.468      6.480    13.4310 0.0000e+00
      4.568      0.067     0.0753      1.062     55.019  41.826623     2.5448      6.619   223.0572 1.2549e-01     1.7523      4.482      6.500    13.2916 0.0000e+00
      4.579      0.067     0.0749      1.080     54.099  41.073601     2.5405      6.626   222.7682 1.2704e-01     1.7892      4.489      6.511    13.1826 0.0000e+00
      4.593      0.067     0.0759      1.091     53.334  40.439385     2.4530      6.635   222.2185 1.2555e-01     1.8824      4.502      6.529    13.1074 0.0000e+00
      4.612      0.067     0.0775      1.099     52.484  39.745215     2.2846      6.643   221.8311 1.2383e-01     1.9944      4.522      6.558    13.0539 0.0000e+00
      4.634      0.067     0.0775      1.093     51.764  39.155906     2.1863      6.648   221.9565 1.2361e-01     2.0292      4.544      6.591    13.0076 0.0000e+00
      4.655      0.066     0.0805      1.074     51.309  38.773679     2.1755      6.653   222.5290 1.2358e-01     2.0072      4.567      6.624    12.9584 0.0000e+00
      4.672      0.064     0.0801      1.065     51.057  38.551736     2.2057      6.656   222.9890 1.2357e-01     2.0235      4.583      6.647    12.9074 0.0000e+00
      4.685      0.059     0.0818      1.058     50.856  38.376823     2.2658      6.656   223.0447 1.2359e-01     2.0300      4.594      6.664    12.8589 0.0000e+00
      4.696      0.055     0.0817      1.047     50.453  38.055361     2.3033      6.656   223.0294 1.2368e-01     2.0210      4.606      6.680    12.8161 0.0000e+00
      4.709      0.053     0.0786      1.038     50.107  37.775432     2.3028      6.657   223.1487 1.2372e-01     2.0780      4.618      6.698    12.7801 0.0000e+00
      4.723      0.053     0.0793      1.049     50.062  37.721818     2.2003      6.658   223.4557 1.2365e-01     2.2277      4.632      6.718    12.7474 0.0000e+00
      4.737      0.054     0.0785      1.088     50.085  37.724492     2.0083      6.659   223.8149 1.2365e-01     2.3886      4.646      6.737    12.7242 0.0000e+00
      4.751      0.056     0.0779      1.173     50.043  37.680786     1.9060      6.660   223.8784 1.2371e-01     2.4504      4.660      6.757    12.7128 0.0000e+00
      4.765      0.058     0.0763      1.320     49.918  37.574226     1.8996      6.661   223.8787 1.2374e-01     2.4835      4.672      6.776    12.6928 0.0000e+00
      4.779      0.062     0.0774      1.524     49.685  37.388234     1.8872      6.663   224.1635 1.2372e-01     2.5587      4.686      6.797    12.6692 0.0000e+00
      4.795      0.067     0.0797      1.808     49.467  37.209325     1.7570      6.663   224.4821 1.2370e-01     2.9342      4.703      6.822    12.6561 0.0000e+00
      4.810      0.071     0.0851      2.200     49.396  37.124924     1.5213      6.641   224.8061 1.2373e-01     3.6159      4.717      6.842    12.6475 0.0000e+00
      4.829      0.075     0.0972      2.688     49.456  37.129429     1.3957      6.606   225.2412 1.2373e-01     3.9848      4.733      6.866    12.6319 0.0000e+00
      4.852      0.078     0.1114      3.264     49.513  37.136797     1.3922      6.603   225.6982 1.2369e-01     4.0188      4.759      6.902    12.6218 0.0000e+00
      4.875      0.080     0.1311      3.946     49.484  37.087012     1.3828      6.631   226.1163 1.2369e-01     4.3874      4.783      6.937    12.6152 0.0000e+00
      4.895      0.080     0.1617      4.763     49.458  37.035267     1.3519      6.655   226.5111 1.2370e-01     5.1305      4.801      6.963    12.5812 0.0000e+00
      4.914      0.079     0.1979      5.710     49.485  37.018921     1.3304      6.670   226.6851 1.2371e-01     5.5641      4.818      6.988    12.5317 0.0000e+00
      4.935      0.075     0.2409      6.724     49.516  37.016294     1.3221      6.678   226.4996 1.2374e-01     5.6318      4.838      7.018    12.4954 0.0000e+00
      4.955      0.069     0.2908      7.784     49.516  37.003466     1.2766      6.682   226.4198 1.2371e-01     5.9823      4.860      7.050    12.4736 0.0000e+00
      4.973      0.062     0.3512      8.900     49.515  36.990760     1.1968      6.683   226.6668 1.2361e-01     6.6231      4.878      7.075    12.4417 0.0000e+00
      4.989      0.053     0.4257     10.057     49.537  36.989605     1.1551      6.682   226.9908 1.2358e-01     6.9565      4.894      7.098    12.3966 0.0000e+00
      5.003      0.044     0.5018     11.194     49.565  36.989487     1.1452      6.682   227.1531 1.2364e-01     6.9651      4.909      7.120    12.3690 0.0000e+00
      5.011      0.038     0.5804     12.221     49.595  36.989309     1.1213      6.682   227.3385 1.2371e-01     7.0878      4.916      7.130    12.3630 0.0000e+00
      5.015      0.033     0.6643     13.064     49.618  36.987422     1.0914      6.682   227.6841 1.2374e-01     7.3909      4.916      7.131    12.3522 0.0000e+00
      5.021      0.032     0.7529     13.681     49.610  36.966655     1.0781      6.681   227.9764 1.2369e-01     7.5829      4.923      7.140    12.3331 0.0000e+00
      5.029      0.034     0.8411     14.076     49.576  36.928624     1.0726      6.681   228.2916 1.2367e-01     7.6394      4.932      7.153    12.3110 0.0000e+00
      5.039      0.039     0.9204     14.291     49.564  36.908438     1.0434      6.681   228.6565 1.2369e-01     7.7457      4.940      7.165    12.2871 0.0000e+00
      5.049      0.044     0.9852     14.359     49.584  36.913002     0.9934      6.680   228.9461 1.2365e-01     7.8522      4.951      7.180    12.2678 0.0000e+00
      5.062      0.048     1.0316     14.295     49.604  36.920318     0.9615      6.679   229.2119 1.2365e-01     7.8782      4.964      7.200    12.2536 0.0000e+00
      5.076      0.051     1.0601     14.159     49.622  36.933413     0.9534      6.679   229.5476 1.2370e-01     7.8638      4.977      7.220    12.2419 0.0000e+00
      5.088      0.055     1.0755     14.024     49.627  36.944373     0.9560      6.675   229.8214 1.2371e-01     7.8427      4.989      7.237    12.2304 0.0000e+00
      5.101      0.058     1.0811     13.928     49.594  36.925894     0.9752      6.664   229.9406 1.2371e-01     7.9834      5.003      7.256    12.2195 0.0000e+00
      5.116      0.060     1.0749     13.888     49.558  36.900423     1.0035      6.651   230.1289 1.2372e-01     8.3192      5.018      7.276    12.2094 0.0000e+00
      5.133      0.061     1.0617     13.907     49.548  36.890307     1.0215      6.652   230.4639 1.2370e-01     8.5278      5.033      7.299    12.2088 0.0000e+00
      5.151      0.061     1.0514     13.952     49.524  36.867059     1.0275      6.662   230.8074 1.2370e-01     8.5393      5.051      7.326    12.2201 0.0000e+00
      5.167      0.060     1.0431     13.999     49.459  36.809748     1.0334      6.669   231.0116 1.2374e-01     8.5238      5.068      7.350    12.2276 0.0000e+00
      5.182      0.057     1.0399     14.054     49.420  36.768625     1.0407      6.672   231.1270 1.2377e-01     8.5363      5.082      7.371    12.2277 0.0000e+00
      5.197      0.055     1.0429     14.142     49.416  36.750690     1.0377      6.672   231.3418 1.2377e-01     8.5595      5.097      7.393    12.2248 0.0000e+00
      5.210      0.054     1.0467     14.272     49.397  36.719832     1.0312      6.672   231.7158 1.2373e-01     8.5754      5.109      7.411    12.2192 0.0000e+00
      5.221      0.054     1.0508     14.442     49.414  36.712880     1.0138      6.672   232.2078 1.2368e-01     8.5647      5.120      7.426    12.2108 0.0000e+00
      5.233      0.055     1.0535     14.652     49.464  36.730081     0.9753      6.670   232.5584 1.2364e-01     8.5279      5.132      7.442    12.1988 0.0000e+00
      5.247      0.057     1.0609     14.918     49.497  36.737366     0.9556      6.668   232.6851 1.2364e-01     8.5236      5.145      7.463    12.1827 0.0000e+00
      5.263      0.058     1.0711     15.238     49.517  36.737473     0.9579      6.667   232.7939 1.2368e-01     8.5459      5.160      7.484    12.1663 0.0000e+00
      5.280      0.059     1.0843     15.550     49.527  36.731355     0.9168      6.667   233.0131 1.2371e-01     8.5359      5.178      7.510    12.1464 0.0000e+00
      5.297      0.060     1.1005     15.820     49.535  36.726850     0.8307      6.666   233.4421 1.2373e-01     8.5328      5.196      7.537    12.1229 0.0000e+00
      5.311      0.062     1.1196     16.001     49.571  36.746472     0.7752      6.663   233.9373 1.2378e-01     8.5410      5.209      7.556    12.1070 0.0000e+00
      5.324      0.066     1.1474     16.035     49.625  36.778162     0.7664      6.639   234.1826 1.2378e-01     8.5371      5.220      7.572    12.0935 0.0000e+00
      5.338      0.072     1.1713     15.927     49.658  36.792637     0.7500      6.582   234.1716 1.2371e-01     8.6501      5.234      7.592    12.0786 0.0000e+00
      5.356      0.077     1.1927     15.731     49.676  36.794512     0.7070      6.541   234.1478 1.2366e-01     8.8586      5.251      7.616    12.0681 0.0000e+00
      5.378      0.079     1.2096     15.500     49.699  36.800823     0.6800      6.559   234.4111 1.2368e-01     8.9602      5.273      7.647    12.0621 0.0000e+00
      5.405      0.078     1.2113     15.259     49.716  36.805451     0.6758      6.598   234.8605 1.2375e-01     8.9616      5.301      7.688    12.0542 0.0000e+00
      5.431      0.074     1.2021     14.995     49.697  36.786988     0.6729      6.623   235.1929 1.2379e-01     8.9410      5.329      7.731    12.0426 0.0000e+00
      5.451      0.068     1.1861     14.719     49.676  36.768012     0.6797      6.640   235.4187 1.2371e-01     8.8748      5.349      7.759    12.0310 0.0000e+00
      5.461      0.061     1.1680     14.479     49.679  36.766433     0.6971      6.651   235.5259 1.2364e-01     8.7834      5.355      7.767    12.0201 0.0000e+00
      5.469      0.055     1.1508     14.276     49.686  36.767888     0.7091      6.658   235.5432 1.2364e-01     8.7531      5.361      7.775    12.0113 0.0000e+00
      5.483      0.051     1.1315     14.077     49.711  36.785605     0.7128      6.661   235.5414 1.2366e-01     8.7716      5.376      7.797    12.0076 0.0000e+00
      5.498      0.052     1.1079     13.884     49.717  36.790220     0.6898      6.661   235.5894 1.2370e-01     8.7773      5.393      7.821    12.0052 0.0000e+00
      5.512      0.055     1.0905     13.730     49.681  36.760219     0.6393      6.661   235.7798 1.2368e-01     8.7567      5.406      7.840    12.0004 0.0000e+00
      5.525      0.058     1.0769     13.630     49.662  36.740244     0.6141      6.660   236.1223 1.2368e-01     8.7186      5.418      7.858    11.9961 0.0000e+00
      5.539      0.058     1.0615     13.558     49.668  36.739111     0.6189      6.658   236.4621 1.2374e-01     8.7097      5.432      7.877    11.9962 0.0000e+00
      5.555      0.057     1.0460     13.503     49.683  36.746510     0.6450      6.656   236.3604 1.2375e-01     8.6827      5.448      7.901    11.9985 0.0000e+00
      5.571      0.057     1.0330     13.474     49.713  36.766220     0.6960      6.652   236.0109 1.2373e-01     8.6211      5.465      7.927    11.9949 0.0000e+00
      5.586      0.057     1.0277     13.462     49.744  36.787006     0.7245      6.648   236.0216 1.2369e-01     8.5868      5.478      7.946    11.9865 0.0000e+00
      5.599      0.058     1.0226     13.433     49.775  36.807399     0.7202      6.647   236.3175 1.2365e-01     8.5635      5.490      7.963    11.9801 0.0000e+00
      5.612      0.061     1.0175     13.370     49.800  36.822363     0.7130      6.648   236.5778 1.2364e-01     8.6013      5.504      7.984    11.9774 0.0000e+00
      5.627      0.065     1.0161     13.301     49.830  36.840978     0.6985      6.647   236.6728 1.2369e-01     8.6838      5.517      8.002    11.9757 0.0000e+00
      5.643      0.070     1.0160     13.231     49.923  36.905510     0.6834      6.629   236.5202 1.2372e-01     8.7423      5.532      8.023    11.9740 0.0000e+00
      5.663      0.076     1.0150     13.145     50.100  37.031331     0.6775      6.589   236.1955 1.2370e-01     8.7835      5.553      8.053    11.9722 0.0000e+00
      5.684      0.083     1.0085     13.028     50.365  37.219694     0.6451      6.565   236.1888 1.2370e-01     8.8215      5.575      8.086    11.9682 0.0000e+00
      5.706      0.090     1.0036     12.844     50.626  37.405642     0.5957      6.575   236.5250 1.2367e-01     8.9063      5.595      8.115    11.9635 0.0000e+00
      5.729      0.096     0.9994     12.552     50.764  37.502246     0.5735      6.595   236.8188 1.2365e-01     8.9903      5.616      8.144    11.9602 0.0000e+00
      5.755      0.100     0.9924     12.094     50.851  37.562518     0.5591      6.608   236.8167 1.2367e-01     9.0172      5.642      8.183    11.9552 0.0000e+00
      5.783      0.101     0.9856     11.405     50.942  37.626557     0.5433      6.615   236.4987 1.2370e-01     9.0019      5.671      8.226    11.9472 0.0000e+00
      5.810      0.101     0.9720     10.415     50.969  37.641748     0.5299      6.619   236.3293 1.2370e-01     9.0025      5.698      8.264    11.9399 0.0000e+00
      5.838      0.097     0.9523      9.086     50.944  37.619224     0.5094      6.619   236.4894 1.2371e-01     9.0245      5.725      8.303    11.9336 0.0000e+00
      5.864      0.090     0.9192      7.486     50.931  37.608132     0.4949      6.617   236.8000 1.2374e-01     9.0050      5.752      8.342    11.9300 0.0000e+00
      5.886      0.082     0.8691      5.761     50.963  37.634584     0.4932      6.617   236.9878 1.2374e-01     8.9968      5.774      8.374    11.9284 0.0000e+00
      5.905      0.074     0.7967      4.035     51.026  37.685149     0.5246      6.617   236.9525 1.2374e-01     9.0241      5.791      8.399    11.9237 0.0000e+00
      5.921      0.068     0.6940      2.423     51.061  37.711685     0.5881      6.617   236.8891 1.2375e-01     9.0398      5.807      8.423    11.9179 0.0000e+00
      5.936      0.063     0.5685      1.094     51.050  37.701516     0.6269      6.616   236.8240 1.2378e-01     9.0233      5.821      8.443    11.9154 0.0000e+00
      5.950      0.061     0.4346      0.157     51.035  37.689153     0.6304      6.615   236.7676 1.2382e-01     9.0200      5.835      8.463    11.9201 0.0000e+00
      5.965      0.062     0.3031     -0.399     51.032  37.689165     0.6471      6.613   236.8096 1.2383e-01     9.0987      5.850      8.484    11.9273 0.0000e+00
      5.980      0.063     0.1748     -0.652     51.046  37.701652     0.6908      6.612   237.0731 1.2383e-01     9.1884      5.865      8.506    11.9266 0.0000e+00
      5.996      0.065     0.0711     -0.715     51.063  37.713185     0.7165      6.611   237.3729 1.2381e-01     9.2198      5.880      8.528    11.9213 0.0000e+00
      6.013      0.065     0.0021     -0.640     51.055  37.701654     0.7231      6.609   237.3376 1.2375e-01     9.2160      5.896      8.551    11.9206 0.0000e+00
      6.032      0.064    -0.0391     -0.449     51.045  37.689178     0.8141      6.608   237.0759 1.2370e-01     9.2077      5.915      8.580    11.9235 0.0000e+00
      6.051      0.060    -0.0531     -0.239     51.045  37.689283     0.9760      6.607   236.8757 1.2365e-01     9.2182      5.934      8.607    11.9280 0.0000e+00
      6.067      0.054    -0.0572     -0.073     51.060  37.702925     1.0595      6.605   236.8098 1.2363e-01     9.2446      5.950      8.630    11.9277 0.0000e+00
      6.080      0.049    -0.0527      0.047     51.092  37.727179     1.0867      6.605   237.0543 1.2366e-01     9.2655      5.963      8.650    11.9189 0.0000e+00
      6.090      0.046    -0.0337      0.150     51.097  37.728619     1.2787      6.604   237.5953 1.2370e-01     9.2737      5.973      8.664    11.9117 0.0000e+00
      6.096      0.046    -0.0165      0.256     51.090  37.720329     1.6210      6.603   237.8441 1.2368e-01     9.2778      5.978      8.671    11.9139 0.0000e+00
      6.104      0.051    -0.0044      0.346     51.140  37.753907     1.8090      6.602   237.6532 1.2365e-01     9.2496      5.984      8.679    11.9187 0.0000e+00
      6.116      0.057     0.0044      0.411     51.317  37.880683     1.8447      6.602   237.3514 1.2365e-01     9.2284      5.996      8.696    11.9182 0.0000e+00
      6.135      0.062     0.0105      0.475     51.718  38.174013     2.0430      6.601   237.3793 1.2368e-01     9.2837      6.016      8.725    11.9158 0.0000e+00
      6.156      0.067     0.0200      0.554     52.515  38.761356     2.4032      6.600   237.7319 1.2374e-01     9.3928      6.037      8.756    11.9137 0.0000e+00
      6.177      0.069     0.0272      0.645     54.063  39.903704     2.6022      6.599   237.9154 1.2376e-01     9.4665      6.057      8.787    11.9101 0.0000e+00
      6.194      0.067     0.0310      0.734     56.067  41.384094     2.6202      6.598   237.8770 1.2374e-01     9.4540      6.076      8.812    11.9059 0.0000e+00
      6.209      0.063     0.0354      0.795     57.407  42.375940     2.6289      6.597   237.7835 1.2374e-01     9.4385      6.089      8.832    11.9031 0.0000e+00
      6.224      0.059     0.0415      0.823     57.827  42.689990     2.7075      6.596   237.8179 1.2378e-01     9.4096      6.103      8.852    11.9015 0.0000e+00
      6.239      0.057     0.0488      0.836     58.015  42.832016     2.8433      6.593   237.8624 1.2377e-01     9.3338      6.119      8.874    11.9010 0.0000e+00
      6.253      0.057     0.0563      0.841     59.633  44.029681     2.9093      6.591   237.8054 1.2369e-01     9.2755      6.133      8.895    11.9022 0.0000e+00
      6.265      0.058     0.0612      0.836     62.889  46.439039     2.8891      6.589   237.8178 1.2364e-01     9.2300      6.143      8.910    11.9054 0.0000e+00
      6.278      0.059     0.0624      0.840     64.677  47.768916     2.6853      6.586   237.8400 1.2363e-01     9.2421      6.154      8.927    11.9089 0.0000e+00
      6.294      0.060     0.0634      0.855     64.174  47.408566     2.3098      6.581   237.7291 1.2365e-01     9.2905      6.172      8.951    11.9115 0.0000e+00
      6.313      0.061     0.0641      0.878     63.659  47.035817     2.0944      6.575   237.5096 1.2371e-01     9.2582      6.192      8.981    11.9141 0.0000e+00
      6.330      0.063     0.0626      0.904     63.876  47.199627     2.0666      6.569   237.3365 1.2373e-01     9.2122      6.208      9.004    11.9173 0.0000e+00
      6.344      0.063     0.0631      0.915     64.258  47.483957     2.0602      6.562   237.3565 1.2372e-01     9.2921      6.222      9.024    11.9250 0.0000e+00
      6.359      0.063     0.0645      0.913     64.948  47.996799     2.0603      6.555   237.4942 1.2367e-01     9.4375      6.235      9.043    11.9361 0.0000e+00
      6.375      0.063     0.0658      0.918     66.413  49.081654     2.0673      6.547   237.2804 1.2363e-01     9.4955      6.250      9.065    11.9421 0.0000e+00
      6.393      0.063     0.0689      0.919     68.503  50.629235     2.0586      6.541   236.7504 1.2368e-01     9.5011      6.271      9.095    11.9434 0.0000e+00
      6.409      0.063     0.0697      0.895     70.743  52.290156     1.9465      6.536   236.5931 1.2372e-01     9.4399      6.286      9.118    11.9454 0.0000e+00
      6.424      0.063     0.0684      0.870     72.679  53.727975     1.7525      6.534   236.8402 1.2375e-01     9.2797      6.299      9.136    11.9473 0.0000e+00
      6.440      0.062     0.0692      0.870     73.776  54.546256     1.6460      6.531   236.9848 1.2377e-01     9.2033      6.315      9.159    11.9490 0.0000e+00
      6.456      0.059     0.0706      0.875     73.960  54.687547     1.6475      6.527   237.1371 1.2373e-01     9.2363      6.332      9.184    11.9512 0.0000e+00
      6.472      0.056     0.0677      0.882     73.679  54.483357     1.7799      6.524   237.8214 1.2369e-01     9.2533      6.347      9.205    11.9550 0.0000e+00
      6.487      0.052     0.0643      0.891     73.429  54.301008     2.0156      6.522   238.6334 1.2370e-01     9.2451      6.361      9.226    11.9598 0.0000e+00
      6.501      0.050     0.0661      0.887     73.376  54.261655     2.1390      6.520   238.8674 1.2371e-01     9.2348      6.376      9.248    11.9644 0.0000e+00
      6.511      0.050     0.0660      0.888     73.209  54.134601     2.1355      6.517   238.5861 1.2372e-01     9.2280      6.387      9.264    11.9685 0.0000e+00
      6.519      0.051     0.0659      0.890     72.826  53.844813     2.1209      6.514   238.1574 1.2375e-01     9.2282      6.392      9.272    11.9710 0.0000e+00
      6.529      0.054     0.0686      0.879     72.525  53.616679     2.1097      6.510   237.9002 1.2379e-01     9.2695      6.401      9.282    11.9724 0.0000e+00
      6.545      0.058     0.0663      0.878     72.506  53.599759     2.0862      6.505   237.7984 1.2381e-01     9.3998      6.418      9.307    11.9728 0.0000e+00
      6.564      0.063     0.0665      0.886     72.566  53.640237     2.0631      6.499   237.7877 1.2375e-01     9.4932      6.438      9.338    11.9707 0.0000e+00
      6.582      0.068     0.0684      0.876     72.430  53.534328     2.0554      6.493   237.7711 1.2369e-01     9.4477      6.456      9.362    11.9654 0.0000e+00
      6.598      0.073     0.0655      0.867     72.253  53.399188     2.0194      6.488   237.5114 1.2371e-01     9.0788      6.471      9.385    11.9604 0.0000e+00
      6.616      0.074     0.0657      0.866     72.176  53.340357     1.9479      6.485   237.2291 1.2370e-01     8.4746      6.487      9.409    11.9593 0.0000e+00
      6.636      0.073     0.0680      0.850     71.993  53.204168     1.9118      6.481   237.2828 1.2370e-01     8.1729      6.507      9.437    11.9575 0.0000e+00
      6.657      0.072     0.0657      0.830     71.756  53.023085     1.9125      6.476   237.3864 1.2372e-01     8.0844      6.530      9.471    11.9531 0.0000e+00
      6.677      0.070     0.0647      0.819     71.730  52.993173     1.9993      6.473   237.1054 1.2373e-01     7.6344      6.549      9.499    11.9491 0.0000e+00
      6.693      0.067     0.0668      0.818     71.800  53.033066     2.1901      6.471   236.7246 1.2369e-01     6.8940      6.564      9.520    11.9480 0.0000e+00
      6.708      0.064     0.0638      0.823     71.761  52.997205     2.3116      6.469   236.6542 1.2363e-01     6.5061      6.579      9.542    11.9495 0.0000e+00
      6.723      0.062     0.0625      0.830     71.686  52.940727     2.3235      6.468   236.6838 1.2368e-01     6.4508      6.593      9.563    11.9454 0.0000e+00
      6.738      0.059     0.0615      0.829     71.572  52.858404     2.2993      6.466   236.3942 1.2378e-01     6.2592      6.607      9.583    11.9359 0.0000e+00
      6.754      0.057     0.0616      0.826     71.359  52.700639     2.2623      6.464   235.9925 1.2380e-01     5.9586      6.623      9.605    11.9277 0.0000e+00
      6.771      0.055     0.0621      0.842     71.173  52.557823     2.2400      6.462   235.8708 1.2379e-01     5.8306      6.641      9.632    11.9218 0.0000e+00
      6.785      0.053     0.0628      0.851     71.146  52.529176     2.2466      6.461   235.7825 1.2379e-01     5.8588      6.655      9.654    11.9216 0.0000e+00
      6.796      0.051     0.0635      0.841     71.180  52.544836     2.3767      6.460   235.5276 1.2376e-01     5.7097      6.664      9.666    11.9252 0.0000e+00
      6.807      0.050     0.0605      0.836     71.122  52.493052     2.6079      6.459   235.2840 1.2371e-01     5.3384      6.673      9.679    11.9245 0.0000e+00
      6.819      0.050     0.0646      0.841     70.847  52.284198     2.7184      6.457   234.9880 1.2369e-01     5.1054      6.687      9.699    11.9205 0.0000e+00
      6.832      0.052     0.0649      0.841     70.454  51.988849     2.7075      6.457   234.4445 1.2364e-01     5.0885      6.701      9.719    11.9139 0.0000e+00
      6.844      0.056     0.0629      0.829     70.268  51.844104     2.6225      6.457   233.9600 1.2364e-01     5.1680      6.712      9.735    11.9062 0.0000e+00
      6.858      0.060     0.0630      0.821     70.312  51.868080     2.4711      6.456   233.7757 1.2367e-01     5.3119      6.724      9.753    11.9004 0.0000e+00
      6.875      0.062     0.0636      0.813     70.362  51.897586     2.3859      6.456   233.6789 1.2371e-01     5.3863      6.741      9.777    11.8962 0.0000e+00
      6.894      0.062     0.0644      0.809     70.264  51.819717     2.3648      6.456   233.3919 1.2376e-01     5.3799      6.762      9.807    11.8929 0.0000e+00
      6.911      0.061     0.0620      0.819     70.094  51.688838     2.3543      6.455   232.8866 1.2378e-01     5.3662      6.780      9.833    11.8878 0.0000e+00
      6.926      0.057     0.0623      0.828     70.045  51.649112     2.3628      6.453   232.6459 1.2379e-01     5.1876      6.793      9.852    11.8813 0.0000e+00
      6.940      0.052     0.0615      0.834     70.145  51.720512     2.3718      6.453   232.7190 1.2377e-01     4.8921      6.806      9.871    11.8756 0.0000e+00
      6.954      0.047     0.0604      0.831     70.240  51.789857     2.3688      6.453   232.6525 1.2372e-01     4.7747      6.820      9.893    11.8714 0.0000e+00
      6.965      0.044     0.0624      0.820     70.154  51.725288     2.3607      6.453   232.1858 1.2373e-01     4.7508      6.832      9.910    11.8681 0.0000e+00
      6.973      0.043     0.0624      0.809     69.955  51.575041     2.3598      6.453   231.5505 1.2373e-01     4.6695      6.838      9.917    11.8653 0.0000e+00
      6.981      0.044     0.0635      0.794     69.858  51.497756     2.3673      6.453   231.3372 1.2370e-01     4.6439      6.844      9.927    11.8631 0.0000e+00
      6.992      0.047     0.0633      0.786     69.854  51.489585     2.3733      6.452   231.4135 1.2376e-01     4.7027      6.856      9.944    11.8625 0.0000e+00
      7.006      0.050     0.0616      0.789     69.843  51.476233     2.3802      6.452   231.1821 1.2381e-01     4.6925      6.869      9.963    11.8635 0.0000e+00
      7.021      0.052     0.0618      0.799     69.830  51.463357     2.4504      6.452   230.6907 1.2375e-01     4.5210      6.884      9.985    11.8612 0.0000e+00
      7.036      0.054     0.0596      0.806     69.830  51.460952     2.5811      6.452   230.3765 1.2372e-01     4.3006      6.901     10.009    11.8560 0.0000e+00
      7.051      0.055     0.0593      0.800     69.813  51.447143     2.6596      6.452   230.2220 1.2373e-01     4.1910      6.915     10.031    11.8517 0.0000e+00
      7.062      0.056     0.0593      0.790     69.782  51.423436     2.6708      6.451   230.0283 1.2372e-01     4.1784      6.925     10.044    11.8484 0.0000e+00
      7.075      0.058     0.0604      0.790     69.792  51.428400     2.6733      6.450   229.8413 1.2372e-01     4.1808      6.936     10.060    11.8456 0.0000e+00
      7.090      0.061     0.0618      0.790     69.904  51.507158     2.6813      6.451   229.6809 1.2372e-01     4.1875      6.952     10.083    11.8438 0.0000e+00
      7.106      0.064     0.0605      0.779     70.056  51.613420     2.6815      6.452   229.4656 1.2372e-01     4.1936      6.969     10.108    11.8431 0.0000e+00
      7.124      0.065     0.0594      0.772     70.176  51.696853     2.6756      6.452   229.1309 1.2372e-01     4.1899      6.986     10.133    11.8427 0.0000e+00
      7.142      0.064     0.0596      0.775     70.344  51.817178     2.6179      6.451   228.9035 1.2374e-01     4.2077      7.004     10.159    11.8423 0.0000e+00
      7.161      0.061     0.0605      0.788     70.494  51.924848     2.5041      6.450   228.8677 1.2373e-01     4.2449      7.023     10.187    11.8390 0.0000e+00
      7.176      0.058     0.0586      0.801     70.485  51.918801     2.4361      6.449   228.6973 1.2367e-01     4.2463      7.039     10.209    11.8343 0.0000e+00
      7.188      0.055     0.0582      0.799     70.415  51.871109     2.4195      6.449   228.3926 1.2361e-01     4.2243      7.049     10.224    11.8305 0.0000e+00
      7.200      0.051     0.0583      0.786     70.384  51.856396     2.4158      6.449   228.2805 1.2358e-01     4.2094      7.060     10.239    11.8277 0.0000e+00
      7.214      0.048     0.0594      0.769     70.386  51.867956     2.4259      6.449   228.3749 1.2361e-01     4.2625      7.075     10.261    11.8262 0.0000e+00
      7.228      0.046     0.0615      0.764     70.392  51.883848     2.4382      6.449   228.3285 1.2369e-01     4.4073      7.089     10.282    11.8252 0.0000e+00
      7.238      0.044     0.0604      0.766     70.432  51.921509     2.4341      6.448   228.0649 1.2372e-01     4.4853      7.099     10.297    11.8287 0.0000e+00
      7.248      0.043     0.0598      0.746     70.628  52.069230     2.4199      6.447   227.7686 1.2372e-01     4.4508      7.107     10.308    11.8352 0.0000e+00
      7.258      0.043     0.0579      0.727     70.992  52.335930     2.4318      6.447   227.5851 1.2375e-01     4.5156      7.117     10.322    11.8420 0.0000e+00
      7.269      0.045     0.0567      0.740     71.537  52.732253     2.4728      6.447   227.4808 1.2379e-01     4.7437      7.128     10.339    11.8517 0.0000e+00
      7.279      0.049     0.0595      0.756     72.235  53.240190     2.4993      6.446   227.2819 1.2378e-01     4.9148      7.138     10.354    11.8580 0.0000e+00
      7.290      0.054     0.0565      0.772     72.890  53.712856     2.4925      6.445   227.0730 1.2367e-01     4.9467      7.148     10.368    11.8600 0.0000e+00
      7.305      0.059     0.0531      0.797     73.554  54.190845     2.4687      6.443   226.9335 1.2359e-01     4.9975      7.162     10.388    11.8585 0.0000e+00
      7.322      0.063     0.0566      0.809     74.171  54.635954     2.4457      6.442   226.7142 1.2365e-01     5.1032      7.181     10.415    11.8541 0.0000e+00
      7.341      0.067     0.0573      0.809     74.541  54.901587     2.4401      6.439   226.4001 1.2373e-01     5.1433      7.199     10.442    11.8501 0.0000e+00
      7.358      0.068     0.0576      0.802     75.096  55.306044     2.4530      6.437   226.1474 1.2370e-01     5.1218      7.216     10.466    11.8425 0.0000e+00
      7.376      0.067     0.0611      0.780     76.086  56.031839     2.5153      6.436   225.9819 1.2364e-01     5.1050      7.233     10.491    11.8340 0.0000e+00
      7.394      0.064     0.0616      0.755     76.983  56.688234     2.6118      6.434   225.9476 1.2364e-01     5.1046      7.252     10.518    11.8281 0.0000e+00
      7.410      0.059     0.0609      0.745     77.521  57.079421     2.6574      6.434   225.9902 1.2369e-01     5.1167      7.268     10.542    11.8232 0.0000e+00
      7.425      0.054     0.0617      0.745     77.869  57.330575     2.6677      6.433   225.8958 1.2372e-01     5.1536      7.282     10.561    11.8204 0.0000e+00
      7.438      0.048     0.0589      0.746     78.105  57.501018     2.6929      6.431   225.7526 1.2370e-01     5.1899      7.296     10.580    11.8193 0.0000e+00
      7.449      0.043     0.0566      0.750     78.263  57.615266     2.7201      6.430   225.6354 1.2369e-01     5.1619      7.306     10.596    11.8165 0.0000e+00
      7.459      0.038     0.0560      0.760     78.461  57.758826     2.7272      6.428   225.5105 1.2366e-01     5.1107      7.315     10.610    11.8123 0.0000e+00
      7.467      0.035     0.0564      0.765     78.744  57.965955     2.7190      6.426   225.3611 1.2364e-01     5.0945      7.324     10.622    11.8091 0.0000e+00
      7.474      0.033     0.0565      0.755     78.996  58.149850     2.6729      6.423   225.2055 1.2368e-01     5.0325      7.330     10.630    11.8070 0.0000e+00
      7.482      0.033     0.0563      0.737     79.156  58.266639     2.5940      6.421   225.1775 1.2373e-01     4.9172      7.336     10.640    11.8057 0.0000e+00
      7.491      0.034     0.0578      0.733     79.200  58.297807     2.5535      6.420   225.1100 1.2374e-01     4.8810      7.345     10.654    11.8046 0.0000e+00
      7.501      0.034     0.0584      0.747     79.165  58.272528     2.5480      6.419   224.9054 1.2375e-01     4.8892      7.356     10.669    11.8037 0.0000e+00
      7.510      0.034     0.0578      0.756     79.173  58.278703     2.5533      6.418   224.7680 1.2373e-01     4.8852      7.365     10.682    11.8030 0.0000e+00
      7.519      0.033     0.0551      0.754     79.213  58.308923     2.5921      6.416   224.6530 1.2366e-01     4.9320      7.374     10.694    11.8022 0.0000e+00
      7.526      0.032     0.0550      0.754     79.229  58.320213     2.6529      6.415   224.5485 1.2366e-01     5.0280      7.381     10.705    11.8013 0.0000e+00
      7.533      0.031     0.0567      0.757     79.274  58.351664     2.6900      6.413   224.5359 1.2371e-01     5.0963      7.387     10.715    11.8013 0.0000e+00
      7.541      0.031     0.0579      0.762     79.475  58.498555     2.6932      6.412   224.4147 1.2372e-01     5.1349      7.395     10.726    11.8020 0.0000e+00
      7.549      0.032     0.0568      0.771     79.747  58.698294     2.6400      6.411   224.2020 1.2374e-01     5.1667      7.403     10.738    11.8024 0.0000e+00
      7.557      0.033     0.0571      0.766     79.882  58.796827     2.5411      6.410   224.1146 1.2374e-01     5.1530      7.411     10.749    11.8021 0.0000e+00
      7.565      0.033     0.0574      0.756     79.888  58.800291     2.4947      6.409   224.0469 1.2370e-01     5.1334      7.418     10.759    11.8011 0.0000e+00
      7.574      0.032     0.0572      0.749     79.893  58.803720     2.5037      6.408   223.8135 1.2370e-01     5.1262      7.428     10.773    11.8005 0.0000e+00
      7.584      0.030     0.0592      0.736     80.025  58.901827     2.5022      6.408   223.5294 1.2374e-01     5.0658      7.439     10.789    11.8004 0.0000e+00
      7.593      0.030     0.0579      0.726     80.548  59.287502     2.4946      6.408   223.4514 1.2378e-01     4.9605      7.448     10.803    11.7998 0.0000e+00
      7.600      0.031     0.0569      0.721     81.393  59.908282     2.4977      6.407   223.5580 1.2376e-01     4.9021      7.454     10.810    11.7987 0.0000e+00
      7.604      0.034     0.0573      0.708     82.197  60.497730     2.5060      6.405   223.6143 1.2369e-01     4.9164      7.456     10.813    11.7986 0.0000e+00
      7.610      0.038     0.0556      0.698     82.987  61.076364     2.5684      6.403   223.4448 1.2365e-01     4.9363      7.460     10.820    11.7992 0.0000e+00
      7.621      0.042     0.0545      0.710     83.657  61.566193     2.6801      6.402   223.2283 1.2365e-01     4.9454      7.472     10.838    11.7998 0.0000e+00
      7.636      0.045     0.0552      0.720     84.039  61.844446     2.7378      6.400   223.1485 1.2366e-01     4.9615      7.488     10.860    11.7999 0.0000e+00
      7.651      0.046     0.0538      0.720     84.290  62.025656     2.7373      6.399   222.9951 1.2366e-01     4.9673      7.504     10.883    11.7977 0.0000e+00
      7.665      0.044     0.0516      0.730     84.487  62.168306     2.6572      6.399   222.6643 1.2364e-01     4.9498      7.518     10.904    11.7954 0.0000e+00
      7.675      0.040     0.0540      0.747     84.580  62.234556     2.5055      6.398   222.3326 1.2369e-01     4.9473      7.528     10.918    11.7939 0.0000e+00
      7.683      0.035     0.0555      0.761     84.608  62.254689     2.4287      6.397   222.0822 1.2379e-01     4.9691      7.535     10.928    11.7921 0.0000e+00
      7.689      0.032     0.0536      0.764     84.823  62.411728     2.4313      6.395   221.9594 1.2383e-01     4.9515      7.540     10.937    11.7902 0.0000e+00
      7.696      0.031     0.0553      0.748     85.350  62.798621     2.4327      6.392   221.8800 1.2378e-01     4.8983      7.547     10.946    11.7888 0.0000e+00
      7.704      0.031     0.0568      0.733     85.875  63.182708     2.4286      6.391   221.6391 1.2368e-01     4.8831      7.556     10.958    11.7875 0.0000e+00
      7.712      0.031     0.0576      0.744     86.132  63.369348     2.4246      6.390   221.5415 1.2368e-01     4.8979      7.563     10.970    11.7870 0.0000e+00
      7.721      0.032     0.0588      0.770     86.354  63.529865     2.4201      6.390   221.6464 1.2371e-01     4.8813      7.571     10.981    11.7871 0.0000e+00
      7.730      0.032     0.0565      0.777     86.709  63.788749     2.4162      6.390   221.5307 1.2361e-01     4.8467      7.580     10.994    11.7864 0.0000e+00
      7.739      0.033     0.0547      0.765     87.114  64.084201     2.4216      6.388   221.1749 1.2355e-01     4.8730      7.589     11.007    11.7850 0.0000e+00
      7.746      0.035     0.0556      0.748     87.591  64.432594     2.4331      6.386   220.9586 1.2359e-01     4.9361      7.596     11.017    11.7832 0.0000e+00
      7.754      0.038     0.0594      0.738     88.126  64.823044     2.4338      6.385   221.0663 1.2361e-01     4.9547      7.603     11.027    11.7819 0.0000e+00
      7.763      0.042     0.0595      0.731     88.618  65.181994     2.4304      6.385   221.1006 1.2364e-01     4.9343      7.612     11.040    11.7808 0.0000e+00
      7.774      0.045     0.0579      0.711     88.923  65.403721     2.4787      6.385   220.8563 1.2370e-01     4.8866      7.624     11.057    11.7793 0.0000e+00
      7.787      0.047     0.0566      0.694     88.842  65.342714     2.5762      6.384   220.5219 1.2372e-01     4.8689      7.636     11.076    11.7776 0.0000e+00
      7.801      0.047     0.0553      0.704     88.486  65.080005     2.6288      6.384   220.3273 1.2372e-01     4.9168      7.650     11.095    11.7759 0.0000e+00
      7.815      0.046     0.0563      0.709     88.323  64.960623     2.6291      6.383   220.3098 1.2372e-01     4.9413      7.665     11.117    11.7742 0.0000e+00
      7.827      0.043     0.0541      0.699     88.781  65.297692     2.6489      6.380   220.2244 1.2375e-01     4.9034      7.678     11.136    11.7725 0.0000e+00
      7.837      0.040     0.0511      0.693     89.794  66.040770     2.6953      6.379   219.8965 1.2375e-01     4.8847      7.687     11.149    11.7714 0.0000e+00
      7.845      0.039     0.0539      0.693     90.954  66.889215     2.7218      6.378   219.5287 1.2372e-01     4.9117      7.693     11.158    11.7713 0.0000e+00
      7.853      0.040     0.0547      0.708     92.203  67.800790     2.7265      6.376   219.4781 1.2369e-01     4.9349      7.701     11.169    11.7716 0.0000e+00
      7.863      0.042     0.0522      0.721     93.568  68.798189     2.7179      6.373   219.1981 1.2367e-01     4.9030      7.710     11.183    11.7722 0.0000e+00
      7.873      0.045     0.0530      0.712     94.756  69.666772     2.6959      6.371   218.5523 1.2367e-01     4.7878      7.720     11.197    11.7716 0.0000e+00
      7.885      0.048     0.0517      0.703     95.699  70.355616     2.6849      6.369   218.2947 1.2367e-01     4.6888      7.732     11.214    11.7682 0.0000e+00
      7.900      0.051     0.0536      0.709     96.611  71.023268     2.6805      6.368   218.3205 1.2371e-01     4.6898      7.748     11.238    11.7643 0.0000e+00
      7.915      0.053     0.0559      0.714     97.534  71.698975     2.6523      6.367   218.0897 1.2373e-01     4.6692      7.763     11.260    11.7610 0.0000e+00
      7.928      0.053     0.0535      0.714     98.434  72.357865     2.6034      6.364   217.5695 1.2374e-01     4.5704      7.775     11.276    11.7579 0.0000e+00
      7.940      0.053     0.0528      0.725     99.156  72.885549     2.5748      6.361   217.3656 1.2375e-01     4.5105      7.787     11.292    11.7557 0.0000e+00
      7.954      0.052     0.0536      0.740     99.391  73.055709     2.5664      6.359   217.5165 1.2373e-01     4.4699      7.800     11.313    11.7543 0.0000e+00
      7.968      0.052     0.0547      0.735     99.424  73.079896     2.5278      6.357   217.4151 1.2372e-01     4.1781      7.814     11.333    11.7532 0.0000e+00
      7.982      0.052     0.0533      0.710     99.811  73.368741     2.4634      6.353   217.0861 1.2370e-01     3.6366      7.829     11.354    11.7519 0.0000e+00
      7.995      0.051     0.0547      0.700    100.318  73.750134     2.4303      6.351   216.8939 1.2369e-01     3.2979      7.841     11.372    11.7500 0.0000e+00
      8.006      0.049     0.0570      0.713    100.476  73.875848     2.4303      6.349   216.7265 1.2371e-01     3.2616      7.851     11.387    11.7483 0.0000e+00
      8.019      0.047     0.0565      0.716    100.111  73.616925     2.4376      6.347   216.2668 1.2373e-01     3.2625      7.864     11.405    11.7478 0.0000e+00
      8.032      0.045     0.0534      0.699     99.571  73.226741     2.4843      6.345   215.5518 1.2373e-01     2.9807      7.877     11.425    11.7504 0.0000e+00
      8.043      0.042     0.0518      0.685     99.738  73.355170     2.5615      6.343   214.8782 1.2371e-01     2.4768      7.888     11.440    11.7556 0.0000e+00
      8.053      0.039     0.0549      0.691    100.469  73.897927     2.5987      6.342   214.3169 1.2370e-01     2.2496      7.897     11.454    11.7603 0.0000e+00
      8.063      0.034     0.0549      0.697    100.779  74.129548     2.6054      6.341   213.7556 1.2368e-01     2.2655      7.907     11.470    11.7650 0.0000e+00
      8.072      0.031     0.0528      0.677    101.200  74.438736     2.5987      6.340   213.4259 1.2368e-01     2.2102      7.917     11.483    11.7687 0.0000e+00
      8.079      0.032     0.0510      0.659    103.999  76.491550     2.5784      6.338   213.1697 1.2371e-01     2.1054      7.923     11.492    11.7710 0.0000e+00
      8.084      0.039     0.0520      0.665    108.429  79.741918     2.5683      6.336   212.5516 1.2370e-01     2.0473      7.929     11.500    11.7738 0.0000e+00
      8.088      0.050     0.0545      0.682    111.681  82.127041     2.5626      6.334   211.8893 1.2370e-01     2.0319      7.931     11.502    11.7764 0.0000e+00
      8.096      0.060     0.0509      0.709    114.954  84.529262     2.5700      6.331   211.5289 1.2374e-01     1.8869      7.934     11.507    11.7763 0.0000e+00
      8.118      0.070     0.0487      0.733    119.214  87.663607     2.5974      6.328   211.2051 1.2374e-01     1.5709      7.958     11.542    11.7726 0.0000e+00
      8.148      0.077     0.0507      0.740    122.367  89.990466     2.6165      6.325   210.6407 1.2367e-01     1.3578      7.994     11.594    11.7686 0.0000e+00
      8.174      0.079     0.0509      0.742    123.673  90.963019     2.6200      6.321   209.9537 1.2364e-01     1.3089      8.019     11.631    11.7653 0.0000e+00
      8.193      0.075     0.0539      0.733    125.036  91.976572     2.5874      6.317   209.3520 1.2367e-01     1.2756      8.035     11.653    11.7628 0.0000e+00
      8.210      0.066     0.0565      0.711    127.128  93.525147     2.5252      6.314   208.6990 1.2367e-01     1.1841      8.054     11.679    11.7635 0.0000e+00
      8.225      0.057     0.0557      0.695    128.053  94.219399     2.4923      6.313   208.0811 1.2364e-01     1.0876      8.068     11.702    11.7673 0.0000e+00
      8.236      0.050     0.0566      0.692    127.218  93.623681     2.4845      6.310   207.8177 1.2366e-01     1.0597      8.076     11.713    11.7731 0.0000e+00
      8.246      0.046     0.0562      0.699    125.922  92.687778     2.4743      6.308   207.5802 1.2368e-01     1.0758      8.085     11.726    11.7773 0.0000e+00
      8.258      0.045     0.0535      0.704    126.017  92.769681     2.4731      6.306   207.0162 1.2366e-01     1.1185      8.098     11.746    11.7803 0.0000e+00
      8.270      0.046     0.0522      0.697    128.252  94.422962     2.4880      6.304   206.1604 1.2364e-01     1.1495      8.111     11.764    11.7856 0.0000e+00
      8.280      0.049     0.0522      0.692    130.820  96.317887     2.5066      6.301   205.0626 1.2368e-01     1.1559      8.119     11.775    11.7935 0.0000e+00
      8.291      0.051     0.0527      0.694    131.962  97.156452     2.5589      6.298   203.8946 1.2373e-01     1.1306      8.129     11.790    11.8024 0.0000e+00
      8.306      0.052     0.0541      0.701    132.085  97.240947     2.6437      6.294   202.7939 1.2373e-01     1.0724      8.144     11.812    11.8061 0.0000e+00
      8.322      0.052     0.0525      0.708    132.311  97.403167     2.6819      6.289   201.6479 1.2368e-01     1.0755      8.161     11.836    11.8083 0.0000e+00
      8.337      0.052     0.0521      0.703    132.999  97.908146     2.6736      6.282   200.4502 1.2366e-01     1.1346      8.176     11.859    11.8116 0.0000e+00
      8.350      0.051     0.0525      0.701    133.299  98.125892     2.6822      6.277   199.4971 1.2364e-01     1.1650      8.188     11.877    11.8099 0.0000e+00
      8.360      0.048     0.0525      0.696    132.785  97.743894     2.7079      6.273   198.7279 1.2362e-01     1.1484      8.198     11.891    11.8064 0.0000e+00
      8.372      0.044     0.0548      0.683    132.535  97.555156     2.7155      6.270   197.9470 1.2360e-01     1.0970      8.210     11.908    11.8052 0.0000e+00
      8.386      0.042     0.0523      0.668    133.505  98.263234     2.7229      6.266   197.1968 1.2363e-01     1.0675      8.224     11.928    11.8051 0.0000e+00
      8.396      0.041     0.0535      0.648    135.190  99.492591     2.7449      6.263   196.3686 1.2373e-01     1.0874      8.234     11.943    11.8045 0.0000e+00
      8.403      0.042     0.0531      0.644    136.425 100.385460     2.7821      6.259   195.5902 1.2377e-01     1.1086      8.241     11.952    11.8025 0.0000e+00
      8.412      0.043     0.0513      0.669    136.983 100.781355     2.8337      6.257   195.0132 1.2375e-01     1.0941      8.247     11.962    11.8006 0.0000e+00
      8.422      0.046     0.0513      0.701    137.334 101.031842     2.8663      6.255   194.2960 1.2375e-01     1.0761      8.258     11.978    11.7994 0.0000e+00
      8.436      0.049     0.0481      0.714    137.719 101.312720     2.8736      6.254   193.2000 1.2376e-01     1.0874      8.273     11.998    11.7957 0.0000e+00
      8.451      0.051     0.0480      0.718    138.068 101.566628     2.8698      6.253   192.0857 1.2376e-01     1.0996      8.287     12.020    11.7884 0.0000e+00
      8.465      0.051     0.0501      0.718    138.410 101.809393     2.8636      6.252   191.1481 1.2373e-01     1.0927      8.302     12.041    11.7821 0.0000e+00
      8.479      0.050     0.0543      0.713    138.888 102.146535     2.8594      6.250   190.1232 1.2368e-01     1.0689      8.316     12.062    11.7799 0.0000e+00
      8.492      0.049     0.0540      0.714    139.422 102.522613     2.8615      6.250   188.9853 1.2366e-01     1.0742      8.328     12.080    11.7797 0.0000e+00
      8.502      0.048     0.0544      0.714    139.809 102.790336     2.8548      6.249   187.8008 1.2366e-01     1.1571      8.337     12.092    11.7797 0.0000e+00
      8.512      0.048     0.0549      0.695    139.984 102.899919     2.8214      6.249   186.6428 1.2368e-01     1.2517      8.346     12.105    11.7763 0.0000e+00
      8.524      0.048     0.0535      0.675    140.003 102.892306     2.7876      6.248   185.6529 1.2372e-01     1.3010      8.359     12.123    11.7699 0.0000e+00
      8.539      0.048     0.0540      0.669    139.941 102.825634     2.7760      6.247   184.7801 1.2372e-01     1.3265      8.373     12.145    11.7647 0.0000e+00
      8.552      0.047     0.0551      0.665    139.832 102.730597     2.7410      6.248   183.9201 1.2364e-01     1.2984      8.388     12.165    11.7583 0.0000e+00
      8.564      0.045     0.0525      0.666    139.798 102.698457     2.6675      6.249   183.0837 1.2360e-01     1.2230      8.399     12.182    11.7513 0.0000e+00
      8.576      0.041     0.0503      0.676    139.877 102.755431     2.6246      6.250   182.2389 1.2363e-01     1.1694      8.410     12.198    11.7437 0.0000e+00
      8.586      0.037     0.0512      0.687    139.826 102.718960     2.6218      6.251   181.2771 1.2366e-01     1.1749      8.420     12.212    11.7351 0.0000e+00
      8.594      0.036     0.0501      0.678    139.461 102.448529     2.6510      6.252   180.2311 1.2367e-01     1.1902      8.429     12.224    11.7299 0.0000e+00
      8.601      0.037     0.0505      0.668    138.908 102.032948     2.7082      6.253   179.3999 1.2366e-01     1.1247      8.435     12.233    11.7272 0.0000e+00
      8.607      0.039     0.0506      0.677    138.498 101.706108     2.7411      6.254   178.7984 1.2366e-01     1.0711      8.440     12.241    11.7276 0.0000e+00
      8.617      0.042     0.0531      0.679    138.346 101.553373     2.7458      6.254   178.0340 1.2366e-01     1.1000      8.449     12.254    11.7290 0.0000e+00
      8.630      0.047     0.0518      0.674    138.366 101.523453     2.8255      6.254   177.1277 1.2367e-01     1.3760      8.463     12.275    11.7278 0.0000e+00
      8.644      0.052     0.0491      0.684    138.523 101.599018     2.9851      6.254   176.1858 1.2371e-01     1.9167      8.476     12.294    11.7261 0.0000e+00
      8.657      0.056     0.0522      0.692    138.883 101.830195     3.0718      6.255   175.2497 1.2376e-01     2.2307      8.490     12.313    11.7173 0.0000e+00
      8.672      0.057     0.0519      0.691    140.136 102.726556     3.0760      6.257   174.4989 1.2373e-01     2.2557      8.505     12.335    11.7000 0.0000e+00
      8.687      0.056     0.0501      0.703    142.276 104.285297     3.0098      6.259   173.8193 1.2363e-01     2.1199      8.520     12.357    11.6832 0.0000e+00
      8.702      0.054     0.0522      0.713    144.563 105.965504     2.8790      6.260   173.1419 1.2358e-01     1.8341      8.534     12.378    11.6684 0.0000e+00
      8.717      0.050     0.0534      0.708    147.163 107.883524     2.8118      6.262   172.4174 1.2363e-01     1.6514      8.550     12.401    11.6563 0.0000e+00
      8.731      0.047     0.0514      0.703    149.621 109.704542     2.8040      6.263   171.5126 1.2366e-01     1.5819      8.565     12.422    11.6479 0.0000e+00
      8.740      0.046     0.0535      0.698    151.235 110.911488     2.7504      6.263   170.5476 1.2365e-01     1.4861      8.572     12.433    11.6444 0.0000e+00
      8.749      0.046     0.0552      0.684    152.295 111.710359     2.6584      6.264   169.6118 1.2364e-01     1.3777      8.578     12.441    11.6465 0.0000e+00
      8.759      0.047     0.0534      0.664    153.243 112.419316     2.6101      6.266   168.8015 1.2363e-01     1.3210      8.589     12.456    11.6506 0.0000e+00
      8.771      0.050     0.0533      0.654    154.094 113.048494     2.6088      6.267   168.0635 1.2367e-01     1.3246      8.600     12.474    11.6571 0.0000e+00
      8.785      0.051     0.0534      0.651    154.564 113.392299     2.6168      6.267   167.0565 1.2376e-01     1.3881      8.614     12.494    11.6659 0.0000e+00
      8.802      0.051     0.0521      0.646    154.653 113.454190     2.6811      6.267   166.0038 1.2379e-01     1.4989      8.632     12.520    11.6737 0.0000e+00
      8.818      0.047     0.0501      0.648    154.605 113.414520     2.7962      6.268   165.3163 1.2372e-01     1.5504      8.649     12.545    11.6783 0.0000e+00
      8.831      0.041     0.0494      0.662    154.621 113.422374     2.8549      6.270   164.5940 1.2365e-01     1.5515      8.662     12.563    11.6796 0.0000e+00
      8.839      0.036     0.0498      0.668    154.800 113.549152     2.8538      6.271   163.6373 1.2365e-01     1.5779      8.669     12.573    11.6787 0.0000e+00
      8.844      0.031     0.0490      0.673    155.238 113.864182     2.8261      6.271   162.6110 1.2366e-01     1.5090      8.674     12.580    11.6773 0.0000e+00
      8.849      0.030     0.0483      0.684    156.019 114.427801     2.7711      6.272   161.4776 1.2361e-01     1.3738      8.678     12.587    11.6761 0.0000e+00
      8.855      0.033     0.0510      0.683    157.180 115.266289     2.7361      6.272   160.6020 1.2357e-01     1.3526      8.683     12.593    11.6748 0.0000e+00
      8.863      0.039     0.0508      0.681    159.035 116.610613     2.7313      6.270   160.0258 1.2359e-01     1.3508      8.691     12.605    11.6735 0.0000e+00
      8.874      0.045     0.0503      0.687    162.347 119.020189     2.7305      6.268   159.5877 1.2363e-01     1.3188      8.702     12.621    11.6717 0.0000e+00
      8.887      0.053     0.0530      0.690    166.565 122.093834     2.7270      6.267   159.2622 1.2364e-01     1.3266      8.715     12.639    11.6688 0.0000e+00
      8.902      0.059     0.0516      0.680    169.547 124.262755     2.7233      6.265   158.6713 1.2363e-01     1.3467      8.729     12.660    11.6647 0.0000e+00
      8.918      0.064     0.0515      0.666    170.627 125.037533     2.7206      6.263   157.9496 1.2367e-01     1.3659      8.745     12.684    11.6592 0.0000e+00
      8.936      0.065     0.0522      0.656    170.719 125.086585     2.6943      6.261   157.3332 1.2372e-01     1.3622      8.763     12.710    11.6535 0.0000e+00
      8.956      0.063     0.0530      0.654    170.516 124.919578     2.6476      6.259   156.7252 1.2372e-01     1.3347      8.784     12.739    11.6477 0.0000e+00
      8.974      0.059     0.0516      0.662    170.372 124.803322     2.6247      6.259   156.1909 1.2374e-01     1.3273      8.803     12.767    11.6426 0.0000e+00
      8.989      0.054     0.0503      0.661    171.025 125.274733     2.6259      6.258   155.6922 1.2374e-01     1.3383      8.817     12.788    11.6384 0.0000e+00
      9.000      0.050     0.0500      0.655    173.459 127.049063     2.6525      6.256   155.1696 1.2370e-01     1.3368      8.826     12.800    11.6327 0.0000e+00
      9.010      0.049     0.0487      0.650    177.591 130.061951     2.6950      6.253   154.4313 1.2367e-01     1.3099      8.835     12.814    11.6263 0.0000e+00
      9.020      0.049     0.0513      0.649    183.906 134.667210     2.7154      6.251   153.5624 1.2361e-01     1.3078      8.845     12.829    11.6233 0.0000e+00
      9.032      0.051     0.0501      0.656    191.207 139.997981     2.7250      6.248   152.6655 1.2354e-01     1.3117      8.856     12.845    11.6221 0.0000e+00
      9.047      0.055     0.0497      0.659    195.352 143.036775     2.7158      6.246   151.6748 1.2356e-01     1.2912      8.871     12.867    11.6198 0.0000e+00
      9.063      0.056     0.0496      0.647    195.736 143.338361     2.6819      6.245   150.7901 1.2361e-01     1.3219      8.888     12.891    11.6170 0.0000e+00
      9.079      0.056     0.0489      0.640    193.508 141.730191     2.6628      6.243   149.8836 1.2368e-01     1.3881      8.903     12.912    11.6103 0.0000e+00
      9.094      0.054     0.0501      0.660    189.891 139.096933     2.6573      6.242   149.1461 1.2376e-01     1.4036      8.918     12.935    11.6039 0.0000e+00
      9.108      0.051     0.0506      0.680    187.306 137.211763     2.6158      6.242   148.6701 1.2380e-01     1.3775      8.933     12.956    11.6053 0.0000e+00
      9.121      0.047     0.0494      0.676    185.175 135.651629     2.5333      6.242   148.2591 1.2376e-01     1.3671      8.945     12.973    11.6124 0.0000e+00
      9.131      0.043     0.0471      0.662    183.102 134.138837     2.4844      6.242   147.9628 1.2372e-01     1.3441      8.956     12.989    11.6193 0.0000e+00
      9.141      0.042     0.0504      0.656    184.407 135.121822     2.4835      6.240   147.6681 1.2374e-01     1.3291      8.965     13.004    11.6235 0.0000e+00
      9.150      0.042     0.0527      0.662    190.493 139.626927     2.4715      6.237   147.2774 1.2373e-01     1.3825      8.973     13.014    11.6255 0.0000e+00
      9.159      0.043     0.0515      0.662    197.323 144.654564     2.4337      6.233   146.7663 1.2367e-01     1.4646      8.981     13.026    11.6249 0.0000e+00
      9.170      0.045     0.0503      0.647    200.533 146.972977     2.4171      6.231   146.1351 1.2365e-01     1.5360      8.993     13.043    11.6248 0.0000e+00
      9.182      0.047     0.0492      0.634    200.726 147.047698     2.4263      6.229   145.4964 1.2370e-01     1.5565      9.004     13.059    11.6309 0.0000e+00
      9.197      0.047     0.0505      0.633    200.689 146.962021     2.4324      6.228   144.8084 1.2367e-01     1.5160      9.018     13.080    11.6477 0.0000e+00
      9.212      0.048     0.0511      0.637    201.260 147.341056     2.4391      6.226   144.0108 1.2359e-01     1.5058      9.035     13.105    11.6586 0.0000e+00
      9.223      0.051     0.0488      0.646    201.669 147.609738     2.4382      6.225   143.3386 1.2359e-01     1.5314      9.047     13.122    11.6459 0.0000e+00
      9.232      0.052     0.0478      0.650    201.686 147.593913     2.4302      6.226   142.7894 1.2362e-01     1.5312      9.052     13.130    11.6241 0.0000e+00
      9.243      0.051     0.0482      0.654    201.636 147.532630     2.3856      6.227   142.2750 1.2366e-01     1.5355      9.061     13.142    11.6096 0.0000e+00
      9.260      0.049     0.0481      0.679    201.627 147.506972     2.2972      6.229   141.7649 1.2368e-01     1.5505      9.079     13.168    11.6010 0.0000e+00
      9.278      0.044     0.0493      0.696    201.687 147.538957     2.2462      6.232   141.2683 1.2366e-01     1.5488      9.101     13.200    11.5941 0.0000e+00
      9.292      0.039     0.0499      0.689    201.689 147.536400     2.2456      6.234   140.9165 1.2362e-01     1.5476      9.115     13.220    11.5873 0.0000e+00
      9.298      0.032     0.0484      0.680    201.605 147.476058     2.2555      6.235   140.8669 1.2364e-01     1.5695      9.119     13.226    11.5804 0.0000e+00
      9.302      0.023     0.0520      0.665    201.560 147.447600     2.2877      6.237   141.0119 1.2374e-01     1.5831      9.121     13.231    11.5755 0.0000e+00
      9.305      0.016     0.0544      0.654    201.645 147.511433     2.3398      6.239   140.7771 1.2377e-01     1.5488      9.125     13.235    11.5729 0.0000e+00
      9.308      0.014     0.0514      0.650    201.779 147.609632     2.3658      6.241   140.0070 1.2376e-01     1.5161      9.128     13.239    11.5720 0.0000e+00
      9.310      0.015     0.0525      0.649    201.872 147.677560     2.3679      6.242   139.1867 1.2374e-01     1.5474      9.130     13.242    11.5723 0.0000e+00
      9.313      0.016     0.0504      0.655    201.903 147.694511     2.3999      6.243   138.3432 1.2367e-01     1.5995      9.133     13.246    11.5741 0.0000e+00
      9.318      0.018     0.0493      0.653    201.726 147.559274     2.4578      6.244   137.3807 1.2367e-01     1.6213      9.137     13.252    11.5745 0.0000e+00
      9.324      0.019     0.0500      0.645    201.297 147.255056     2.4867      6.246   136.2391 1.2375e-01     1.6143      9.143     13.261    11.5739 0.0000e+00
      9.330      0.020     0.0485      0.650    200.925 147.015915     2.4897      6.248   134.6927 1.2376e-01     1.6135      9.150     13.270    11.5751 0.0000e+00
      9.335      0.020     0.0506      0.657    200.888 147.029300     2.5281      6.250   132.9659 1.2375e-01     1.6444      9.155     13.279    11.5732 0.0000e+00
      9.340      0.019     0.0499      0.648    200.946 147.097835     2.6045      6.251   131.4495 1.2372e-01     1.6606      9.160     13.285    11.5696 0.0000e+00
      9.344      0.018     0.0485      0.635    200.733 146.951088     2.6506      6.252   130.3826 1.2369e-01     1.6451      9.163     13.290    11.5712 0.0000e+00
      9.349      0.016     0.0491      0.633    200.240 146.595258     2.6525      6.254   129.5308 1.2371e-01     1.6213      9.169     13.298    11.5811 0.0000e+00
      9.354      0.014     0.0509      0.640    199.481 146.050386     2.5923      6.256   128.4637 1.2372e-01     1.6023      9.174     13.305    11.5937 0.0000e+00
      9.358      0.013     0.0492      0.649    198.403 145.277182     2.4867      6.258   127.1172 1.2374e-01     1.5787      9.177     13.311    11.6006 0.0000e+00
      9.360      0.011     0.0477      0.651    197.251 144.457861     2.4332      6.260   125.5529 1.2376e-01     1.5331      9.179     13.313    11.6011 0.0000e+00
      9.361      0.010     0.0482      0.653    196.306 143.801882     2.4299      6.261   124.0904 1.2374e-01     1.5092      9.180     13.316    11.6013 0.0000e+00
      9.363      0.009     0.0483      0.670    195.710 143.408070     2.4821      6.262   123.2013 1.2370e-01     1.6499      9.182     13.318    11.6043 0.0000e+00
      9.366      0.009     0.0498      0.689    195.897 143.588834     2.5880      6.264   122.4603 1.2368e-01     1.8913      9.185     13.322    11.6083 0.0000e+00
      9.370      0.009     0.0495      0.679    196.502 144.073168     2.6521      6.266   121.1536 1.2368e-01     2.0030      9.188     13.328    11.6137 0.0000e+00
      9.372      0.010     0.0492      0.657    197.093 144.542109     2.6681      6.268   119.0173 1.2371e-01     2.0168      9.190     13.330    11.6235 0.0000e+00
      9.374      0.012     0.0504      0.646    198.255 145.429974     2.7118      6.270   116.4196 1.2372e-01     2.1235      9.192     13.332    11.6351 0.0000e+00
      9.375      0.017     0.0538      0.637    199.260 146.193126     2.7905      6.272   114.1805 1.2370e-01     2.3434      9.194     13.335    11.6465 0.0000e+00
      9.377      0.023     0.0520      0.625    198.282 145.473139     2.8488      6.274   112.5084 1.2365e-01     2.4796      9.196     13.337    11.6574 0.0000e+00
      9.382      0.029     0.0489      0.623    194.906 142.978445     2.8694      6.274   111.1728 1.2364e-01     2.4916      9.199     13.342    11.6653 0.0000e+00
      9.392      0.033     0.0493      0.630    193.846 142.191999     2.8228      6.273   109.9918 1.2367e-01     2.4235      9.208     13.355    11.6751 0.0000e+00
      9.407      0.035     0.0484      0.630    198.569 145.662004     2.7280      6.271   108.8972 1.2369e-01     2.3111      9.225     13.379    11.6847 0.0000e+00
      9.421      0.034     0.0473      0.630    202.854 148.815009     2.6853      6.271   107.7470 1.2370e-01     2.2801      9.242     13.403    11.6823 0.0000e+00
      9.429      0.031     0.0463      0.628    202.907 148.853798     2.6971      6.272   106.2375 1.2373e-01     2.5072      9.249     13.414    11.6741 0.0000e+00
      9.434      0.030     0.0489      0.630    202.695 148.684502     2.7833      6.276   102.0888 1.2373e-01     4.7953      9.252     13.418    11.6722 0.0000e+00
      9.437      0.031     0.0473      0.646    204.034 149.640422     2.9386      6.281    92.9481 1.2369e-01     8.9054      9.255     13.423    11.6747 0.0000e+00
      9.441      0.032     0.0480      0.651    206.756 151.603379     3.0235      6.286    82.0151 1.2369e-01    11.0731      9.257     13.426    11.6783 0.0000e+00
      9.449      0.033     0.0481      0.646    209.044 153.267460     2.9595      6.290    73.7475 1.2371e-01    10.9804      9.263     13.434    11.6789 0.0000e+00
      9.465      0.033     0.0462      0.639    206.964 151.758172     2.1642      6.294    68.1844 1.2370e-01     8.1128      9.280     13.460    11.6747 0.0000e+00
      9.481      0.031     0.0505      0.640    202.565 148.547548     0.7344      6.298    63.4494 1.2371e-01     2.8809      9.301     13.491    11.6695 0.0000e+00
      9.489      0.030     0.0492      0.646    200.717 147.194504     0.0296      6.300    61.0653 1.2375e-01     0.2879      9.308     13.500    11.6578 0.0000e+00
      9.490 -9.990e-29     0.0493 -9.990e-29 -9.990e-29 -9.990e-29 -9.990e-29 -9.990e-29 -9.990e-29 1.2371e-01 -9.990e-29      9.306     13.498    11.6516 0.0000e+00
      9.491 -9.990e-29     0.0484 -9.990e-29 -9.990e-29 -9.990e-29 -9.990e-29 -9.990e-29 -9.990e-29 1.2362e-01 -9.990e-29      9.307     13.499    11.6617 0.0000e+00
      9.491 -9.990e-29     0.0478 -9.990e-29 -9.990e-29 -9.990e-29 -9.990e-29 -9.990e-29 -9.990e-29 1.2357e-01 -9.990e-29      9.308     13.500    11.6660 0.0000e+00
      9.491 -9.990e-29     0.0505 -9.990e-29 -9.990e-29 -9.990e-29 -9.990e-29 -9.990e-29 -9.990e-29 1.2357e-01 -9.990e-29      9.308     13.501    11.6631 0.0000e+00
