* Sea-Bird SBE19plus  Data File:
* FileName = C:\DATA\082819_fcr_0002.hex
* Software version 2.8.0.119 SB_Terminal.dll
* Temperature SN = 7809
* Conductivity SN = 7809
* System UpLoad Time = Aug 28 2019 11:49:36
* <ApplicationData>
* <Seaterm232>
* <SoftwareVersion>2.8.0.119</SoftwareVersion>
* <BuildDate>07-Nov-2018</BuildDate>
* </Seaterm232>
* </ApplicationData>
* cast   2 28 Aug 2019 10:55:46 samples 314 to 760, avg = 1, stop = mag switch
# nquan = 15
# nvalues = 385                         
# units = specified
# name 0 = depFM: Depth [fresh water, m]
# name 1 = dz/dtM: Descent Rate [m/s]
# name 2 = sbeox0ML/L: Oxygen, SBE 43 [ml/l]
# name 3 = sbeox0PS: Oxygen, SBE 43 [% saturation]
# name 4 = specc: Specific Conductance [uS/cm]
# name 5 = c0uS/cm: Conductivity [uS/cm]
# name 6 = flECO-AFL: Fluorescence, WET Labs ECO-AFL/FL [mg/m^3]
# name 7 = ph: pH
# name 8 = orp: Oxidation Reduction Potential [mV]
# name 9 = par/sat/log: PAR/Logarithmic, Satlantic
# name 10 = turbWETntu0: Turbidity, WET Labs ECO [NTU]
# name 11 = prdM: Pressure, Strain Gauge [db]
# name 12 = prdE: Pressure, Strain Gauge [psi]
# name 13 = tv290C: Temperature [ITS-90, deg C]
# name 14 = flag:  0.000e+00
# span 0 =     -0.396,      3.030       
# span 1 =     -0.011,      0.141       
# span 2 =    -0.6031,     6.3238       
# span 3 =     -9.176,    105.748       
# span 4 =     35.965,     79.839       
# span 5 =  34.988939,  71.621354       
# span 6 =     1.7705,     9.5483       
# span 7 =      6.924,      8.478       
# span 8 =   178.2961,   261.4714       
# span 9 = 1.8407e+00, 4.6749e+02       
# span 10 =     6.0121,    13.4866      
# span 11 =     -0.396,      2.971      
# span 12 =     -0.574,      4.310      
# span 13 =    19.8427,    23.7927      
# span 14 = 0.0000e+00, 0.0000e+00      
# interval = seconds: 0.25
# start_time = Aug 28 2019 10:55:46 [Instrument's time stamp, header]
# bad_flag = -9.990e-29
# <Sensors count="9" >
#   <sensor Channel="1" >
#     <!-- Count, Temperature -->
#     <TemperatureSensor SensorID="58" >
#       <SerialNumber>7809</SerialNumber>
#       <CalibrationDate>24-Mar-19</CalibrationDate>
#       <A0>1.21792325e-003</A0>
#       <A1>2.81669265e-004</A1>
#       <A2>-1.60333336e-006</A2>
#       <A3>1.98414625e-007</A3>
#       <Slope>1.00000000</Slope>
#       <Offset>0.0000</Offset>
#     </TemperatureSensor>
#   </sensor>
#   <sensor Channel="2" >
#     <!-- Frequency 0, Conductivity -->
#     <ConductivitySensor SensorID="3" >
#       <SerialNumber>7809</SerialNumber>
#       <CalibrationDate>24-Mar-19</CalibrationDate>
#       <UseG_J>1</UseG_J>
#       <!-- Cell const and series R are applicable only for wide range sensors. -->
#       <SeriesR>0.0000</SeriesR>
#       <CellConst>2000.0000</CellConst>
#       <ConductivityType>0</ConductivityType>
#       <Coefficients equation="0" >
#         <A>0.00000000e+000</A>
#         <B>0.00000000e+000</B>
#         <C>0.00000000e+000</C>
#         <D>0.00000000e+000</D>
#         <M>0.0</M>
#         <CPcor>-9.57000000e-008</CPcor>
#       </Coefficients>
#       <Coefficients equation="1" >
#         <G>-1.00589325e+000</G>
#         <H>1.26816302e-001</H>
#         <I>-1.51560448e-004</I>
#         <J>2.67137274e-005</J>
#         <CPcor>-9.57000000e-008</CPcor>
#         <CTcor>3.2500e-006</CTcor>
#         <!-- WBOTC not applicable unless ConductivityType = 1. -->
#         <WBOTC>0.00000000e+000</WBOTC>
#       </Coefficients>
#       <Slope>1.00000000</Slope>
#       <Offset>0.00000</Offset>
#     </ConductivitySensor>
#   </sensor>
#   <sensor Channel="3" >
#     <!-- Count, Pressure, Strain Gauge -->
#     <PressureSensor SensorID="46" >
#       <SerialNumber>7809</SerialNumber>
#       <CalibrationDate>11-Mar-19</CalibrationDate>
#       <PA0>4.56561833e-002</PA0>
#       <PA1>4.85095118e-004</PA1>
#       <PA2>-2.88327090e-012</PA2>
#       <PTEMPA0>-5.48784562e+001</PTEMPA0>
#       <PTEMPA1>5.53756816e+001</PTEMPA1>
#       <PTEMPA2>-5.86727098e-001</PTEMPA2>
#       <PTCA0>5.25246745e+005</PTCA0>
#       <PTCA1>1.22304214e+001</PTCA1>
#       <PTCA2>-3.56745036e-001</PTCA2>
#       <PTCB0>2.51668750e+001</PTCB0>
#       <PTCB1>3.75000000e-004</PTCB1>
#       <PTCB2>0.00000000e+000</PTCB2>
#       <Offset>0.000000</Offset>
#     </PressureSensor>
#   </sensor>
#   <sensor Channel="4" >
#     <!-- A/D voltage 0, Oxygen, SBE 43 -->
#     <OxygenSensor SensorID="38" >
#       <SerialNumber>0434</SerialNumber>
#       <CalibrationDate>13-Apr-19</CalibrationDate>
#       <Use2007Equation>1</Use2007Equation>
#       <CalibrationCoefficients equation="0" >
#         <!-- Coefficients for Owens-Millard equation. -->
#         <Boc>0.0000</Boc>
#         <Soc>0.0000e+000</Soc>
#         <offset>0.0000</offset>
#         <Pcor>0.00e+000</Pcor>
#         <Tcor>0.0000</Tcor>
#         <Tau>0.0</Tau>
#       </CalibrationCoefficients>
#       <CalibrationCoefficients equation="1" >
#         <!-- Coefficients for Sea-Bird equation - SBE calibration in 2007 and later. -->
#         <Soc>4.2007e-001</Soc>
#         <offset>-0.6109</offset>
#         <A>-4.3656e-003</A>
#         <B> 1.7017e-004</B>
#         <C>-2.5341e-006</C>
#         <D0> 2.5826e+000</D0>
#         <D1> 1.92634e-004</D1>
#         <D2>-4.64803e-002</D2>
#         <E> 3.6000e-002</E>
#         <Tau20> 1.1800</Tau20>
#         <H1>-3.3000e-002</H1>
#         <H2> 5.0000e+003</H2>
#         <H3> 1.4500e+003</H3>
#       </CalibrationCoefficients>
#     </OxygenSensor>
#   </sensor>
#   <sensor Channel="5" >
#     <!-- A/D voltage 1, PAR/Logarithmic, Satlantic -->
#     <PARLog_SatlanticSensor SensorID="76" >
#       <SerialNumber>1122</SerialNumber>
#       <CalibrationDate>08-May-2019</CalibrationDate>
#       <a0>9.7456e-001</a0>
#       <a1>8.1640e-001</a1>
#       <Im>1.3589e+000</Im>
#       <Multiplier>1.0000e+000</Multiplier>
#     </PARLog_SatlanticSensor>
#   </sensor>
#   <sensor Channel="6" >
#     <!-- A/D voltage 2, pH -->
#     <pH_Sensor SensorID="43" >
#       <SerialNumber>0363</SerialNumber>
#       <CalibrationDate>15-Apr-19</CalibrationDate>
#       <Slope>4.5952</Slope>
#       <Offset>2.5370</Offset>
#     </pH_Sensor>
#   </sensor>
#   <sensor Channel="7" >
#     <!-- A/D voltage 3, Oxidation Reduction Potential -->
#     <OxidationReductionPotentialSensor SensorID="41" >
#       <SerialNumber>0363</SerialNumber>
#       <CalibrationDate>15-Apr-19</CalibrationDate>
#       <B>2.499480</B>
#       <M>-0.496195</M>
#       <Offset>0.0</Offset>
#     </OxidationReductionPotentialSensor>
#   </sensor>
#   <sensor Channel="8" >
#     <!-- A/D voltage 4, Fluorometer, WET Labs ECO-AFL/FL -->
#     <FluoroWetlabECO_AFL_FL_Sensor SensorID="20" >
#       <SerialNumber>FLNTURT-2496</SerialNumber>
#       <CalibrationDate>08-May-2019</CalibrationDate>
#       <ScaleFactor>5.00000000e+001</ScaleFactor>
#       <!-- Dark output -->
#       <Vblank>0.0550</Vblank>
#     </FluoroWetlabECO_AFL_FL_Sensor>
#   </sensor>
#   <sensor Channel="9" >
#     <!-- A/D voltage 5, Turbidity Meter, WET Labs, ECO-NTU -->
#     <TurbidityMeter SensorID="67" >
#       <SerialNumber>FLNTURT-2496</SerialNumber>
#       <CalibrationDate>08-May-2019</CalibrationDate>
#       <ScaleFactor>189.000000</ScaleFactor>
#       <!-- Dark output -->
#       <DarkVoltage>0.071000</DarkVoltage>
#     </TurbidityMeter>
#   </sensor>
# </Sensors>
# datcnv_date = Sep 18 2019 09:14:12, 7.26.7.129 [datcnv_vars = 14]
# datcnv_in = C:\DATA\082819_fcr20.hex C:\DATA\SBE19plusV2_7809.xmlcon
# datcnv_skipover = 0
# datcnv_ox_hysteresis_correction = yes
# datcnv_ox_tau_correction = yes
# filter_date = Sep 18 2019 09:14:32, 7.26.7.129
# filter_in = C:\DATA\082819_fcr20.cnv
# filter_low_pass_tc_A = 0.030
# filter_low_pass_tc_B = 0.150
# filter_low_pass_A_vars = sbeox0ML/L prdM prdE tv290C
# filter_low_pass_B_vars = depFM dz/dtM sbeox0PS specc c0uS/cm flECO-AFL ph orp par/sat/log turbWETntu0
# alignctd_date = Sep 18 2019 09:15:31, 7.26.7.129
# alignctd_in = C:\DATA\082819_fcr20.cnv
# alignctd_adv = dz/dtM 1.000, sbeox0PS 1.000, specc 1.000, c0uS/cm 1.000, flECO-AFL 1.000, ph 1.000, orp 1.000, turbWETntu0 1.000                                                                                                   
# file_type = ascii
*END*
     -0.396      0.052     5.7908     97.948     36.248  35.354289     1.7705      8.307   206.2664 4.5005e+02    11.6522     -0.396     -0.574    23.6352 0.0000e+00
     -0.373      0.067     5.7880     98.119     36.263  35.380276     1.8167      8.352   207.5228 4.5086e+02    11.8712     -0.366     -0.530    23.6796 0.0000e+00
     -0.348      0.081     5.7848     98.334     36.263  35.388039     1.8322      8.376   206.5534 4.5259e+02    11.4817     -0.339     -0.492    23.7170 0.0000e+00
     -0.326      0.095     5.7884     98.563     36.193  35.321222     2.0359      8.396   204.1820 4.5680e+02     9.9578     -0.320     -0.465    23.7409 0.0000e+00
     -0.303      0.107     5.7935     98.799     36.078  35.207087     2.4325      8.420   202.9420 4.6278e+02     7.9958     -0.296     -0.430    23.7645 0.0000e+00
     -0.278      0.117     5.8017     99.135     36.027  35.150460     2.6566      8.444   203.0898 4.6749e+02     7.0949     -0.274     -0.398    23.7797 0.0000e+00
     -0.249      0.127     5.8136     99.544     36.031  35.144282     2.6831      8.461   203.7325 4.6563e+02     6.9964     -0.249     -0.361    23.7903 0.0000e+00
     -0.212      0.135     5.8288     99.914     36.030  35.132373     2.7523      8.470   204.4314 4.5677e+02     6.9684     -0.210     -0.304    23.7927 0.0000e+00
     -0.170      0.140     5.8390    100.296     36.039  35.133395     2.8952      8.475   204.6572 4.4829e+02     6.9869     -0.164     -0.238    23.7888 0.0000e+00
     -0.130      0.141     5.8596    100.683     36.067  35.156617     2.9802      8.478   204.3975 4.3907e+02     7.0224     -0.127     -0.185    23.7789 0.0000e+00
     -0.094      0.136     5.8928    101.033     36.073  35.159267     2.9909      8.478   204.2165 4.2604e+02     7.0369     -0.091     -0.131    23.7634 0.0000e+00
     -0.061      0.121     5.9103    101.347     36.083  35.165438     3.0939      8.475   204.4478 4.0655e+02     7.1958     -0.059     -0.084    23.7466 0.0000e+00
     -0.028      0.101     5.9363    101.577     36.153  35.231224     3.2889      8.470   204.7852 3.5791e+02     7.5014     -0.030     -0.043    23.7365 0.0000e+00
      0.003      0.080     5.9611    101.696     36.248  35.319995     3.3979      8.464   205.1124 2.9384e+02     7.6508      0.008      0.011    23.7322 0.0000e+00
      0.022      0.060     5.9805    101.704     36.286  35.350201     3.4072      8.457   205.4784 2.6839e+02     7.6261      0.029      0.042    23.7272 0.0000e+00
      0.026      0.040     6.0026    101.624     36.285  35.342563     3.3142      8.449   205.5974 2.7425e+02     7.3996      0.027      0.040    23.7220 0.0000e+00
      0.026      0.023     6.0159    101.384     36.303  35.354571     3.1398      8.441   205.5177 2.7191e+02     7.0093      0.024      0.036    23.7198 0.0000e+00
      0.028      0.011     6.0244    100.738     36.321  35.368451     3.0501      8.431   205.4618 2.6113e+02     6.8073      0.027      0.040    23.7152 0.0000e+00
      0.032      0.005     6.0243     99.418     36.338  35.383436     3.0449      8.423   205.4374 2.5595e+02     6.7597      0.032      0.047    23.7051 0.0000e+00
      0.034      0.004     6.0220     97.459     36.365  35.408813     3.0424      8.415   205.4809 2.5559e+02     6.6964      0.034      0.049    23.6949 0.0000e+00
      0.033      0.004     6.0137     95.172     36.378  35.421412     3.0370      8.407   205.6447 2.5316e+02     6.6648      0.032      0.046    23.6872 0.0000e+00
      0.032      0.003     5.9846     92.852     36.365  35.408824     3.0320      8.399   205.9548 2.5055e+02     6.7051      0.030      0.044    23.6822 0.0000e+00
      0.033      0.001     5.9056     90.750     36.339  35.383551     3.0330      8.391   206.3909 2.5024e+02     6.7577      0.031      0.045    23.6800 0.0000e+00
      0.036     -0.002     5.7804     89.064     36.324  35.369714     3.0323      8.383   206.7884 2.5086e+02     6.7434      0.036      0.052    23.6791 0.0000e+00
      0.038     -0.005     5.6398     87.890     36.323  35.368457     3.0152      8.375   207.0611 2.5292e+02     6.7286      0.040      0.058    23.6790 0.0000e+00
      0.036     -0.009     5.4970     87.225     36.323  35.368352     2.9905      8.368   207.3650 2.5797e+02     6.7429      0.037      0.054    23.6792 0.0000e+00
      0.031     -0.011     5.3680     86.948     36.323  35.368446     2.9766      8.361   207.7952 2.6656e+02     6.7526      0.030      0.044    23.6796 0.0000e+00
      0.024     -0.011     5.2659     86.790     36.323  35.369599     2.9689      8.355   208.2190 2.7663e+02     6.7468      0.023      0.034    23.6804 0.0000e+00
      0.018     -0.009     5.1969     86.558     36.335  35.382292     2.9757      8.349   208.4452 2.8206e+02     6.6732      0.017      0.025    23.6806 0.0000e+00
      0.016     -0.006     5.1584     86.167     36.346  35.394977     3.0069      8.341   208.5515 2.7822e+02     6.5516      0.014      0.020    23.6804 0.0000e+00
      0.018     -0.001     5.1501     85.507     36.345  35.396035     3.0339      8.334   208.7290 2.7177e+02     6.4883      0.018      0.026    23.6811 0.0000e+00
      0.021      0.003     5.1448     84.574     36.343  35.395091     3.0416      8.329   208.8705 2.7061e+02     6.4978      0.021      0.031    23.6823 0.0000e+00
      0.022      0.007     5.1303     83.485     36.329  35.383561     3.0304      8.324   208.8857 2.7170e+02     6.5353      0.021      0.031    23.6836 0.0000e+00
      0.023      0.009     5.1117     82.368     36.327  35.383570     3.0021      8.319   208.9125 2.7071e+02     6.5485      0.022      0.031    23.6855 0.0000e+00
      0.025      0.009     5.0717     81.372     36.338  35.395204     2.9766      8.314   208.8506 2.6726e+02     6.5269      0.023      0.034    23.6883 0.0000e+00
      0.028      0.010     5.0130     80.709     36.339  35.397293     2.9655      8.308   208.5682 2.6256e+02     6.5350      0.027      0.039    23.6913 0.0000e+00
      0.032      0.013     4.9458     80.614     36.350  35.408823     2.9890      8.301   208.4232 2.5868e+02     6.6471      0.031      0.045    23.6940 0.0000e+00
      0.035      0.018     4.8769     81.170     36.349  35.407679     3.0536      8.291   208.6455 2.5492e+02     6.8333      0.034      0.050    23.6965 0.0000e+00
      0.038      0.024     4.8130     82.228     36.326  35.383457     3.0962      8.280   208.9340 2.4970e+02     6.9182      0.036      0.053    23.6984 0.0000e+00
      0.043      0.032     4.7680     83.565     36.314  35.369827     3.0958      8.267   209.1576 2.4389e+02     6.9197      0.041      0.059    23.6994 0.0000e+00
      0.052      0.041     4.7594     84.991     36.314  35.369817     3.1012      8.254   209.3698 2.3738e+02     7.0159      0.049      0.071    23.7000 0.0000e+00
      0.065      0.047     4.7973     86.331     36.328  35.383333     3.1185      8.245   209.4353 2.2895e+02     7.1634      0.063      0.091    23.6996 0.0000e+00
      0.080      0.050     4.8652     87.478     36.352  35.406317     3.1226      8.239   209.4337 2.1635e+02     7.2294      0.078      0.114    23.6977 0.0000e+00
      0.098      0.047     4.9476     88.360     36.339  35.393833     3.1071      8.234   209.4362 2.0015e+02     7.2234      0.096      0.140    23.6952 0.0000e+00
      0.114      0.037     5.0371     88.896     36.304  35.359329     3.0876      8.229   209.4646 1.8652e+02     7.1890      0.114      0.164    23.6937 0.0000e+00
      0.125      0.023     5.1176     89.032     36.314  35.369941     3.1125      8.224   209.6050 1.8017e+02     7.1079      0.125      0.181    23.6936 0.0000e+00
      0.130      0.011     5.1872     88.827     36.337  35.395214     3.1824      8.219   209.7570 1.8151e+02     6.9968      0.130      0.189    23.6940 0.0000e+00
      0.125      0.002     5.2410     88.445     36.352  35.411028     3.2216      8.214   210.0128 1.8710e+02     6.9607      0.125      0.181    23.6941 0.0000e+00
      0.115     -0.003     5.2747     87.954     36.375  35.434210     3.2229      8.207   210.3740 1.9150e+02     6.9992      0.111      0.161    23.6934 0.0000e+00
      0.110     -0.003     5.2816     87.270     36.362  35.421638     3.1979      8.199   210.6827 1.9193e+02     6.9703      0.104      0.151    23.6941 0.0000e+00
      0.112     -0.001     5.2641     86.345     36.326  35.385963     3.1445      8.193   210.9063 1.8943e+02     6.8731      0.108      0.156    23.6976 0.0000e+00
      0.118      0.004     5.2394     85.263     36.324  35.383675     3.1154      8.187   211.0126 1.8696e+02     6.8080      0.116      0.169    23.7009 0.0000e+00
      0.122      0.006     5.2133     84.172     36.335  35.393965     3.1141      8.180   210.2477 1.8617e+02     6.7405      0.122      0.177    23.7023 0.0000e+00
      0.123      0.006     5.1748     83.248     36.325  35.383447     3.1202      8.173   207.5077 1.8606e+02     6.6785      0.121      0.175    23.7013 0.0000e+00
      0.123      0.004     5.1171     82.599     36.326  35.383437     3.1380      8.168   204.1264 1.8546e+02     6.6811      0.119      0.173    23.7000 0.0000e+00
      0.123      0.002     5.0508     82.206     36.337  35.393842     3.1560      8.164   203.0059 1.8581e+02     6.7065      0.121      0.176    23.6999 0.0000e+00
      0.122      0.001     4.9813     81.980     36.326  35.382311     3.1640      8.160   203.3382 1.8708e+02     6.7234      0.119      0.173    23.6995 0.0000e+00
      0.122      0.001     4.9242     81.854     36.315  35.370952     3.1471      8.155   202.6368 1.8884e+02     6.7218      0.117      0.171    23.6987 0.0000e+00
      0.123      0.002     4.8869     81.853     36.328  35.383435     3.1171      8.149   201.5814 1.9236e+02     6.7199      0.122      0.175    23.6977 0.0000e+00
      0.124      0.003     4.8657     82.004     36.352  35.406315     3.1051      8.144   201.0741 1.9638e+02     6.7329      0.123      0.177    23.6961 0.0000e+00
      0.124      0.005     4.8548     82.263     36.340  35.393718     3.1061      8.139   200.8911 1.9869e+02     6.7485      0.121      0.175    23.6943 0.0000e+00
      0.124      0.006     4.8460     82.536     36.304  35.358059     3.1202      8.134   200.8311 1.9812e+02     6.8103      0.121      0.176    23.6936 0.0000e+00
      0.127      0.007     4.8449     82.750     36.302  35.355969     3.1451      8.129   200.6927 1.9636e+02     6.8903      0.125      0.181    23.6936 0.0000e+00
      0.129      0.008     4.8552     82.907     36.314  35.368454     3.1564      8.124   200.5952 1.9523e+02     6.9284      0.127      0.184    23.6934 0.0000e+00
      0.131      0.009     4.8725     83.031     36.329  35.382074     3.1604      8.118   200.5123 1.9424e+02     6.9436      0.128      0.186    23.6928 0.0000e+00
      0.133      0.008     4.8910     83.082     36.341  35.393708     3.1675      8.112   200.4647 1.9272e+02     6.8780      0.130      0.188    23.6922 0.0000e+00
      0.137      0.007     4.9033     82.974     36.330  35.382187     3.1655      8.108   200.6213 1.9121e+02     6.7570      0.135      0.195    23.6919 0.0000e+00
      0.140      0.006     4.9112     82.625     36.318  35.369702     3.1534      8.105   200.7716 1.9096e+02     6.6931      0.138      0.200    23.6918 0.0000e+00
      0.141      0.005     4.9201     82.068     36.318  35.369700     3.1505      8.101   200.8190 1.9186e+02     6.6959      0.138      0.200    23.6914 0.0000e+00
      0.140      0.005     4.9246     81.407     36.331  35.382165     3.1563      8.099   200.9366 1.9292e+02     6.7258      0.137      0.199    23.6902 0.0000e+00
      0.140      0.006     4.9212     80.714     36.343  35.393466     3.1277      8.095   201.0742 1.9332e+02     6.7263      0.137      0.199    23.6894 0.0000e+00
      0.141      0.007     4.8995     80.056     36.329  35.379409     3.0738      8.090   201.2789 1.9338e+02     6.7017      0.138      0.200    23.6888 0.0000e+00
      0.143      0.009     4.8633     79.463     36.288  35.339136     3.0428      8.084   201.5186 1.9316e+02     6.6908      0.140      0.204    23.6883 0.0000e+00
      0.147      0.010     4.8236     78.916     36.235  35.287331     3.0299      8.078   201.6496 1.9241e+02     6.6924      0.143      0.207    23.6880 0.0000e+00
      0.152      0.009     4.7807     78.385     36.209  35.260790     3.0305      8.072   201.7445 1.9152e+02     6.6559      0.149      0.216    23.6875 0.0000e+00
      0.156      0.007     4.7409     77.807     36.222  35.272110     3.0420      8.067   201.8045 1.9095e+02     6.5774      0.154      0.223    23.6873 0.0000e+00
      0.157      0.005     4.7070     77.156     36.248  35.297257     3.0469      8.062   201.8587 1.9071e+02     6.5296      0.155      0.224    23.6870 0.0000e+00
      0.156      0.002     4.6744     76.483     36.263  35.310970     3.0384      8.059   202.0565 1.9023e+02     6.5045      0.153      0.222    23.6859 0.0000e+00
      0.154     -0.001     4.6450     75.799     36.263  35.310968     3.0251      8.057   202.3888 1.8960e+02     6.5356      0.151      0.219    23.6844 0.0000e+00
      0.154     -0.002     4.6123     75.104     36.249  35.297233     3.0246      8.056   202.6938 1.8938e+02     6.6432      0.151      0.219    23.6833 0.0000e+00
      0.154     -0.001     4.5708     74.433     36.224  35.271846     3.0331      8.053   202.9044 1.8986e+02     6.7249      0.152      0.220    23.6828 0.0000e+00
      0.153      0.001     4.5317     73.816     36.209  35.257885     3.0412      8.049   202.9559 1.9067e+02     6.7368      0.150      0.216    23.6821 0.0000e+00
      0.152      0.003     4.4916     73.271     36.207  35.255367     3.0437      8.046   202.9728 1.9125e+02     6.7543      0.149      0.216    23.6814 0.0000e+00
      0.153      0.005     4.4492     72.807     36.193  35.241405     3.0381      8.043   203.1952 1.9135e+02     6.8698      0.150      0.218    23.6808 0.0000e+00
      0.156      0.006     4.4089     72.395     36.168  35.216009     3.0431      8.039   203.4082 1.9077e+02     6.9533      0.153      0.222    23.6804 0.0000e+00
      0.159      0.006     4.3723     71.986     36.154  35.202170     3.0513      8.035   203.4828 1.8990e+02     6.9126      0.156      0.226    23.6802 0.0000e+00
      0.161      0.004     4.3394     71.549     36.153  35.201015     3.0420      8.030   203.6669 1.8894e+02     6.8689      0.158      0.230    23.6800 0.0000e+00
      0.163      0.002     4.3126     71.062     36.154  35.202045     3.0349      8.026   203.9125 1.8807e+02     6.7857      0.160      0.233    23.6797 0.0000e+00
      0.163      0.001     4.2898     70.543     36.167  35.214623     3.0437      8.023   204.0439 1.8778e+02     6.6281      0.161      0.234    23.6792 0.0000e+00
      0.161      0.001     4.2655     70.041     36.179  35.226161     3.0531      8.019   204.2231 1.8769e+02     6.5363      0.159      0.230    23.6786 0.0000e+00
      0.158      0.002     4.2410     69.616     36.168  35.214612     3.0446      8.014   204.5303 1.8714e+02     6.5278      0.154      0.224    23.6779 0.0000e+00
      0.157      0.003     4.2112     69.280     36.156  35.201920     3.0182      8.009   204.7473 1.8571e+02     6.5256      0.152      0.220    23.6779 0.0000e+00
      0.161      0.004     4.1797     68.972     36.154  35.199631     2.9943      8.004   204.8680 1.8402e+02     6.5091      0.157      0.228    23.6775 0.0000e+00
      0.166      0.004     4.1486     68.667     36.141  35.186937     2.9888      8.000   205.1288 1.8347e+02     6.4925      0.164      0.238    23.6765 0.0000e+00
      0.168      0.003     4.1223     68.354     36.130  35.175377     2.9957      7.995   205.4914 1.8425e+02     6.5215      0.166      0.241    23.6758 0.0000e+00
      0.167      0.002     4.1055     68.015     36.142  35.186802     3.0433      7.990   205.7246 1.8510e+02     6.6629      0.164      0.238    23.6751 0.0000e+00
      0.165     -0.001     4.0869     67.641     36.154  35.198132     3.1311      7.985   205.8836 1.8528e+02     6.8589      0.161      0.234    23.6747 0.0000e+00
      0.164     -0.002     4.0691     67.231     36.142  35.185439     3.1734      7.981   206.1231 1.8503e+02     6.9572      0.160      0.232    23.6740 0.0000e+00
      0.164     -0.002     4.0512     66.786     36.116  35.160261     3.1729      7.978   206.3839 1.8477e+02     6.9670      0.161      0.233    23.6733 0.0000e+00
      0.164     -0.001     4.0311     66.316     36.103  35.147577     3.1772      7.975   206.6282 1.8493e+02     6.9775      0.161      0.234    23.6727 0.0000e+00
      0.164      0.000     4.0092     65.861     36.115  35.159012     3.1732      7.972   206.7535 1.8541e+02     6.9859      0.161      0.234    23.6720 0.0000e+00
      0.163      0.001     3.9847     65.454     36.129  35.171580     3.1594      7.968   206.7790 1.8586e+02     6.9698      0.160      0.232    23.6713 0.0000e+00
      0.163      0.002     3.9587     65.097     36.130  35.172610     3.1578      7.964   206.9370 1.8618e+02     6.9798      0.159      0.231    23.6711 0.0000e+00
      0.164      0.004     3.9296     64.773     36.130  35.171456     3.1796      7.959   207.1164 1.8613e+02     7.0080      0.160      0.232    23.6710 0.0000e+00
      0.165      0.004     3.9018     64.468     36.117  35.157627     3.2062      7.955   207.2266 1.8568e+02     6.9834      0.162      0.235    23.6703 0.0000e+00
      0.168      0.004     3.8779     64.170     36.091  35.132346     3.2196      7.951   207.4098 1.8517e+02     6.9443      0.165      0.239    23.6694 0.0000e+00
      0.170      0.003     3.8572     63.870     36.078  35.119653     3.2194      7.945   207.6098 1.8492e+02     6.9621      0.167      0.242    23.6683 0.0000e+00
      0.170      0.001     3.8383     63.569     36.090  35.131088     3.2041      7.940   207.7524 1.8530e+02     7.0998      0.167      0.243    23.6673 0.0000e+00
      0.170     -0.001     3.8207     63.281     36.104  35.143666     3.1817      7.936   207.9289 1.8585e+02     7.2981      0.167      0.242    23.6665 0.0000e+00
      0.170     -0.002     3.8030     63.006     36.105  35.144810     3.1657      7.933   208.1085 1.8621e+02     7.3935      0.166      0.241    23.6658 0.0000e+00
      0.168     -0.001     3.7856     62.722     36.105  35.144914     3.1582      7.929   208.2043 1.8713e+02     7.4014      0.166      0.240    23.6652 0.0000e+00
      0.165      0.001     3.7672     62.440     36.106  35.144924     3.1602      7.926   208.3125 1.8805e+02     7.3930      0.161      0.234    23.6648 0.0000e+00
      0.164      0.005     3.7500     62.183     36.107  35.144925     3.1814      7.923   208.4698 1.8737e+02     7.3903      0.159      0.231    23.6651 0.0000e+00
      0.166      0.010     3.7347     61.969     36.108  35.144925     3.2148      7.918   208.6444 1.8589e+02     7.4013      0.163      0.236    23.6652 0.0000e+00
      0.171      0.015     3.7172     61.797     36.108  35.144925     3.2264      7.913   208.7892 1.8403e+02     7.4284      0.166      0.243    23.6643 0.0000e+00
      0.177      0.020     3.7002     61.643     36.109  35.144924     3.2172      7.909   208.8438 1.8135e+02     7.4553      0.172      0.250    23.6631 0.0000e+00
      0.183      0.023     3.6847     61.485     36.110  35.144914     3.2160      7.906   209.0467 1.7918e+02     7.5959      0.180      0.261    23.6620 0.0000e+00
      0.190      0.025     3.6718     61.321     36.110  35.144800     3.2211      7.901   209.4355 1.7724e+02     7.9155      0.187      0.270    23.6612 0.0000e+00
      0.196      0.026     3.6625     61.151     36.109  35.143552     3.2271      7.896   209.6730 1.7502e+02     8.1079      0.192      0.277    23.6604 0.0000e+00
      0.202      0.028     3.6540     60.989     36.096  35.129819     3.2359      7.890   209.8526 1.7273e+02     8.0877      0.198      0.287    23.6594 0.0000e+00
      0.210      0.030     3.6445     60.841     36.071  35.105680     3.2492      7.883   210.1441 1.7022e+02     8.0318      0.205      0.298    23.6585 0.0000e+00
      0.217      0.032     3.6349     60.685     36.071  35.105566     3.2675      7.875   210.3588 1.6742e+02     7.9560      0.213      0.309    23.6578 0.0000e+00
      0.226      0.033     3.6248     60.515     36.096  35.128445     3.2750      7.866   210.4691 1.6383e+02     7.8915      0.221      0.321    23.6572 0.0000e+00
      0.236      0.033     3.6145     60.353     36.096  35.128436     3.2780      7.858   210.6181 1.6019e+02     7.8745      0.232      0.336    23.6564 0.0000e+00
      0.245      0.032     3.6070     60.198     36.073  35.105451     3.2956      7.852   210.8700 1.5767e+02     7.8489      0.242      0.351    23.6556 0.0000e+00
      0.253      0.029     3.5977     60.029     36.072  35.104411     3.3234      7.847   211.1912 1.5549e+02     7.8113      0.249      0.361    23.6553 0.0000e+00
      0.261      0.027     3.5867     59.833     36.084  35.115846     3.3455      7.843   211.4897 1.5310e+02     7.8138      0.256      0.372    23.6548 0.0000e+00
      0.267      0.026     3.5775     59.618     36.085  35.116782     3.3545      7.839   211.8122 1.5129e+02     7.8455      0.262      0.381    23.6540 0.0000e+00
      0.272      0.026     3.5688     59.394     36.085  35.115731     3.3549      7.834   212.2510 1.4915e+02     7.8667      0.265      0.384    23.6533 0.0000e+00
      0.277      0.027     3.5594     59.170     36.072  35.103136     3.3502      7.828   212.7513 1.4623e+02     7.8739      0.271      0.393    23.6528 0.0000e+00
      0.283      0.030     3.5473     58.986     36.062  35.091430     3.3493      7.822   213.3014 1.4312e+02     7.8678      0.278      0.403    23.6524 0.0000e+00
      0.292      0.032     3.5343     58.859     36.072  35.101133     3.3533      7.816   213.8259 1.3937e+02     7.8580      0.285      0.414    23.6518 0.0000e+00
      0.302      0.032     3.5214     58.751     36.064  35.093513     3.3463      7.811   214.1885 1.3533e+02     7.8535      0.295      0.428    23.6511 0.0000e+00
      0.312      0.030     3.5070     58.638     36.032  35.062768     3.3251      7.808   214.5033 1.3128e+02     7.7490      0.305      0.443    23.6503 0.0000e+00
      0.322      0.025     3.4950     58.527     36.015  35.046732     3.3055      7.806   214.7918 1.2733e+02     7.5435      0.315      0.459    23.6495 0.0000e+00
      0.329      0.020     3.4895     58.440     35.995  35.026560     3.2907      7.803   215.0093 1.2408e+02     7.4337      0.324      0.470    23.6487 0.0000e+00
      0.331      0.016     3.4833     58.377     35.978  35.009274     3.2854      7.800   215.3269 1.2145e+02     7.4378      0.326      0.473    23.6479 0.0000e+00
      0.330      0.011     3.4764     58.309     35.998  35.028133     3.3186      7.797   215.7062 1.1840e+02     7.3303      0.322      0.468    23.6480 0.0000e+00
      0.331      0.008     3.4693     58.224     36.036  35.064168     3.3714      7.795   216.0681 1.1448e+02     7.0850      0.323      0.469    23.6488 0.0000e+00
      0.335      0.008     3.4636     58.146     36.038  35.064168     3.3959      7.792   216.5189 1.1072e+02     6.9629      0.330      0.478    23.6489 0.0000e+00
      0.338      0.011     3.4615     58.087     36.003  35.028131     3.4065      7.789   216.9411 1.0805e+02     6.9683      0.334      0.484    23.6479 0.0000e+00
      0.339      0.014     3.4574     58.026     35.985  35.009253     3.4216      7.784   217.2148 1.0605e+02     6.9532      0.333      0.483    23.6472 0.0000e+00
      0.341      0.015     3.4521     57.964     36.004  35.026317     3.4220      7.779   217.4194 1.0368e+02     6.9437      0.332      0.482    23.6463 0.0000e+00
      0.347      0.014     3.4466     57.905     36.023  35.044042     3.4028      7.775   217.6079 1.0093e+02     6.9522      0.339      0.491    23.6431 0.0000e+00
      0.356      0.013     3.4447     57.836     36.012  35.033168     3.3888      7.772   217.8592 9.8993e+01     6.9577      0.350      0.508    23.6400 0.0000e+00
      0.361      0.012     3.4407     57.766     36.001  35.021772     3.3658      7.768   218.2207 9.8413e+01     6.9775      0.356      0.516    23.6389 0.0000e+00
      0.361      0.012     3.4366     57.698     36.013  35.033184     3.3158      7.765   218.6240 9.8576e+01     6.9942      0.354      0.512    23.6377 0.0000e+00
      0.360      0.013     3.4343     57.628     36.024  35.044216     3.2783      7.761   219.0345 9.8502e+01     6.9637      0.352      0.510    23.6363 0.0000e+00
      0.360      0.018     3.4296     57.603     36.007  35.028217     3.2668      7.756   219.4849 9.8157e+01     6.9372      0.352      0.512    23.6349 0.0000e+00
      0.364      0.027     3.4256     57.724     36.008  35.030155     3.2727      7.750   219.9403 9.7671e+01     7.0663      0.356      0.515    23.6338 0.0000e+00
      0.371      0.037     3.4219     58.062     36.046  35.067644     3.2887      7.743   220.3242 9.6069e+01     7.3120      0.361      0.522    23.6335 0.0000e+00
      0.385      0.045     3.4171     58.571     36.078  35.100691     3.2958      7.737   220.6850 9.3182e+01     7.4500      0.375      0.544    23.6334 0.0000e+00
      0.403      0.050     3.4125     59.097     36.088  35.112388     3.2890      7.733   221.0332 9.0567e+01     7.4566      0.396      0.574    23.6344 0.0000e+00
      0.418      0.053     3.4180     59.537     36.056  35.082135     3.2845      7.728   221.3511 8.8877e+01     7.4254      0.411      0.597    23.6356 0.0000e+00
      0.431      0.053     3.4385     59.895     36.025  35.052253     3.3194      7.724   221.6892 8.7525e+01     7.4334      0.423      0.615    23.6373 0.0000e+00
      0.441      0.050     3.4731     60.203     36.041  35.068419     3.3817      7.719   222.0234 8.5831e+01     7.4868      0.432      0.627    23.6403 0.0000e+00
      0.453      0.046     3.5065     60.469     36.061  35.087198     3.4214      7.715   222.2954 8.3585e+01     7.4812      0.443      0.643    23.6425 0.0000e+00
      0.467      0.044     3.5316     60.684     36.063  35.088905     3.4269      7.713   222.4822 8.1705e+01     7.3985      0.459      0.664    23.6438 0.0000e+00
      0.478      0.042     3.5522     60.864     36.064  35.089050     3.3968      7.710   222.7332 8.0456e+01     7.2735      0.470      0.682    23.6451 0.0000e+00
      0.488      0.041     3.5700     61.080     36.064  35.088959     3.3513      7.705   223.0932 7.9508e+01     7.1171      0.480      0.695    23.6452 0.0000e+00
      0.497      0.040     3.5864     61.414     36.064  35.087791     3.3281      7.700   223.3941 7.8674e+01     7.0150      0.487      0.705    23.6443 0.0000e+00
      0.506      0.040     3.5990     61.918     36.052  35.074926     3.3332      7.694   223.6175 7.7559e+01     6.9892      0.494      0.718    23.6437 0.0000e+00
      0.516      0.040     3.6080     62.581     36.039  35.060355     3.3266      7.687   223.9011 7.6313e+01     7.0350      0.507      0.734    23.6433 0.0000e+00
      0.527      0.039     3.6188     63.298     36.018  35.038535     3.2915      7.682   224.3278 7.5020e+01     7.1423      0.517      0.748    23.6424 0.0000e+00
      0.538      0.037     3.6381     63.961     35.980  35.001509     3.2727      7.679   224.8195 7.3515e+01     7.2057      0.526      0.763    23.6409 0.0000e+00
      0.550      0.032     3.6673     64.499     35.971  34.993475     3.2813      7.675   225.1995 7.2123e+01     7.2110      0.540      0.783    23.6392 0.0000e+00
      0.559      0.027     3.7103     64.855     35.981  35.004865     3.2824      7.671   225.3095 7.1185e+01     7.0431      0.550      0.797    23.6369 0.0000e+00
      0.564      0.023     3.7548     65.000     35.988  35.012297     3.2776      7.667   225.3750 7.0673e+01     6.7159      0.553      0.803    23.6352 0.0000e+00
      0.566      0.022     3.7954     64.954     35.996  35.019872     3.2752      7.664   225.6475 7.0249e+01     6.5309      0.555      0.805    23.6351 0.0000e+00
      0.569      0.023     3.8288     64.799     36.010  35.032985     3.2707      7.661   226.0230 6.9666e+01     6.5109      0.557      0.808    23.6358 0.0000e+00
      0.573      0.026     3.8501     64.625     36.022  35.043903     3.2924      7.658   226.3875 6.8966e+01     6.6053      0.560      0.813    23.6372 0.0000e+00
      0.580      0.030     3.8588     64.490     36.002  35.024944     3.3299      7.655   226.6132 6.7884e+01     6.7879      0.566      0.821    23.6386 0.0000e+00
      0.591      0.034     3.8536     64.385     35.970  34.994152     3.3420      7.653   226.7727 6.6458e+01     6.9163      0.579      0.840    23.6395 0.0000e+00
      0.604      0.036     3.8427     64.284     35.965  34.988939     3.3355      7.652   226.9391 6.5346e+01     6.9775      0.593      0.861    23.6389 0.0000e+00
      0.614      0.036     3.8307     64.182     36.002  35.025388     3.3374      7.651   227.0768 6.4493e+01     6.9704      0.602      0.873    23.6378 0.0000e+00
      0.621      0.036     3.8234     64.080     36.032  35.054043     3.3569      7.648   227.3193 6.3588e+01     6.8638      0.609      0.884    23.6375 0.0000e+00
      0.628      0.037     3.8181     63.994     36.061  35.081537     3.3814      7.642   227.6333 6.2683e+01     6.7363      0.616      0.894    23.6376 0.0000e+00
      0.636      0.040     3.8116     64.098     36.154  35.167406     3.3994      7.637   227.8627 6.1583e+01     6.7068      0.623      0.903    23.6377 0.0000e+00
      0.646      0.043     3.8062     65.219     36.269  35.267197     3.4085      7.632   228.0284 6.0155e+01     6.7699      0.632      0.917    23.6378 0.0000e+00
      0.658      0.045     3.7993     68.710     36.359  35.336058     3.3964      7.628   228.2596 5.8464e+01     6.8778      0.645      0.935    23.6378 0.0000e+00
      0.673      0.046     3.7942     74.930     36.406  35.365296     3.3658      7.626   228.5061 5.6814e+01     7.0271      0.660      0.958    23.6369 0.0000e+00
      0.688      0.048     3.7862     82.584     36.419  35.366811     3.3507      7.622   228.6864 5.5570e+01     7.1332      0.675      0.980    23.6356 0.0000e+00
      0.698      0.049     3.8139     90.045     36.413  35.354362     3.3523      7.618   228.8905 5.4608e+01     7.1778      0.685      0.994    23.6198 0.0000e+00
      0.708      0.049     4.0094     96.380     36.406  35.341700     3.3509      7.614   229.1671 5.3583e+01     7.2058      0.693      1.005    23.5860 0.0000e+00
      0.719      0.048     4.4209    101.262     36.409  35.340644     3.3511      7.611   229.5361 5.2369e+01     7.2089      0.704      1.021    23.5603 0.0000e+00
      0.733      0.047     4.9139    104.474     36.412  35.341590     3.3548      7.608   229.9100 5.1096e+01     7.2156      0.719      1.043    23.5484 0.0000e+00
      0.747      0.046     5.3754    105.748     36.425  35.353130     3.3519      7.604   230.1609 4.9941e+01     7.1883      0.735      1.064    23.5405 0.0000e+00
      0.760      0.045     5.7569    105.227     36.426  35.353243     3.3768      7.601   230.4187 4.8941e+01     7.0423      0.746      1.082    23.5332 0.0000e+00
      0.771      0.042     6.0490    103.566     36.416  35.342952     3.4391      7.599   230.7038 4.8071e+01     6.8608      0.756      1.097    23.5264 0.0000e+00
      0.780      0.038     6.2520    101.565     36.431  35.355636     3.4729      7.597   230.8550 4.7301e+01     6.7624      0.766      1.111    23.5230 0.0000e+00
      0.789      0.034     6.3238     99.758     36.457  35.379670     3.4636      7.595   230.9558 4.6518e+01     6.7376      0.774      1.122    23.5221 0.0000e+00
      0.797      0.032     6.2775     98.280     36.458  35.379662     3.4227      7.593   231.0618 4.5663e+01     6.7253      0.781      1.133    23.5222 0.0000e+00
      0.805      0.031     6.1603     97.099     36.433  35.355532     3.3690      7.591   231.1908 4.4874e+01     6.7114      0.790      1.145    23.5216 0.0000e+00
      0.812      0.029     6.0289     96.170     36.419  35.341801     3.3511      7.589   231.4837 4.4181e+01     6.7341      0.797      1.155    23.5188 0.0000e+00
      0.820      0.026     5.9222     95.465     36.418  35.340571     3.3544      7.586   231.7634 4.3516e+01     6.7376      0.804      1.166    23.5164 0.0000e+00
      0.828      0.022     5.8347     94.905     36.418  35.340667     3.3476      7.585   231.9061 4.2945e+01     6.7206      0.812      1.178    23.5161 0.0000e+00
      0.834      0.019     5.7661     94.371     36.421  35.342954     3.3555      7.585   232.0898 4.2572e+01     6.7585      0.818      1.187    23.5161 0.0000e+00
      0.837      0.017     5.7108     93.861     36.448  35.368227     3.3805      7.584   232.2634 4.2379e+01     6.8016      0.821      1.191    23.5156 0.0000e+00
      0.839      0.015     5.6701     93.414     36.473  35.392365     3.3979      7.584   232.3712 4.2209e+01     6.8165      0.822      1.193    23.5154 0.0000e+00
      0.842      0.014     5.6415     93.037     36.461  35.380929     3.4108      7.583   232.5317 4.1948e+01     6.8080      0.824      1.196    23.5153 0.0000e+00
      0.845      0.015     5.6081     92.736     36.435  35.356897     3.4322      7.581   232.7425 4.1623e+01     6.8288      0.828      1.202    23.5144 0.0000e+00
      0.849      0.018     5.5772     92.511     36.434  35.355657     3.4573      7.579   232.9408 4.1266e+01     6.9045      0.832      1.208    23.5129 0.0000e+00
      0.854      0.023     5.5511     92.380     36.447  35.365941     3.4708      7.577   233.1223 4.0847e+01     6.9369      0.837      1.214    23.5124 0.0000e+00
      0.860      0.027     5.5278     92.316     36.437  35.354297     3.4745      7.576   233.3022 4.0277e+01     6.9587      0.842      1.221    23.5132 0.0000e+00
      0.867      0.029     5.5108     92.243     36.427  35.341802     3.4590      7.575   233.5673 3.9522e+01     7.0364      0.849      1.231    23.5143 0.0000e+00
      0.876      0.031     5.4959     92.093     36.427  35.341811     3.4220      7.574   233.8326 3.8719e+01     7.1227      0.859      1.246    23.5146 0.0000e+00
      0.886      0.031     5.4893     91.858     36.440  35.354399     3.4002      7.571   234.0144 3.7984e+01     7.1825      0.870      1.260    23.5122 0.0000e+00
      0.895      0.030     5.4877     91.609     36.452  35.367073     3.4033      7.569   234.2171 3.7374e+01     7.2022      0.879      1.273    23.5075 0.0000e+00
      0.902      0.028     5.4855     91.406     36.453  35.368112     3.4074      7.567   234.3903 3.6857e+01     7.1977      0.885      1.283    23.5043 0.0000e+00
      0.908      0.028     5.4770     91.275     36.453  35.366959     3.4059      7.564   234.5604 3.6431e+01     7.1937      0.892      1.293    23.5043 0.0000e+00
      0.913      0.029     5.4603     91.219     36.439  35.353130     3.4032      7.562   234.8105 3.6084e+01     7.1859      0.896      1.300    23.5057 0.0000e+00
      0.918      0.031     5.4446     91.200     36.415  35.327849     3.4097      7.559   235.0915 3.5623e+01     7.2024      0.899      1.304    23.5062 0.0000e+00
      0.926      0.034     5.4321     91.180     36.404  35.315156     3.4753      7.556   235.3760 3.4980e+01     7.2945      0.907      1.315    23.5055 0.0000e+00
      0.937      0.037     5.4240     91.171     36.417  35.326592     3.5889      7.553   235.5839 3.4298e+01     7.4149      0.918      1.332    23.5049 0.0000e+00
      0.948      0.039     5.4217     91.183     36.432  35.339173     3.6481      7.551   235.7123 3.3656e+01     7.4457      0.929      1.348    23.5043 0.0000e+00
      0.960      0.039     5.4223     91.187     36.434  35.340334     3.6454      7.548   235.8955 3.3046e+01     7.4037      0.942      1.366    23.5022 0.0000e+00
      0.971      0.038     5.4205     91.162     36.434  35.340638     3.6338      7.546   236.0784 3.2529e+01     7.3994      0.953      1.382    23.4994 0.0000e+00
      0.980      0.037     5.4197     91.103     36.437  35.342842     3.5608      7.544   236.2033 3.2081e+01     7.3613      0.961      1.394    23.4966 0.0000e+00
      0.988      0.036     5.4219     91.031     36.463  35.366982     3.4289      7.543   236.3729 3.1595e+01     7.2378      0.968      1.404    23.4946 0.0000e+00
      0.996      0.036     5.4223     90.984     36.475  35.378636     3.3574      7.542   236.5806 3.1056e+01     7.1515      0.976      1.415    23.4936 0.0000e+00
      1.004      0.037     5.4213     90.946     36.453  35.356815     3.3468      7.540   236.7355 3.0510e+01     7.1376      0.984      1.427    23.4928 0.0000e+00
      1.013      0.039     5.4176     90.843     36.453  35.357025     3.3182      7.537   236.8685 2.9974e+01     7.1675      0.994      1.441    23.4923 0.0000e+00
      1.023      0.041     5.4118     90.643     36.478  35.381171     3.2622      7.535   237.0705 2.9378e+01     7.2184      1.003      1.455    23.4918 0.0000e+00
      1.035      0.041     5.4094     90.392     36.493  35.394896     3.2255      7.534   237.2852 2.8753e+01     7.2280      1.015      1.473    23.4912 0.0000e+00
      1.047      0.041     5.4094     90.126     36.494  35.396031     3.2202      7.532   237.4856 2.8208e+01     7.1859      1.028      1.491    23.4908 0.0000e+00
      1.058      0.040     5.4043     89.871     36.494  35.394887     3.2499      7.531   237.6867 2.7749e+01     7.2327      1.038      1.506    23.4905 0.0000e+00
      1.068      0.038     5.3904     89.644     36.480  35.381059     3.3074      7.530   237.9104 2.7344e+01     7.3679      1.049      1.521    23.4900 0.0000e+00
      1.077      0.035     5.3755     89.462     36.454  35.355778     3.3352      7.528   238.2111 2.6971e+01     7.4115      1.056      1.532    23.4895 0.0000e+00
      1.085      0.033     5.3589     89.412     36.441  35.343084     3.3350      7.527   238.4823 2.6600e+01     7.3671      1.063      1.543    23.4890 0.0000e+00
      1.094      0.032     5.3432     89.565     36.453  35.354518     3.3219      7.525   238.6085 2.6247e+01     7.2898      1.073      1.557    23.4887 0.0000e+00
      1.102      0.032     5.3306     89.879     36.467  35.367087     3.2975      7.525   238.7052 2.5952e+01     7.1979      1.081      1.568    23.4883 0.0000e+00
      1.108      0.033     5.3168     90.259     36.468  35.368127     3.2913      7.524   238.9630 2.5638e+01     7.1405      1.087      1.576    23.4880 0.0000e+00
      1.116      0.035     5.3121     90.677     36.467  35.367088     3.2996      7.523   239.2295 2.5268e+01     7.1539      1.095      1.588    23.4876 0.0000e+00
      1.125      0.036     5.3221     91.122     36.454  35.354518     3.3030      7.520   239.3472 2.4948e+01     7.2614      1.104      1.601    23.4874 0.0000e+00
      1.135      0.039     5.3442     91.500     36.442  35.343083     3.2980      7.517   239.4402 2.4577e+01     7.3917      1.112      1.612    23.4871 0.0000e+00
      1.146      0.041     5.3665     91.702     36.456  35.355767     3.2903      7.515   239.5791 2.4115e+01     7.4507      1.124      1.630    23.4869 0.0000e+00
      1.158      0.043     5.3909     91.726     36.483  35.380946     3.2874      7.514   239.8223 2.3699e+01     7.4510      1.137      1.647    23.4869 0.0000e+00
      1.169      0.043     5.4199     91.677     36.498  35.393641     3.2896      7.512   240.1433 2.3263e+01     7.3948      1.146      1.662    23.4868 0.0000e+00
      1.180      0.041     5.4453     91.638     36.487  35.382319     3.3161      7.510   240.3631 2.2803e+01     7.2293      1.158      1.679    23.4865 0.0000e+00
      1.192      0.038     5.4579     91.586     36.476  35.370987     3.3656      7.508   240.5002 2.2393e+01     7.0238      1.169      1.695    23.4854 0.0000e+00
      1.202      0.034     5.4559     91.432     36.489  35.383567     3.4027      7.506   240.6823 2.2053e+01     6.9420      1.179      1.711    23.4841 0.0000e+00
      1.210      0.030     5.4515     91.174     36.514  35.407477     3.4259      7.505   240.8442 2.1814e+01     6.9611      1.188      1.723    23.4823 0.0000e+00
      1.216      0.028     5.4494     90.901     36.514  35.406210     3.4563      7.504   241.0810 2.1632e+01     6.8948      1.193      1.729    23.4804 0.0000e+00
      1.221      0.027     5.4501     90.695     36.475  35.368244     3.4933      7.502   241.3948 2.1441e+01     6.7626      1.198      1.737    23.4794 0.0000e+00
      1.226      0.029     5.4405     90.593     36.436  35.329247     3.5178      7.501   241.5411 2.1263e+01     6.7390      1.201      1.744    23.4788 0.0000e+00
      1.233      0.034     5.4226     90.567     36.423  35.315513     3.5260      7.500   241.6456 2.1100e+01     6.8055      1.208      1.752    23.4785 0.0000e+00
      1.242      0.039     5.4050     90.595     36.438  35.329123     3.4714      7.498   241.8839 2.0855e+01     6.9777      1.217      1.763    23.4783 0.0000e+00
      1.253      0.045     5.3915     90.749     36.477  35.366861     3.3607      7.493   242.0993 2.0537e+01     7.2468      1.228      1.781    23.4772 0.0000e+00
      1.266      0.051     5.3867     91.086     36.502  35.390988     3.2972      7.489   242.1847 2.0215e+01     7.4047      1.243      1.801    23.4758 0.0000e+00
      1.280      0.056     5.3865     91.505     36.477  35.366964     3.2846      7.485   242.3140 1.9866e+01     7.4457      1.254      1.819    23.4743 0.0000e+00
      1.295      0.059     5.3864     91.902     36.440  35.330266     3.2597      7.483   242.5440 1.9470e+01     7.4806      1.269      1.841    23.4730 0.0000e+00
      1.311      0.061     5.3925     92.249     36.438  35.328081     3.2048      7.481   242.8153 1.9041e+01     7.4986      1.287      1.866    23.4728 0.0000e+00
      1.328      0.062     5.4166     92.492     36.450  35.340548     3.1670      7.478   243.0985 1.8606e+01     7.4667      1.302      1.888    23.4729 0.0000e+00
      1.344      0.062     5.4441     92.600     36.465  35.354073     3.1667      7.474   243.3019 1.8185e+01     7.4226      1.318      1.912    23.4728 0.0000e+00
      1.359      0.060     5.4667     92.599     36.476  35.364666     3.1838      7.472   243.4671 1.7745e+01     7.4245      1.332      1.934    23.4726 0.0000e+00
      1.375      0.056     5.4895     92.497     36.453  35.341690     3.2095      7.471   243.6330 1.7280e+01     7.4232      1.348      1.955    23.4719 0.0000e+00
      1.391      0.053     5.5051     92.351     36.441  35.330143     3.2258      7.469   243.8452 1.6902e+01     7.3748      1.367      1.982    23.4716 0.0000e+00
      1.404      0.049     5.5098     92.271     36.463  35.351983     3.2329      7.469   244.1405 1.6626e+01     7.3313      1.379      2.000    23.4711 0.0000e+00
      1.414      0.046     5.5105     92.272     36.463  35.351888     3.2344      7.468   244.3638 1.6344e+01     7.1910      1.386      2.011    23.4704 0.0000e+00
      1.424      0.042     5.5038     92.322     36.440  35.328989     3.2181      7.466   244.4799 1.6059e+01     6.9244      1.396      2.025    23.4701 0.0000e+00
      1.435      0.038     5.4911     92.410     36.440  35.328990     3.1836      7.465   244.5978 1.5824e+01     6.7619      1.407      2.041    23.4700 0.0000e+00
      1.445      0.037     5.4867     92.503     36.465  35.351900     3.1643      7.464   244.7571 1.5624e+01     6.7347      1.418      2.056    23.4702 0.0000e+00
      1.455      0.038     5.4884     92.555     36.466  35.352110     3.1664      7.461   244.9432 1.5468e+01     6.7267      1.428      2.071    23.4701 0.0000e+00
      1.463      0.040     5.4906     92.546     36.446  35.331529     3.1669      7.459   245.1274 1.5349e+01     6.7628      1.436      2.082    23.4699 0.0000e+00
      1.469      0.043     5.4969     92.461     36.472  35.356934     3.1689      7.458   245.3496 1.5208e+01     6.8765      1.440      2.089    23.4695 0.0000e+00
      1.479      0.047     5.5041     92.321     36.524  35.405413     3.1740      7.456   245.5648 1.5004e+01     6.9540      1.449      2.102    23.4677 0.0000e+00
      1.494      0.052     5.5069     92.163     36.532  35.409927     3.1768      7.454   245.6648 1.4723e+01     6.9463      1.464      2.123    23.4659 0.0000e+00
      1.510      0.055     5.5074     91.955     36.537  35.411512     3.2020      7.452   245.7833 1.4420e+01     6.9475      1.481      2.148    23.4657 0.0000e+00
      1.527      0.055     5.5018     91.615     36.553  35.424564     3.2534      7.451   245.9649 1.4120e+01     6.9688      1.498      2.173    23.4664 0.0000e+00
      1.543      0.052     5.4918     91.060     36.572  35.440800     3.2864      7.450   246.0541 1.3811e+01     6.9737      1.514      2.196    23.4649 0.0000e+00
      1.557      0.047     5.4843     90.289     36.614  35.480875     3.2891      7.448   246.1744 1.3551e+01     6.9742      1.527      2.215    23.4595 0.0000e+00
      1.568      0.044     5.4742     89.445     36.664  35.528304     3.2166      7.447   246.3865 1.3349e+01     6.9746      1.538      2.231    23.4546 0.0000e+00
      1.575      0.043     5.4562     88.646     36.710  35.569965     3.0769      7.445   246.6393 1.3172e+01     6.9786      1.546      2.242    23.4503 0.0000e+00
      1.581      0.043     5.4249     87.888     36.750  35.603768     2.9962      7.443   246.9083 1.2979e+01     6.9896      1.549      2.247    23.4473 0.0000e+00
      1.592      0.044     5.3742     87.122     36.770  35.619659     2.9865      7.442   247.0573 1.2698e+01     6.9767      1.558      2.259    23.4475 0.0000e+00
      1.608      0.045     5.3207     86.249     36.788  35.635164     3.0111      7.440   247.2371 1.2382e+01     6.9538      1.577      2.287    23.4473 0.0000e+00
      1.623      0.046     5.2754     85.164     36.818  35.664303     3.0602      7.439   247.5336 1.2153e+01     6.9415      1.593      2.311    23.4421 0.0000e+00
      1.634      0.046     5.2314     83.954     36.809  35.654626     3.0866      7.438   247.8028 1.1981e+01     6.9268      1.602      2.325    23.4331 0.0000e+00
      1.644      0.045     5.1884     82.825     36.737  35.581628     3.0964      7.436   248.0825 1.1816e+01     6.9403      1.612      2.339    23.4276 0.0000e+00
      1.654      0.045     5.1403     81.822     36.702  35.543313     3.1170      7.434   248.4203 1.1689e+01     6.9735      1.622      2.354    23.4271 0.0000e+00
      1.664      0.046     5.0740     80.906     36.735  35.572174     3.1798      7.432   248.7035 1.1539e+01     6.9676      1.631      2.365    23.4282 0.0000e+00
      1.675      0.047     4.9946     80.251     36.780  35.613229     3.2843      7.430   248.8398 1.1319e+01     6.9346      1.642      2.381    23.4271 0.0000e+00
      1.689      0.049     4.9278     80.151     36.829  35.658887     3.3484      7.429   248.9503 1.1106e+01     6.9347      1.657      2.403    23.4230 0.0000e+00
      1.703      0.050     4.8721     80.653     36.854  35.679938     3.3564      7.428   249.0926 1.0924e+01     6.9697      1.670      2.423    23.4158 0.0000e+00
      1.716      0.050     4.8138     81.477     36.856  35.677342     3.3203      7.427   249.1831 1.0737e+01     6.9316      1.683      2.441    23.4093 0.0000e+00
      1.729      0.048     4.7662     82.315     36.874  35.690953     3.2593      7.426   249.2714 1.0546e+01     6.8011      1.695      2.458    23.4087 0.0000e+00
      1.742      0.045     4.7582     82.977     36.905  35.717568     3.2421      7.424   249.3857 1.0382e+01     6.7365      1.708      2.477    23.4087 0.0000e+00
      1.753      0.043     4.7979     83.412     36.938  35.745262     3.2515      7.423   249.5332 1.0247e+01     6.7401      1.720      2.495    23.4022 0.0000e+00
      1.763      0.042     4.8537     83.651     36.970  35.771908     3.1996      7.422   249.7630 1.0115e+01     6.6477      1.729      2.507    23.3942 0.0000e+00
      1.772      0.042     4.9082     83.685     36.989  35.785862     3.1000      7.421   250.0133 9.9879e+00     6.4714      1.737      2.519    23.3899 0.0000e+00
      1.781      0.044     4.9492     83.513     36.994  35.787027     3.0532      7.419   250.3226 9.8308e+00     6.3455      1.744      2.530    23.3865 0.0000e+00
      1.791      0.049     4.9733     83.173     36.998  35.785990     3.0584      7.417   250.6635 9.6428e+00     6.3052      1.756      2.547    23.3801 0.0000e+00
      1.804      0.055     4.9896     82.703     36.992  35.773320     3.0413      7.415   250.8655 9.4814e+00     6.4097      1.769      2.567    23.3736 0.0000e+00
      1.818      0.060     4.9919     82.121     36.989  35.760762     3.0028      7.412   251.0443 9.2914e+00     6.6268      1.781      2.583    23.3689 0.0000e+00
      1.836      0.065     4.9812     81.433     37.000  35.761080     2.9828      7.410   251.2759 9.0329e+00     6.7342      1.799      2.610    23.3630 0.0000e+00
      1.856      0.068     4.9606     80.693     37.025  35.777145     2.9818      7.409   251.4294 8.7844e+00     6.7250      1.821      2.641    23.3576 0.0000e+00
      1.875      0.068     4.9328     79.972     37.083  35.828053     2.9995      7.406   251.5239 8.5729e+00     6.7440      1.840      2.668    23.3496 0.0000e+00
      1.892      0.068     4.9000     79.288     37.132  35.868836     3.0323      7.402   251.6438 8.3779e+00     6.7690      1.856      2.692    23.3349 0.0000e+00
      1.908      0.064     4.8593     78.665     37.160  35.889419     3.0480      7.399   251.7608 8.1807e+00     6.7647      1.871      2.713    23.3185 0.0000e+00
      1.925      0.058     4.8134     78.107     37.226  35.949973     3.0420      7.397   251.8204 7.9868e+00     6.7573      1.887      2.736    23.3090 0.0000e+00
      1.941      0.053     4.7715     77.458     37.311  36.029748     3.0381      7.396   251.9348 7.8449e+00     6.7443      1.906      2.764    23.3035 0.0000e+00
      1.954      0.050     4.7314     76.607     37.381  36.092325     3.0536      7.395   252.1971 7.7579e+00     6.7389      1.919      2.783    23.2937 0.0000e+00
      1.963      0.049     4.6926     75.642     37.436  36.135337     3.0817      7.395   252.4956 7.6749e+00     6.7576      1.925      2.792    23.2832 0.0000e+00
      1.972      0.052     4.6653     74.653     37.486  36.168967     3.1007      7.393   252.7054 7.5654e+00     6.7736      1.933      2.804    23.2795 0.0000e+00
      1.983      0.057     4.6300     73.630     37.588  36.245030     3.1010      7.390   252.8400 7.4307e+00     6.7365      1.943      2.819    23.2801 0.0000e+00
      1.997      0.062     4.5760     72.617     37.736  36.356797     3.0332      7.388   253.0052 7.2520e+00     6.6360      1.956      2.837    23.2727 0.0000e+00
      2.016      0.067     4.5170     71.777     37.861  36.441268     2.9127      7.386   253.2401 7.0155e+00     6.5419      1.975      2.864    23.2592 0.0000e+00
      2.039      0.067     4.4609     71.232     37.964  36.504654     2.8579      7.384   253.4435 6.7819e+00     6.5161      2.000      2.900    23.2417 0.0000e+00
      2.061      0.064     4.4022     71.076     38.042  36.551894     2.8565      7.381   253.5717 6.6138e+00     6.4876      2.024      2.935    23.2126 0.0000e+00
      2.077      0.057     4.3396     71.478     38.082  36.568094     2.8008      7.381   253.7573 6.5137e+00     6.3614      2.040      2.959    23.1712 0.0000e+00
      2.088      0.048     4.2918     72.566     38.103  36.573550     2.6877      7.381   254.0524 6.4537e+00     6.2354      2.048      2.971    23.1181 0.0000e+00
      2.097      0.043     4.2620     74.241     38.158  36.617842     2.6160      7.380   254.4727 6.4019e+00     6.2430      2.057      2.982    23.0686 0.0000e+00
      2.104      0.041     4.2517     76.236     38.276  36.722775     2.6182      7.377   254.8810 6.3404e+00     6.2888      2.064      2.993    23.0323 0.0000e+00
      2.111      0.043     4.2734     78.231     38.402  36.826706     2.6283      7.374   255.1176 6.2674e+00     6.2980      2.071      3.003    23.0050 0.0000e+00
      2.121      0.048     4.3435     79.921     38.462  36.858879     2.6171      7.372   255.2691 6.1607e+00     6.3215      2.078      3.015    22.9838 0.0000e+00
      2.136      0.052     4.4515     81.201     38.481  36.857844     2.6116      7.371   255.3358 6.0136e+00     6.3435      2.093      3.036    22.9739 0.0000e+00
      2.154      0.053     4.5769     82.093     38.509  36.877629     2.6051      7.370   255.4071 5.8826e+00     6.3342      2.113      3.066    22.9717 0.0000e+00
      2.171      0.053     4.7079     82.593     38.544  36.907665     2.5391      7.368   255.5289 5.7817e+00     6.3073      2.130      3.090    22.9494 0.0000e+00
      2.185      0.052     4.8142     82.738     38.617  36.967116     2.4294      7.368   255.6040 5.6946e+00     6.3133      2.144      3.110    22.9059 0.0000e+00
      2.196      0.049     4.8919     82.604     38.694  37.025163     2.3713      7.367   255.7131 5.6364e+00     6.3413      2.155      3.125    22.8766 0.0000e+00
      2.206      0.046     4.9474     82.259     38.724  37.038223     2.3648      7.366   255.9022 5.5839e+00     6.3180      2.162      3.135    22.8751 0.0000e+00
      2.216      0.046     4.9760     81.741     38.699  36.998050     2.3165      7.362   256.0829 5.5136e+00     6.2286      2.172      3.150    22.8764 0.0000e+00
      2.228      0.050     4.9843     81.058     38.641  36.920252     2.2128      7.358   256.1772 5.4441e+00     6.1121      2.185      3.169    22.8608 0.0000e+00
      2.240      0.056     4.9772     80.148     38.550  36.795754     2.1421      7.355   256.2687 5.3641e+00     6.0237      2.197      3.185    22.8372 0.0000e+00
      2.253      0.061     4.9574     78.825     38.438  36.635226     2.1288      7.353   256.5011 5.2387e+00     6.0121      2.207      3.201    22.8162 0.0000e+00
      2.271      0.064     4.9279     76.909     38.432  36.566066     2.1298      7.351   256.8355 5.0857e+00     6.0370      2.225      3.228    22.7994 0.0000e+00
      2.292      0.065     4.8890     74.441     38.527  36.594191     2.1027      7.349   257.1275 4.9485e+00     6.0299      2.248      3.261    22.7757 0.0000e+00
      2.312      0.065     4.8439     71.849     38.652  36.657824     2.0443      7.348   257.3658 4.8399e+00     6.0253      2.269      3.290    22.7275 0.0000e+00
      2.327      0.064     4.7753     69.685     38.817  36.764124     2.0133      7.348   257.5654 4.7344e+00     6.0137      2.284      3.312    22.6533 0.0000e+00
      2.341      0.062     4.6680     68.157     39.035  36.927287     2.0141      7.347   257.7343 4.6217e+00     6.0206      2.295      3.328    22.5654 0.0000e+00
      2.354      0.059     4.5160     67.248     39.265  37.107186     2.0276      7.344   257.8596 4.5274e+00     6.1746      2.308      3.347    22.4844 0.0000e+00
      2.368      0.057     4.3479     66.905     39.493  37.288883     2.0541      7.342   257.8751 4.4394e+00     6.4003      2.322      3.367    22.4118 0.0000e+00
      2.385      0.056     4.2205     66.959     39.853  37.600743     2.0670      7.342   257.9223 4.3514e+00     6.5213      2.339      3.392    22.3471 0.0000e+00
      2.401      0.054     4.1335     67.176     40.257  37.957923     2.0701      7.341   258.0855 4.2778e+00     6.5568      2.356      3.416    22.2927 0.0000e+00
      2.415      0.052     4.0813     67.242     40.513  38.179776     2.1099      7.338   258.2997 4.2040e+00     6.5015      2.370      3.436    22.2447 0.0000e+00
      2.427      0.051     4.0685     66.687     41.144  38.759678     2.1745      7.336   258.5337 4.1410e+00     6.3440      2.381      3.453    22.2017 0.0000e+00
      2.438      0.054     4.0795     65.011     42.564  40.081448     2.2013      7.334   258.7642 4.0966e+00     6.2589      2.392      3.469    22.1662 0.0000e+00
      2.448      0.061     4.1001     61.966     44.537  41.909106     2.1906      7.330   259.0208 4.0391e+00     6.2918      2.401      3.482    22.1402 0.0000e+00
      2.461      0.070     4.1175     57.758     46.784  43.970125     2.1409      7.325   259.3136 3.9414e+00     6.4458      2.409      3.494    22.1126 0.0000e+00
      2.481      0.076     4.0965     52.491     48.639  45.635633     2.0603      7.320   259.6371 3.8158e+00     6.6789      2.431      3.525    22.0962 0.0000e+00
      2.507      0.078     4.0027     45.694     49.575  46.426191     2.0134      7.316   259.9201 3.6947e+00     6.7504      2.459      3.566    22.0849 0.0000e+00
      2.533      0.076     3.8120     37.067     49.709  46.479925     1.9986      7.314   259.9831 3.5912e+00     6.6887      2.486      3.606    22.0546 0.0000e+00
      2.556      0.070     3.5482     26.959     49.607  46.348738     1.9768      7.312   259.8818 3.5172e+00     6.6203      2.510      3.639    21.9998 0.0000e+00
      2.572      0.061     3.2522     16.469     50.105  46.808583     1.9489      7.309   259.9002 3.4657e+00     6.5468      2.525      3.661    21.9129 0.0000e+00
      2.582      0.053     2.8473      7.086     51.433  48.039007     1.9388      7.305   260.0340 3.4220e+00     6.5209      2.533      3.674    21.8132 0.0000e+00
      2.590      0.048     2.3141     -0.308     52.952  49.413277     1.9500      7.300   260.2950 3.3919e+00     6.5034      2.539      3.683    21.7325 0.0000e+00
      2.600      0.047     1.6722     -5.485     54.159  50.468563     1.9636      7.292   260.9049 3.3592e+00     6.4669      2.549      3.697    21.6972 0.0000e+00
      2.612      0.052     0.9828     -8.400     55.237  51.398176     2.0077      7.282   261.4714 3.2994e+00     6.4067      2.560      3.713    21.7069 0.0000e+00
      2.626      0.059     0.3907     -9.176     56.379  52.395690     2.0843      7.272   261.3804 3.2238e+00     6.3331      2.574      3.734    21.7115 0.0000e+00
      2.641      0.065    -0.0667     -8.318     57.784  53.636393     2.1183      7.260   260.8369 3.1491e+00     6.2982      2.590      3.756    21.6645 0.0000e+00
      2.659      0.068    -0.3862     -6.542     59.367  55.028273     2.1240      7.247   260.0616 3.0645e+00     6.2793      2.605      3.778    21.5864 0.0000e+00
      2.680      0.068    -0.5676     -4.510     60.457  55.947207     2.1617      7.233   258.8031 2.9694e+00     6.3342      2.628      3.812    21.5158 0.0000e+00
      2.701      0.066    -0.6031     -2.711     60.788  56.170355     2.2098      7.220   256.8054 2.8894e+00     6.5023      2.651      3.845    21.4610 0.0000e+00
      2.718      0.063    -0.5333     -1.305     60.873  56.201407     2.2383      7.207   253.7180 2.8339e+00     6.6405      2.668      3.868    21.4119 0.0000e+00
      2.731      0.060    -0.4110     -0.265     61.578  56.830851     2.3400      7.193   249.6086 2.7804e+00     6.7273      2.679      3.885    21.3480 0.0000e+00
      2.743      0.056    -0.2719      0.460     62.884  57.999016     3.3621      7.179   245.9229 2.7264e+00     7.0603      2.689      3.899    21.2638 0.0000e+00
      2.756      0.055    -0.1596      0.957     63.929  58.888620     5.2157      7.166   243.9148 2.6756e+00     7.5865      2.702      3.918    21.1823 0.0000e+00
      2.771      0.057    -0.0733      1.345     64.919  59.707862     6.2328      7.153   241.5036 2.6255e+00     7.8460      2.717      3.941    21.1467 0.0000e+00
      2.786      0.061    -0.0095      1.667     66.617  61.168437     6.4001      7.139   236.7302 2.5778e+00     7.9695      2.731      3.961    21.1477 0.0000e+00
      2.801      0.065     0.0340      1.901     68.698  62.948689     7.2212      7.123   231.3708 2.5198e+00     9.0136      2.746      3.983    21.1251 0.0000e+00
      2.817      0.069     0.0612      2.061     71.222  65.090252     8.7128      7.107   226.8645 2.4562e+00    10.8677      2.763      4.006    21.0579 0.0000e+00
      2.836      0.074     0.0848      2.176     74.051  67.484788     9.5234      7.091   223.0279 2.3767e+00    11.8707      2.779      4.032    20.9796 0.0000e+00
      2.856      0.078     0.1066      2.250     75.526  68.635319     9.5483      7.074   220.2585 2.2851e+00    11.9981      2.801      4.063    20.9162 0.0000e+00
      2.876      0.082     0.1208      2.292     75.579  68.512277     9.0054      7.056   217.8153 2.2124e+00    12.3754      2.821      4.092    20.8249 0.0000e+00
      2.898      0.083     0.1298      2.311     75.525  68.349094     7.9967      7.039   214.1372 2.1428e+00    13.0577      2.841      4.120    20.6943 0.0000e+00
      2.921      0.081     0.1379      2.290     75.641  68.378653     7.4438      7.024   210.0297 2.0720e+00    13.4641      2.865      4.156    20.5662 0.0000e+00
      2.944      0.077     0.1428      2.234     76.199  68.805998     7.3659      7.010   206.0952 2.0217e+00    13.4866      2.887      4.188    20.4320 0.0000e+00
      2.964      0.070     0.1449      2.192     77.088  69.510702     6.9946      6.998   201.9275 1.9701e+00    12.8703      2.907      4.217    20.3000 0.0000e+00
      2.981      0.060     0.1475      2.183     77.508  69.778590     6.3184      6.988   198.1850 1.9159e+00    11.7149      2.927      4.245    20.2351 0.0000e+00
      2.995      0.049     0.1464      2.178     77.645  69.819765     5.9523      6.979   195.2607 1.8824e+00    11.0855      2.938      4.261    20.1967 0.0000e+00
      3.006      0.037     0.1412      2.170     77.901  70.008455     5.9145      6.971   192.8980 1.8649e+00    11.0285      2.949      4.277    20.1486 0.0000e+00
      3.014      0.027     0.1378      2.170     78.164  70.216202     5.9053      6.963   190.6966 1.8524e+00    11.0258      2.959      4.291    20.0900 0.0000e+00
      3.018      0.019     0.1392      2.173     78.571  70.551382     5.8926      6.954   188.5191 1.8407e+00    11.1507      2.961      4.295    19.9976 0.0000e+00
      3.020      0.013     0.1388      2.168     79.253  71.136349     5.8656      6.948   186.4446 1.8489e+00    11.3921      2.962      4.296    19.9448 0.0000e+00
      3.021      0.009     0.1378      2.134     79.758  71.566657     5.8476      6.944   184.5436 1.8659e+00    11.5193      2.963      4.297    19.9285 0.0000e+00
      3.022      0.006     0.1384      2.071     79.839  71.621354     5.8478      6.939   183.0861 1.8645e+00    11.5093      2.964      4.298    19.9128 0.0000e+00
      3.024      0.005     0.1386      2.004     79.746  71.543331     5.9195      6.935   181.9864 1.8498e+00    11.3686      2.966      4.301    19.8902 0.0000e+00
      3.026      0.004     0.1391      1.945     79.108  71.004792     6.0647      6.931   180.8835 1.8409e+00    11.1295      2.967      4.303    19.8732 0.0000e+00
      3.027      0.004     0.1371      1.899     77.580  69.687751     6.1474      6.927   179.7316 1.8490e+00    11.0109      2.968      4.304    19.8617 0.0000e+00
      3.028      0.003     0.1319      1.853     75.994  68.334873     6.1567      6.924   178.7278 1.8562e+00    11.0155      2.969      4.306    19.8427 0.0000e+00
      3.028      0.003     0.1278      1.827     75.362  67.807597     6.1589      6.924   178.2961 1.8498e+00    11.0213      2.970      4.307    19.8442 0.0000e+00
      3.029 -9.990e-29     0.1235 -9.990e-29 -9.990e-29 -9.990e-29 -9.990e-29 -9.990e-29 -9.990e-29 1.8478e+00 -9.990e-29      2.970      4.308    19.8734 0.0000e+00
      3.029 -9.990e-29     0.1212 -9.990e-29 -9.990e-29 -9.990e-29 -9.990e-29 -9.990e-29 -9.990e-29 1.8578e+00 -9.990e-29      2.970      4.308    19.8999 0.0000e+00
      3.030 -9.990e-29     0.1180 -9.990e-29 -9.990e-29 -9.990e-29 -9.990e-29 -9.990e-29 -9.990e-29 1.8636e+00 -9.990e-29      2.971      4.309    19.9596 0.0000e+00
      3.030 -9.990e-29     0.1140 -9.990e-29 -9.990e-29 -9.990e-29 -9.990e-29 -9.990e-29 -9.990e-29 1.8635e+00 -9.990e-29      2.971      4.310    20.0163 0.0000e+00
