* Sea-Bird SBE19plus  Data File:
* FileName = C:\R\Reservoirs\Data\DataNotYetUploadedToEDI\Raw_CTD\RawDownloads\082923_bvr50_S8188_0001.hex
* Software version 2.8.0.119
* Temperature SN = 8188
* Conductivity SN = 8188
* System UpLoad Time = Aug 30 2023 15:12:49
* <ApplicationData>
* <Seaterm232>
* <SoftwareVersion>2.8.0.119</SoftwareVersion>
* <BuildDate>07-Nov-2018</BuildDate>
* </Seaterm232>
* </ApplicationData>
* <InstrumentState>
* <HardwareData DeviceType='SBE19plus' SerialNumber='01908188'>
*
*    <Manufacturer>Sea-Bird Electronics, Inc.</Manufacturer>
*
*    <FirmwareVersion>3.1.8</FirmwareVersion>
*
*    <FirmwareDate>Mar  9 2016 16:22:29</FirmwareDate>
*
*    <CommandSetVersion>1.4</CommandSetVersion>
*
*    <PCBAssembly PCBSerialNum='260079' AssemblyNum='41054K'/>
*
*    <PCBAssembly PCBSerialNum='260083' AssemblyNum='41059E'/>
*
*    <PCBAssembly PCBSerialNum='260085' AssemblyNum='41606B'/>
*
*    <PCBAssembly PCBSerialNum='260081' AssemblyNum='41967C'/>
*
*    <MfgDate>30 Mar 2022</MfgDate>
*
*    <InternalSensors>
*
*       <Sensor id='Main Temperature'>
*
*          <type>temperature0</type>
*
*          <SerialNumber>01908188</SerialNumber>
*
*       </Sensor>
*
*       <Sensor id='Main Conductivity'>
*
*          <type>conductivity-0</type>
*
*          <SerialNumber>01908188</SerialNumber>
*
*       </Sensor>
*
*       <Sensor id='Main Pressure'>
*
*          <type>strain-0</type>
*
*          <SerialNumber>12220741</SerialNumber>
*
*       </Sensor>
*
*    </InternalSensors>
*
*    <ExternalSensors>
*
*       <Sensor id='volt 0'>
*
*          <type>CHL</type>
*
*          <SerialNumber>FLNTURT-7096</SerialNumber>
*
*       </Sensor>
*
*       <Sensor id='volt 1'>
*
*          <type>NTU</type>
*
*          <SerialNumber>FLNTURT-7096</SerialNumber>
*
*       </Sensor>
*
*       <Sensor id='volt 2'>
*
*          <type>OXY</type>
*
*          <SerialNumber>43-4269</SerialNumber>
*
*       </Sensor>
*
*       <Sensor id='volt 3'>
*
*          <type>not assigned</type>
*
*          <SerialNumber>not assigned</SerialNumber>
*
*       </Sensor>
*
*       <Sensor id='volt 4'>
*
*          <type>PAR</type>
*
*          <SerialNumber>PARLOGICSW-2209</SerialNumber>
*
*       </Sensor>
*
*       <Sensor id='volt 5'>
*
*          <type>not assigned</type>
*
*          <SerialNumber>not assigned</SerialNumber>
*
*       </Sensor>
*
*       <Sensor id='serial'>
*
*          <type>WETLABS</type>
*
*          <SerialNumber>FL3-7350</SerialNumber>
*
*       </Sensor>
*
*    </ExternalSensors>
*
* </HardwareData>
* <StatusData DeviceType='SBE19plus' SerialNumber='01908188'>
*
*    <DateTime>2023-08-30T15:11:41</DateTime>
*
*    <LoggingState>not logging</LoggingState>
*
*    <EventSummary numEvents='0'/>
*
*    <Power>
*
*       <vMain>12.4</vMain>
*
*       <vLith>8.6</vLith>
*
*       <iMain>61.8</iMain>
*
*       <iPump>47.9</iPump>
*
*       <iExt01>21.8</iExt01>
*
*       <iExt2345>20.2</iExt2345>
*
*       <iSerial>45.4</iSerial>
*
*    </Power>
*
*    <MemorySummary>
*
*       <Bytes>25975</Bytes>
*
*       <Samples>1039</Samples>
*
*       <SamplesFree>2630886</SamplesFree>
*
*       <SampleLength>25</SampleLength>
*
*       <Profiles>1</Profiles>
*
*    </MemorySummary>
*
* </StatusData>
* <ConfigurationData DeviceType='SBE19plus' SerialNumber='01908188'>
*
*    <ProfileMode>
*
*       <ScansToAverage>1</ScansToAverage>
*
*       <MinimumCondFreq>5</MinimumCondFreq>
*
*       <PumpDelay>40</PumpDelay>
*
*       <AutoRun>no</AutoRun>
*
*       <IgnoreSwitch>no</IgnoreSwitch>
*
*    </ProfileMode>
*
*    <Battery>
*
*       <Type>alkaline</Type>
*
*       <CutOff>7.5</CutOff>
*
*    </Battery>
*
*    <DataChannels>
*
*       <ExtVolt0>yes</ExtVolt0>
*
*       <ExtVolt1>yes</ExtVolt1>
*
*       <ExtVolt2>yes</ExtVolt2>
*
*       <ExtVolt3>no</ExtVolt3>
*
*       <ExtVolt4>yes</ExtVolt4>
*
*       <ExtVolt5>no</ExtVolt5>
*
*       <SBE38>no</SBE38>
*
*       <WETLABS>yes</WETLABS>
*
*       <OPTODE>no</OPTODE>
*
*       <SBE63>no</SBE63>
*
*       <SeaFET>no</SeaFET>
*
*       <GTD>no</GTD>
*
*    </DataChannels>
*
*    <EchoCharacters>yes</EchoCharacters>
*
*    <OutputExecutedTag>yes</OutputExecutedTag>
*
*    <OutputFormat>raw HEX</OutputFormat>
*
* </ConfigurationData>
* <CalibrationCoefficients DeviceType='SBE19plus' SerialNumber='01908188'>
*
*    <Calibration format='TEMP1' id='Main Temperature'>
*
*       <SerialNum>01908188</SerialNum>
*
*       <CalDate>21-Aug-22</CalDate>
*
*       <TA0>1.265284e-03</TA0>
*
*       <TA1>2.691806e-04</TA1>
*
*       <TA2>-5.655711e-07</TA2>
*
*       <TA3>1.602369e-07</TA3>
*
*       <TOFFSET>0.000000e+00</TOFFSET>
*
*    </Calibration>
*
*    <Calibration format='WBCOND0' id='Main Conductivity'>
*
*       <SerialNum>01908188</SerialNum>
*
*       <CalDate>21-Aug-22</CalDate>
*
*       <G>-1.009562e+00</G>
*
*       <H>1.439229e-01</H>
*
*       <I>-4.343583e-04</I>
*
*       <J>5.328694e-05</J>
*
*       <CPCOR>-9.570000e-08</CPCOR>
*
*       <CTCOR>3.250000e-06</CTCOR>
*
*       <CSLOPE>1.000000e+00</CSLOPE>
*
*    </Calibration>
*
*    <Calibration format='STRAIN0' id='Main Pressure'>
*
*       <SerialNum>12220741</SerialNum>
*
*       <CalDate>11-Aug-22</CalDate>
*
*       <PA0>1.627942e-01</PA0>
*
*       <PA1>4.835849e-04</PA1>
*
*       <PA2>-3.975488e-12</PA2>
*
*       <PTCA0>5.244803e+05</PTCA0>
*
*       <PTCA1>2.817194e+01</PTCA1>
*
*       <PTCA2>-5.842684e-01</PTCA2>
*
*       <PTCB0>2.522087e+01</PTCB0>
*
*       <PTCB1>5.750000e-04</PTCB1>
*
*       <PTCB2>0.000000e+00</PTCB2>
*
*       <PTEMPA0>-5.709556e+01</PTEMPA0>
*
*       <PTEMPA1>5.248567e+01</PTEMPA1>
*
*       <PTEMPA2>-2.281498e-01</PTEMPA2>
*
*       <POFFSET>-4.700000e-02</POFFSET>
*
*       <PRANGE>1.600000e+02</PRANGE>
*
*    </Calibration>
*
*    <Calibration format='VOLT0' id='Volt 0'>
*
*       <OFFSET>-4.657200e-02</OFFSET>
*
*       <SLOPE>1.248989e+00</SLOPE>
*
*    </Calibration>
*
*    <Calibration format='VOLT0' id='Volt 1'>
*
*       <OFFSET>-4.600800e-02</OFFSET>
*
*       <SLOPE>1.249849e+00</SLOPE>
*
*    </Calibration>
*
*    <Calibration format='VOLT0' id='Volt 2'>
*
*       <OFFSET>-4.668000e-02</OFFSET>
*
*       <SLOPE>1.250379e+00</SLOPE>
*
*    </Calibration>
*
*    <Calibration format='VOLT0' id='Volt 3'>
*
*       <OFFSET>-4.643200e-02</OFFSET>
*
*       <SLOPE>1.251002e+00</SLOPE>
*
*    </Calibration>
*
*    <Calibration format='VOLT0' id='Volt 4'>
*
*       <OFFSET>-4.606100e-02</OFFSET>
*
*       <SLOPE>1.249962e+00</SLOPE>
*
*    </Calibration>
*
*    <Calibration format='VOLT0' id='Volt 5'>
*
*       <OFFSET>-4.642700e-02</OFFSET>
*
*       <SLOPE>1.248530e+00</SLOPE>
*
*    </Calibration>
*
*    <Calibration format='FREQ0' id='external frequency channel'>
*
*       <EXTFREQSF>1.000018e+00</EXTFREQSF>
*
*    </Calibration>
*
* </CalibrationCoefficients>
* <EventCounters DeviceType='SBE19plus' SerialNumber='01908188'>
*
*    <EventSummary numEvents='0'/>
*
* </EventCounters></InstrumentState>
* <Headers>
*
* cast   1 29 Aug 2023 13:41:59 samples 1 to 1039, avg = 1, stop = mag switch
*
# nquan = 16
# nvalues = 1039                        
# units = specified
# name 0 = depFM: Depth [fresh water, m]
# name 1 = dz/dtM: Descent Rate [m/s]
# name 2 = sbeox0Mg/L: Oxygen, SBE 43 [mg/l]
# name 3 = sbeox0PS: Oxygen, SBE 43 [% saturation]
# name 4 = specc: Specific Conductance [uS/cm]
# name 5 = c0uS/cm: Conductivity [uS/cm]
# name 6 = wetCDOM: Fluorescence, WET Labs CDOM [mg/m^3]
# name 7 = flECO-AFL: Fluorescence, WET Labs ECO-AFL/FL [mg/m^3]
# name 8 = flECO-AFL1: Fluorescence, WET Labs ECO-AFL/FL, 2 [mg/m^3]
# name 9 = flECO-AFL2: Fluorescence, WET Labs ECO-AFL/FL, 3 [mg/m^3]
# name 10 = par/sat/log: PAR/Logarithmic, Satlantic
# name 11 = turbWETntu0: Turbidity, WET Labs ECO [NTU]
# name 12 = prdM: Pressure, Strain Gauge [db]
# name 13 = prdE: Pressure, Strain Gauge [psi]
# name 14 = tv290C: Temperature [ITS-90, deg C]
# name 15 = flag:  0.000e+00
# span 0 =     -0.678,      9.394       
# span 1 =     -0.314,      0.166       
# span 2 =     0.4451,     8.1514       
# span 3 =      4.390,     99.021       
# span 4 =     -0.056,    283.392       
# span 5 =  -0.058727, 207.390209       
# span 6 =    -4.5000,     4.7700       
# span 7 =    -0.1651,    25.1687       
# span 8 =    -2.1300,     0.5964       
# span 9 =    -2.0304,     8.5446       
# span 10 = 1.1577e-01, 1.0569e+03      
# span 11 =    -0.6338,    66.0098      
# span 12 =     -0.665,      9.212      
# span 13 =     -0.964,     13.361      
# span 14 =    11.5678,    27.3778      
# span 15 = 0.0000e+00, 0.0000e+00      
# interval = seconds: 0.25
# start_time = Aug 29 2023 13:41:59 [Instrument's time stamp, header]
# bad_flag = -9.990e-29
# <Sensors count="10" >
#   <sensor Channel="1" >
#     <!-- Count, Temperature -->
#     <TemperatureSensor SensorID="58" >
#       <SerialNumber>8188</SerialNumber>
#       <CalibrationDate>21-Aug-22</CalibrationDate>
#       <A0>1.26528397e-003</A0>
#       <A1>2.69180636e-004</A1>
#       <A2>-5.65571102e-007</A2>
#       <A3>1.60236871e-007</A3>
#       <Slope>1.00000000</Slope>
#       <Offset>0.0000</Offset>
#     </TemperatureSensor>
#   </sensor>
#   <sensor Channel="2" >
#     <!-- Frequency 0, Conductivity -->
#     <ConductivitySensor SensorID="3" >
#       <SerialNumber>8188</SerialNumber>
#       <CalibrationDate>21-Aug-22</CalibrationDate>
#       <UseG_J>1</UseG_J>
#       <!-- Cell const and series R are applicable only for wide range sensors. -->
#       <SeriesR>0.0000</SeriesR>
#       <CellConst>2000.0000</CellConst>
#       <ConductivityType>0</ConductivityType>
#       <Coefficients equation="0" >
#         <A>0.00000000e+000</A>
#         <B>0.00000000e+000</B>
#         <C>0.00000000e+000</C>
#         <D>0.00000000e+000</D>
#         <M>0.0</M>
#         <CPcor>-9.57000000e-008</CPcor>
#       </Coefficients>
#       <Coefficients equation="1" >
#         <G>-1.00956200e+000</G>
#         <H>1.43922862e-001</H>
#         <I>-4.34358337e-004</I>
#         <J>5.32869425e-005</J>
#         <CPcor>-9.57000000e-008</CPcor>
#         <CTcor>3.2500e-006</CTcor>
#         <!-- WBOTC not applicable unless ConductivityType = 1. -->
#         <WBOTC>0.00000000e+000</WBOTC>
#       </Coefficients>
#       <Slope>1.00000000</Slope>
#       <Offset>0.00000</Offset>
#     </ConductivitySensor>
#   </sensor>
#   <sensor Channel="3" >
#     <!-- Count, Pressure, Strain Gauge -->
#     <PressureSensor SensorID="46" >
#       <SerialNumber>8188</SerialNumber>
#       <CalibrationDate>11-Aug-22</CalibrationDate>
#       <PA0>1.62794185e-001</PA0>
#       <PA1>4.83584930e-004</PA1>
#       <PA2>-3.97548787e-012</PA2>
#       <PTEMPA0>-5.70955636e+001</PTEMPA0>
#       <PTEMPA1>5.24856726e+001</PTEMPA1>
#       <PTEMPA2>-2.28149804e-001</PTEMPA2>
#       <PTCA0>5.24480263e+005</PTCA0>
#       <PTCA1>2.81719406e+001</PTCA1>
#       <PTCA2>-5.84268386e-001</PTCA2>
#       <PTCB0>2.52208750e+001</PTCB0>
#       <PTCB1>5.75000000e-004</PTCB1>
#       <PTCB2>0.00000000e+000</PTCB2>
#       <Offset>0.000000</Offset>
#     </PressureSensor>
#   </sensor>
#   <sensor Channel="4" >
#     <!-- A/D voltage 0, Fluorometer, WET Labs ECO-AFL/FL -->
#     <FluoroWetlabECO_AFL_FL_Sensor SensorID="20" >
#       <SerialNumber>FLNTURT-7096</SerialNumber>
#       <CalibrationDate>01-Sep-2022</CalibrationDate>
#       <ScaleFactor>5.00000000e+001</ScaleFactor>
#       <!-- Dark output -->
#       <Vblank>0.0680</Vblank>
#     </FluoroWetlabECO_AFL_FL_Sensor>
#   </sensor>
#   <sensor Channel="5" >
#     <!-- A/D voltage 1, Turbidity Meter, WET Labs, ECO-NTU -->
#     <TurbidityMeter SensorID="67" >
#       <SerialNumber>FLNTURT-7096</SerialNumber>
#       <CalibrationDate>01-Sep-2022</CalibrationDate>
#       <ScaleFactor>197.000000</ScaleFactor>
#       <!-- Dark output -->
#       <DarkVoltage>0.067000</DarkVoltage>
#     </TurbidityMeter>
#   </sensor>
#   <sensor Channel="6" >
#     <!-- A/D voltage 2, Oxygen, SBE 43 -->
#     <OxygenSensor SensorID="38" >
#       <SerialNumber>4269</SerialNumber>
#       <CalibrationDate>16-Aug-22</CalibrationDate>
#       <Use2007Equation>1</Use2007Equation>
#       <CalibrationCoefficients equation="0" >
#         <!-- Coefficients for Owens-Millard equation. -->
#         <Boc>0.0000</Boc>
#         <Soc>0.0000e+000</Soc>
#         <offset>0.0000</offset>
#         <Pcor>0.00e+000</Pcor>
#         <Tcor>0.0000</Tcor>
#         <Tau>0.0</Tau>
#       </CalibrationCoefficients>
#       <CalibrationCoefficients equation="1" >
#         <!-- Coefficients for Sea-Bird equation - SBE calibration in 2007 and later. -->
#         <Soc>4.2506e-001</Soc>
#         <offset>-0.4922</offset>
#         <A>-4.5893e-003</A>
#         <B> 1.8653e-004</B>
#         <C>-2.0781e-006</C>
#         <D0> 2.5826e+000</D0>
#         <D1> 1.92634e-004</D1>
#         <D2>-4.64803e-002</D2>
#         <E> 3.6000e-002</E>
#         <Tau20> 2.3100</Tau20>
#         <H1>-3.3000e-002</H1>
#         <H2> 5.0000e+003</H2>
#         <H3> 1.4500e+003</H3>
#       </CalibrationCoefficients>
#     </OxygenSensor>
#   </sensor>
#   <sensor Channel="7" >
#     <!-- A/D voltage 3, PAR/Logarithmic, Satlantic -->
#     <PARLog_SatlanticSensor SensorID="76" >
#       <SerialNumber>2209</SerialNumber>
#       <CalibrationDate>14-Jan-2022</CalibrationDate>
#       <a0>9.8861e-001</a0>
#       <a1>8.0845e-001</a1>
#       <Im>1.3589e+000</Im>
#       <Multiplier>1.0000e+000</Multiplier>
#     </PARLog_SatlanticSensor>
#   </sensor>
#   <sensor Channel="8" >
#     <!-- Serial RS-232, Fluorometer, WET Labs ECO-AFL/FL, 2 -->
#     <FluoroWetlabECO_AFL_FL_Sensor SensorID="20" >
#       <SerialNumber>FL3-7350</SerialNumber>
#       <CalibrationDate>10-Mar-2022</CalibrationDate>
#       <ScaleFactor>4.26000000e-002</ScaleFactor>
#       <!-- Dark output -->
#       <Vblank>50.0000</Vblank>
#     </FluoroWetlabECO_AFL_FL_Sensor>
#   </sensor>
#   <sensor Channel="9" >
#     <!-- Serial RS-232, Fluorometer, WET Labs ECO-AFL/FL, 3 -->
#     <FluoroWetlabECO_AFL_FL_Sensor SensorID="20" >
#       <SerialNumber>FL3-7350</SerialNumber>
#       <CalibrationDate>10-Mar-2022</CalibrationDate>
#       <ScaleFactor>4.23000000e-002</ScaleFactor>
#       <!-- Dark output -->
#       <Vblank>48.0000</Vblank>
#     </FluoroWetlabECO_AFL_FL_Sensor>
#   </sensor>
#   <sensor Channel="10" >
#     <!-- Serial RS-232, Fluorometer, WET Labs ECO CDOM -->
#     <FluoroWetlabCDOM_Sensor SensorID="19" >
#       <SerialNumber>FL3-7350</SerialNumber>
#       <CalibrationDate>10-Mar-2022</CalibrationDate>
#       <ScaleFactor>0.090</ScaleFactor>
#       <!-- Dark output -->
#       <Vblank>50.000</Vblank>
#     </FluoroWetlabCDOM_Sensor>
#   </sensor>
# </Sensors>
# datcnv_date = Aug 30 2023 15:15:23, 7.26.7.129 [datcnv_vars = 15]
# datcnv_in = C:\R\Reservoirs\Data\DataNotYetUploadedToEDI\Raw_CTD\RawDownloads\082923_fcr50_S8188001.hex C:\R\Reservoirs\Data\DataNotYetUploadedToEDI\Raw_CTD\RawDownloads\SBE19plusV2_8188_start20221003.xmlcon
# datcnv_skipover = 0
# datcnv_ox_hysteresis_correction = yes
# datcnv_ox_tau_correction = yes
# filter_date = Aug 30 2023 15:15:41, 7.26.7.129
# filter_in = C:\R\Reservoirs\Data\DataNotYetUploadedToEDI\Raw_CTD\RawDownloads\082923_fcr50_S8188001.cnv
# filter_low_pass_tc_A = 0.500
# filter_low_pass_tc_B = 1.000
# filter_low_pass_A_vars = sbeox0Mg/L sbeox0PS specc c0uS/cm tv290C
# filter_low_pass_B_vars = depFM dz/dtM prdM prdE
# alignctd_date = Aug 30 2023 15:16:18, 7.26.7.129
# alignctd_in = C:\R\Reservoirs\Data\DataNotYetUploadedToEDI\Raw_CTD\RawDownloads\082923_fcr50_S8188001.cnv
# alignctd_adv = dz/dtM 1.000, sbeox0PS 1.000, specc 1.000, c0uS/cm 1.000, flECO-AFL 1.000, turbWETntu0 1.000                                                                                                                        
# file_type = ascii
*END*
     -0.678      0.000     7.2964     92.386     -0.036  -0.037450    -4.5000    -0.1346    -2.1300    -2.0304 8.3597e+02     0.3131     -0.665     -0.964    27.3778 0.0000e+00
     -0.678      0.000     7.2998     92.432     -0.032  -0.033524    -4.5000    -0.1231    -2.1300    -2.0304 8.1428e+02     0.3281     -0.665     -0.964    27.3750 0.0000e+00
     -0.678      0.000     7.3042     92.459     -0.030  -0.031598    -4.5000    -0.1308    -2.1300    -2.0304 7.6389e+02     0.2680     -0.665     -0.964    27.3709 0.0000e+00
     -0.678      0.000     7.3094     92.454     -0.032  -0.033133     0.0000    -0.1193     0.0000     0.0846 6.6935e+02    -0.5737     -0.665     -0.964    27.3647 0.0000e+00
     -0.678      0.000     7.3150     92.416     -0.039  -0.040516     0.0000    -0.0964     0.0000     0.0846 5.1147e+02    -0.4835     -0.665     -0.964    27.3552 0.0000e+00
     -0.678      0.000     7.3206     92.352     -0.048  -0.049785     0.0000    -0.1193     0.0000     0.0846 4.0124e+02    -0.5136     -0.665     -0.964    27.3404 0.0000e+00
     -0.678      0.000     7.3256     92.272     -0.051  -0.053527     0.0000    -0.1498     0.0000     0.0846 3.6664e+02    -0.4685     -0.665     -0.964    27.3179 0.0000e+00
     -0.678      0.000     7.3292     92.191     -0.047  -0.048786     0.0000    -0.1269     0.0000     0.0846 3.6362e+02    -0.6037     -0.665     -0.964    27.2872 0.0000e+00
     -0.678      0.000     7.3310     92.125     -0.039  -0.040228     0.0000    -0.1079     0.0000     0.0846 3.7161e+02    -0.4985     -0.665     -0.963    27.2499 0.0000e+00
     -0.678      0.000     7.3314     92.096     -0.034  -0.035456     0.0000    -0.1422     0.0000     0.0846 3.7396e+02    -0.5587     -0.665     -0.963    27.2089 0.0000e+00
     -0.678      0.000     7.3305     92.121     -0.034  -0.035175     0.0000    -0.1155     0.0000     0.0846 3.9794e+02    -0.5286     -0.665     -0.964    27.1671 0.0000e+00
     -0.678      0.000     7.3294     92.203     -0.036  -0.037333     0.0000    -0.1231     0.0000     0.0846 4.2641e+02    -0.5587     -0.665     -0.964    27.1262 0.0000e+00
     -0.678      0.000     7.3295     92.326     -0.041  -0.042505     0.0000    -0.1231     0.0000     0.1692 4.3625e+02    -0.5436     -0.665     -0.964    27.0858 0.0000e+00
     -0.678      0.000     7.3325     92.470     -0.046  -0.048116     0.0000    -0.1155     0.0000     0.1692 4.3201e+02    -0.5136     -0.665     -0.964    27.0454 0.0000e+00
     -0.678      0.000     7.3396     92.616     -0.050  -0.051709     0.0000    -0.1422     0.0000     0.1692 4.4111e+02    -0.5136     -0.665     -0.964    27.0063 0.0000e+00
     -0.678      0.000     7.3508     92.748     -0.052  -0.054242     0.0000    -0.1308     0.0000     0.1692 4.8232e+02    -0.3482     -0.665     -0.964    26.9716 0.0000e+00
     -0.678      0.000     7.3643     92.854     -0.054  -0.056391     0.0000    -0.1155     0.0000     0.0846 5.2566e+02    -0.2881     -0.665     -0.964    26.9440 0.0000e+00
     -0.678      0.000     7.3784     92.924     -0.056  -0.058727     0.0000    -0.1193     0.0000     0.0846 5.1897e+02    -0.2731     -0.665     -0.963    26.9237 0.0000e+00
     -0.677      0.001     7.3919     92.956     -0.056  -0.057922     0.0000    -0.1155     0.0000     0.0846 4.9185e+02    -0.3633     -0.665     -0.963    26.9097 0.0000e+00
     -0.677      0.001     7.4036     92.964     -0.052  -0.053758     0.0000    -0.1269     0.0000     0.0846 4.4342e+02    -0.2731     -0.664     -0.963    26.9010 0.0000e+00
     -0.677      0.001     7.4126     92.958     -0.047  -0.049082     0.0000    -0.0926     0.0000     0.0000 4.1345e+02    -0.3031     -0.664     -0.963    26.8969 0.0000e+00
     -0.677      0.001     7.4182     92.946     -0.041  -0.042644     0.0000    -0.1422     0.0000     0.0000 4.1833e+02    -0.3332     -0.664     -0.963    26.8963 0.0000e+00
     -0.677      0.002     7.4206     92.936     -0.031  -0.032729     0.0000    -0.1536     0.0000     0.0000 4.1806e+02    -0.3482     -0.664     -0.962    26.8981 0.0000e+00
     -0.676      0.002     7.4208     92.931     -0.016  -0.016692     0.0000    -0.1231     0.0000     0.0000 4.0721e+02    -0.2130     -0.663     -0.962    26.9009 0.0000e+00
     -0.676      0.003     7.4199     92.933      0.006   0.005789     0.0000    -0.1041     0.0000     0.0000 4.0054e+02    -0.2581     -0.663     -0.961    26.9038 0.0000e+00
     -0.675      0.003     7.4186     92.943      0.041   0.040708     0.0000    -0.1498     0.0000     0.0846 3.9811e+02    -0.2881     -0.662     -0.960    26.9065 0.0000e+00
     -0.674      0.004     7.4176     92.959      0.104   0.105286     0.0000    -0.1155     0.0000     0.0846 3.9587e+02    -0.3182     -0.661     -0.959    26.9085 0.0000e+00
     -0.673      0.005     7.4170     92.977      0.212   0.216744     0.0000    -0.1155     0.0000     0.0846 4.0220e+02    -0.3482     -0.660     -0.958    26.9097 0.0000e+00
     -0.672      0.007     7.4171     92.992      0.392   0.400849     0.0000    -0.1117     0.0000     0.0846 3.9227e+02    -0.2130     -0.659     -0.956    26.9103 0.0000e+00
     -0.670      0.009     7.4179     93.000      0.690   0.706697     0.0000    -0.1155     0.0000     0.0423 3.9846e+02    -0.2581     -0.657     -0.953    26.9108 0.0000e+00
     -0.668      0.012     7.4192     93.004      1.186   1.215846     0.0000    -0.1079     0.0000     0.0423 4.1184e+02    -0.3482     -0.655     -0.950    26.9110 0.0000e+00
     -0.665      0.015     7.4206     93.002      2.017   2.068024     0.0000    -0.1575     0.0000     0.0423 4.1184e+02    -0.2881     -0.652     -0.946    26.9105 0.0000e+00
     -0.661      0.019     7.4220     92.995      3.407   3.494431     0.0000    -0.1269     0.0000     0.0423 4.3276e+02    -0.2581     -0.648     -0.940    26.9083 0.0000e+00
     -0.656      0.025     7.4235     92.985      5.724   5.871491     0.0000    -0.1422     0.0000     0.0423 5.2361e+02    -0.3482     -0.643     -0.933    26.9025 0.0000e+00
     -0.650      0.031     7.4254     92.976      9.141   9.372368     0.0000    -0.1079     0.0000     0.0423 6.3671e+02    -0.2581     -0.637     -0.924    26.8903 0.0000e+00
     -0.642      0.039     7.4283     92.972     13.198  13.514687     0.0000     1.0785     0.0000     0.0423 7.4779e+02     3.4694     -0.629     -0.913    26.8676 0.0000e+00
     -0.631      0.047     7.4330     92.975     17.078  17.452707     0.0000     1.0594     0.0000     0.0423 8.0618e+02     3.4243     -0.619     -0.898    26.8278 0.0000e+00
     -0.618      0.055     7.4414     92.982     20.372  20.774450     1.9800     1.0862     0.0000     2.7495 8.5676e+02     3.5446     -0.606     -0.879    26.7592 0.0000e+00
     -0.602      0.062     7.4555     92.992     23.487  23.902685     1.9800     1.0862     0.0000     2.7495 8.8495e+02     3.5897     -0.591     -0.856    26.6477 0.0000e+00
     -0.584      0.070     7.4758     93.014     27.258  27.691396     1.9800     2.6807     0.0000     2.7495 8.9365e+02     7.6328     -0.573     -0.831    26.4947 0.0000e+00
     -0.566      0.078     7.4989     93.065     31.854  32.311494     1.9800     2.6883     0.0000     2.7495 8.8707e+02     7.5576     -0.555     -0.805    26.3248 0.0000e+00
     -0.546      0.087     7.5212     93.165     36.138  36.611040     1.9800     2.6807     0.0000     2.7495 8.6762e+02     7.5426     -0.536     -0.777    26.1637 0.0000e+00
     -0.525      0.098     7.5411     93.336     39.082  39.548241     4.2300     2.6769     0.1278     5.9220 8.6857e+02     7.5576     -0.515     -0.746    26.0236 0.0000e+00
     -0.500      0.110     7.5590     93.603     40.813  41.258615     4.2300     2.8066     0.1278     5.9220 8.9539e+02     7.8582     -0.490     -0.711    25.9053 0.0000e+00
     -0.470      0.124     7.5771     93.984     41.806  42.225999     4.2300     2.8142     0.1278     5.9220 8.8765e+02     7.7380     -0.461     -0.669    25.8036 0.0000e+00
     -0.436      0.139     7.5975     94.481     42.369  42.761854     4.2300     2.8219     0.1278     5.9220 8.8418e+02     7.8733     -0.428     -0.621    25.7142 0.0000e+00
     -0.398      0.151     7.6223     95.073     42.702  43.068513     4.1400     2.7990     0.1278     6.0066 9.2065e+02     7.9183     -0.391     -0.566    25.6361 0.0000e+00
     -0.356      0.161     7.6532     95.709     42.917  43.261431     4.1400     3.7221     0.1278     6.0066 9.9535e+02     8.1739     -0.350     -0.507    25.5702 0.0000e+00
     -0.311      0.166     7.6921     96.312     43.066  43.392051     4.1400     3.7717     0.1278     6.0066 1.0569e+03     8.1889     -0.306     -0.443    25.5157 0.0000e+00
     -0.265      0.164     7.7393     96.794     43.165  43.479355     4.1400     3.7260     0.1278     6.0066 1.0265e+03     8.3242     -0.260     -0.378    25.4696 0.0000e+00
     -0.220      0.157     7.7933     97.070     43.222  43.530773     4.2300     3.7374     0.1704     6.0912 9.8780e+02     8.2189     -0.216     -0.313    25.4307 0.0000e+00
     -0.178      0.144     7.8499     97.055     43.238  43.548128     4.2300     4.2867     0.1704     6.0912 6.4227e+02     7.3021     -0.175     -0.254    25.3993 0.0000e+00
     -0.142      0.127     7.9027     96.695     43.220  43.536049     4.2300     4.2753     0.1704     6.0912 5.0572e+02     7.2720     -0.139     -0.202    25.3756 0.0000e+00
     -0.112      0.108     7.9445     95.977     43.175  43.495279     4.2300     4.3020     0.1704     6.0912 5.2248e+02     7.3171     -0.110     -0.159    25.3598 0.0000e+00
     -0.089      0.089     7.9682     94.913     43.111  43.430795     4.2300     4.2715     0.1704     6.0912 5.3745e+02     7.3171     -0.087     -0.126    25.3525 0.0000e+00
     -0.070      0.073     7.9668     93.625     43.051  43.365029     4.4100     4.1074     0.1278     6.1335 5.5864e+02     7.2570     -0.069     -0.100    25.3534 0.0000e+00
     -0.056      0.059     7.9363     92.394     43.007  43.312141     4.4100     4.1151     0.1278     6.1335 5.3640e+02     7.3622     -0.055     -0.079    25.3593 0.0000e+00
     -0.044      0.049     7.8766     91.400     42.977  43.271897     4.4100     4.0998     0.1278     6.1335 5.4037e+02     7.3322     -0.043     -0.062    25.3645 0.0000e+00
     -0.034      0.041     7.7892     90.555     42.959  43.241488     4.4100     4.0807     0.1278     6.1335 4.8306e+02     7.3322     -0.033     -0.047    25.3649 0.0000e+00
     -0.024      0.034     7.6843     89.675     42.943  43.214787     4.3200     4.2791     0.1704     5.9643 4.6513e+02     7.3322     -0.023     -0.034    25.3595 0.0000e+00
     -0.016      0.029     7.5846     88.658     42.927  43.188634     4.3200     4.2600     0.1704     5.9643 4.4467e+02     7.3171     -0.015     -0.022    25.3496 0.0000e+00
     -0.009      0.024     7.5047     87.519     42.914  43.167943     4.3200     4.2715     0.1704     5.9643 4.4111e+02     7.2871     -0.009     -0.013    25.3371 0.0000e+00
     -0.004      0.020     7.4372     86.326     42.910  43.159083     4.3200     4.2791     0.1704     5.9643 4.4856e+02     7.3322     -0.003     -0.005    25.3234 0.0000e+00
      0.000      0.015     7.3667     85.121     42.914  43.159691     4.4100     4.3020     0.1704     6.0066 4.6817e+02     7.2871      0.000      0.000    25.3102 0.0000e+00
      0.003      0.012     7.2847     83.914     42.919  43.162005     4.4100     4.2867     0.1704     6.0066 4.7042e+02     7.3171      0.003      0.005    25.2989 0.0000e+00
      0.006      0.009     7.1922     82.778     42.922  43.162679     4.4100     4.2753     0.1704     6.0066 4.6352e+02     7.4374      0.006      0.008    25.2903 0.0000e+00
      0.008      0.006     7.0950     81.838     42.923  43.161893     4.4100     4.2638     0.1704     6.0066 4.6251e+02     7.3773      0.008      0.011    25.2843 0.0000e+00
      0.009      0.004     6.9964     81.153     42.922  43.159437     4.3200     4.2448     0.1704     6.0912 4.6151e+02     7.2871      0.009      0.013    25.2804 0.0000e+00
      0.010      0.003     6.8976     80.665     42.919  43.154655     4.3200     4.2905     0.1704     6.0912 4.6899e+02     7.2871      0.010      0.013    25.2774 0.0000e+00
      0.010      0.002     6.8046     80.263     42.914  43.150235     4.3200     4.2791     0.1704     6.0912 4.5543e+02     7.2720      0.010      0.014    25.2747 0.0000e+00
      0.010      0.001     6.7277     79.857     42.912  43.148961     4.3200     4.2638     0.1704     6.0912 4.4381e+02     7.3171      0.010      0.014    25.2721 0.0000e+00
      0.010      0.000     6.6716     79.415     42.907  43.146531     4.3200     4.1952     0.1704     6.0912 4.5434e+02     7.1668      0.010      0.014    25.2700 0.0000e+00
      0.010      0.000     6.6317     78.955     42.901  43.142297     4.3200     4.2219     0.1278     5.9643 4.5415e+02     7.2270      0.010      0.014    25.2688 0.0000e+00
      0.010      0.000     6.5987     78.523     42.895  43.139093     4.3200     4.2104     0.1278     5.9643 4.7257e+02     7.3021      0.010      0.014    25.2688 0.0000e+00
      0.010      0.000     6.5651     78.183     42.890  43.136064     4.3200     4.2257     0.1278     5.9643 4.9217e+02     7.3773      0.010      0.014    25.2702 0.0000e+00
      0.009      0.000     6.5285     77.991     42.889  43.136364     4.3200     4.2638     0.1278     5.9643 5.0715e+02     7.4374      0.009      0.013    25.2727 0.0000e+00
      0.009      0.001     6.4903     77.945     42.891  43.140075     4.3200     4.3058     0.1278     6.0489 5.2021e+02     7.5726      0.009      0.013    25.2755 0.0000e+00
      0.010      0.002     6.4545     77.997     42.894  43.144222     4.3200     4.2905     0.1278     6.0489 5.1280e+02     7.5877      0.010      0.014    25.2780 0.0000e+00
      0.010      0.002     6.4262     78.102     42.899  43.149913     4.3200     4.2562     0.1278     6.0489 5.0102e+02     7.5426      0.010      0.014    25.2802 0.0000e+00
      0.011      0.003     6.4102     78.240     42.903  43.154702     4.3200     4.0884     0.1278     6.0489 4.9110e+02     7.3773      0.011      0.016    25.2823 0.0000e+00
      0.012      0.004     6.4062     78.384     42.903  43.155905     4.3200     4.0769     0.1704     5.8797 4.6372e+02     7.3472      0.012      0.017    25.2842 0.0000e+00
      0.013      0.004     6.4103     78.472     42.900  43.153840     4.3200     4.0807     0.1704     5.8797 4.6513e+02     7.3021      0.013      0.018    25.2856 0.0000e+00
      0.014      0.004     6.4188     78.455     42.894  43.147959     4.3200     4.0884     0.1704     5.8797 4.5771e+02     7.2720      0.014      0.020    25.2864 0.0000e+00
      0.015      0.005     6.4301     78.336     42.882  43.136693     4.3200     4.2371     0.1704     5.8797 4.4924e+02     7.2119      0.015      0.022    25.2869 0.0000e+00
      0.017      0.005     6.4419     78.158     42.867  43.121000     4.3200     4.2143     0.1278     5.9220 4.4973e+02     7.3472      0.017      0.024    25.2877 0.0000e+00
      0.018      0.005     6.4490     77.960     42.851  43.104620     4.3200     4.2143     0.1278     5.9220 4.5178e+02     7.3472      0.018      0.026    25.2890 0.0000e+00
      0.019      0.004     6.4475     77.738     42.833  43.087148     4.3200     4.2257     0.1278     5.9220 4.6031e+02     7.3171      0.019      0.027    25.2901 0.0000e+00
      0.020      0.004     6.4376     77.461     42.817  43.071849     4.3200     4.1532     0.1278     5.9220 4.6332e+02     7.3773      0.020      0.028    25.2905 0.0000e+00
      0.021      0.004     6.4230     77.125     42.811  43.066532     4.3200     4.1685     0.1278     5.9220 4.5267e+02     7.3021      0.021      0.030    25.2905 0.0000e+00
      0.022      0.004     6.4067     76.769     42.810  43.065814     4.4100     4.1456     0.1704     6.0489 4.5355e+02     7.3171      0.022      0.032    25.2905 0.0000e+00
      0.023      0.005     6.3884     76.452     42.806  43.061582     4.4100     4.1494     0.1704     6.0489 4.5494e+02     7.4524      0.023      0.033    25.2910 0.0000e+00
      0.024      0.005     6.3655     76.232     42.801  43.056667     4.4100     4.1570     0.1704     6.0489 4.5316e+02     7.5426      0.024      0.035    25.2919 0.0000e+00
      0.026      0.005     6.3378     76.140     42.798  43.053722     4.4100     4.1570     0.1704     6.0489 4.5198e+02     7.5877      0.025      0.036    25.2927 0.0000e+00
      0.027      0.005     6.3086     76.179     42.796  43.051963     4.4100     4.1685     0.1704     5.9220 4.5355e+02     7.5276      0.027      0.039    25.2931 0.0000e+00
      0.029      0.006     6.2825     76.350     42.795  43.050919     4.4100     4.1494     0.1704     5.9220 4.5791e+02     7.6478      0.029      0.041    25.2932 0.0000e+00
      0.030      0.006     6.2644     76.645     42.794  43.050312     4.4100     4.2371     0.1704     5.9220 4.5622e+02     7.4073      0.030      0.043    25.2932 0.0000e+00
      0.032      0.005     6.2569     77.013     42.793  43.049981     4.4100     4.1914     0.1704     5.9220 4.5881e+02     7.3622      0.032      0.045    25.2930 0.0000e+00
      0.033      0.005     6.2600     77.380     42.792  43.049836     4.3200     4.2371     0.1704     6.0489 4.5652e+02     7.3322      0.033      0.047    25.2929 0.0000e+00
      0.034      0.005     6.2741     77.688     42.792  43.049840     4.3200     4.2257     0.1704     6.0489 4.5444e+02     7.3171      0.034      0.049    25.2928 0.0000e+00
      0.035      0.004     6.2984     77.914     42.791  43.049994     4.3200     4.1761     0.1704     6.0489 4.5120e+02     7.2270      0.035      0.051    25.2931 0.0000e+00
      0.037      0.004     6.3285     78.066     42.791  43.050339     4.3200     4.1608     0.1704     6.0489 4.4992e+02     7.3322      0.036      0.052    25.2937 0.0000e+00
      0.038      0.004     6.3585     78.154     42.792  43.050966     4.3200     4.1570     0.1704     5.8797 4.4807e+02     7.3171      0.037      0.054    25.2947 0.0000e+00
      0.038      0.004     6.3837     78.179     42.793  43.052043     4.3200     4.1341     0.1704     5.8797 4.4390e+02     7.3171      0.038      0.055    25.2958 0.0000e+00
      0.039      0.003     6.4022     78.129     42.795  43.053858     4.3200     4.2219     0.1704     5.8797 4.4458e+02     7.3171      0.039      0.056    25.2965 0.0000e+00
      0.040      0.003     6.4146     77.994     42.797  43.056893     4.3200     4.2219     0.1704     5.8797 4.4361e+02     7.3622      0.040      0.058    25.2969 0.0000e+00
      0.041      0.003     6.4219     77.766     42.802  43.061958     4.3200     4.2295     0.1704     5.8797 4.4429e+02     7.3171      0.041      0.059    25.2970 0.0000e+00
      0.042      0.002     6.4239     77.438     42.809  43.070405     4.3200     4.2219     0.1704     6.0066 4.4506e+02     7.2270      0.041      0.059    25.2971 0.0000e+00
      0.042      0.002     6.4198     77.011     42.814  43.076560     4.3200     4.2028     0.1704     6.0066 4.4448e+02     7.5877      0.042      0.060    25.2972 0.0000e+00
      0.043      0.002     6.4087     76.501     42.810  43.074141     4.3200     4.2143     0.1704     6.0066 4.4506e+02     7.5276      0.042      0.061    25.2976 0.0000e+00
      0.043      0.001     6.3899     75.939     42.801  43.066464     4.3200     4.2028     0.1704     6.0066 4.4429e+02     7.5726      0.042      0.061    25.2983 0.0000e+00
      0.043      0.001     6.3628     75.356     42.788  43.055446     4.3200     4.2066     0.1704     6.0066 4.4284e+02     7.4674      0.043      0.062    25.2994 0.0000e+00
      0.043      0.000     6.3275     74.783     42.773  43.042110     4.3200     4.2753     0.1704     6.0066 4.4111e+02     7.2570      0.043      0.062    25.3007 0.0000e+00
      0.044      0.000     6.2855     74.240     42.759  43.030825     4.3200     4.2905     0.1704     6.0066 4.4044e+02     7.2871      0.043      0.062    25.3024 0.0000e+00
      0.044     -0.001     6.2391     73.739     42.753  43.026507     4.3200     4.2791     0.1704     6.0066 4.4016e+02     7.2420      0.043      0.062    25.3042 0.0000e+00
      0.043     -0.001     6.1910     73.279     42.751  43.028004     4.3200     4.2677     0.1278     6.0912 4.3882e+02     7.3322      0.043      0.062    25.3063 0.0000e+00
      0.043     -0.002     6.1436     72.857     42.752  43.031753     4.3200     4.2867     0.1278     6.0912 4.3968e+02     7.3021      0.043      0.062    25.3087 0.0000e+00
      0.043     -0.003     6.0987     72.463     42.756  43.038755     4.3200     4.2753     0.1278     6.0912 4.3949e+02     7.3322      0.042      0.061    25.3115 0.0000e+00
      0.042     -0.003     6.0572     72.089     42.758  43.042951     4.3200     4.2600     0.1278     6.0912 4.4131e+02     7.3773      0.041      0.060    25.3144 0.0000e+00
      0.041     -0.004     6.0191     71.733     42.749  43.037536     4.3200     4.2600     0.1278     6.0912 4.3911e+02     7.2570      0.040      0.058    25.3175 0.0000e+00
      0.040     -0.005     5.9840     71.393     42.734  43.025028     4.4100     4.2257     0.1704     5.9220 4.5198e+02     7.3472      0.039      0.057    25.3208 0.0000e+00
      0.038     -0.006     5.9512     71.065     42.712  43.006055     4.4100     4.2371     0.1704     5.9220 4.4661e+02     7.2420      0.038      0.055    25.3241 0.0000e+00
      0.037     -0.008     5.9202     70.745     42.683  42.979519     4.4100     4.2104     0.1704     5.9220 4.4429e+02     7.2720      0.036      0.052    25.3274 0.0000e+00
      0.035     -0.010     5.8906     70.434     42.650  42.950232     4.4100     4.2371     0.1704     5.9220 4.4390e+02     7.3472      0.034      0.050    25.3308 0.0000e+00
      0.032     -0.013     5.8623     70.138     42.616  42.922270     4.4100     4.2715     0.1278     5.9220 4.4352e+02     7.4073      0.032      0.046    25.3342 0.0000e+00
      0.029     -0.017     5.8350     69.861     42.585  42.900065     4.4100     4.2677     0.1278     5.9220 4.3730e+02     7.3171      0.029      0.042    25.3376 0.0000e+00
      0.025     -0.022     5.8084     69.608     42.560  42.889583     4.4100     4.2905     0.1278     5.9220 4.2410e+02     7.3622      0.025      0.036    25.3414 0.0000e+00
      0.019     -0.027     5.7823     69.392     42.537  42.888029     4.4100     4.2829     0.1278     5.9220 4.2995e+02     7.3322      0.019      0.028    25.3462 0.0000e+00
      0.012     -0.033     5.7573     69.224     42.515  42.891027     4.3200     4.2638     0.1278     5.9220 4.5712e+02     7.3021      0.012      0.017    25.3532 0.0000e+00
      0.002     -0.039     5.7334     69.103     42.493  42.895417     4.3200     4.2295     0.1278     5.9220 4.9217e+02     7.3472      0.002      0.003    25.3642 0.0000e+00
     -0.009     -0.044     5.7109     69.021     42.471  42.898408     4.3200     4.2448     0.1278     5.9220 5.1829e+02     7.2871     -0.008     -0.012    25.3814 0.0000e+00
     -0.021     -0.047     5.6906     68.969     42.453  42.900798     4.3200     4.2257     0.1278     5.9220 5.4997e+02     7.3171     -0.021     -0.030    25.4060 0.0000e+00
     -0.034     -0.050     5.6737     68.939     42.439  42.903227     4.3200     4.1952     0.1278     5.8374 6.2235e+02     7.3171     -0.034     -0.049    25.4361 0.0000e+00
     -0.048     -0.050     5.6604     68.918     42.428  42.906343     4.3200     4.2143     0.1278     5.8374 6.7534e+02     7.3622     -0.047     -0.068    25.4675 0.0000e+00
     -0.062     -0.050     5.6507     68.887     42.418  42.907015     4.3200     4.2295     0.1278     5.8374 7.0350e+02     7.3171     -0.061     -0.088    25.4966 0.0000e+00
     -0.075     -0.048     5.6440     68.815     42.403  42.901459     4.3200     4.2066     0.1278     5.8374 7.6771e+02     7.3472     -0.073     -0.106    25.5211 0.0000e+00
     -0.087     -0.046     5.6394     68.686     42.386  42.892157     4.3200     4.2028     0.1278     5.8374 6.6082e+02     7.3472     -0.085     -0.123    25.5411 0.0000e+00
     -0.098     -0.043     5.6361     68.500     42.370  42.884555     4.3200     4.1418     0.1278     6.0489 7.9643e+02     7.3021     -0.096     -0.139    25.5570 0.0000e+00
     -0.108     -0.039     5.6322     68.265     42.362  42.884548     4.3200     4.1647     0.1278     6.0489 7.6755e+02     7.3171     -0.106     -0.154    25.5699 0.0000e+00
     -0.118     -0.036     5.6252     67.997     42.366  42.896100     4.3200     4.1456     0.1278     6.0489 8.3235e+02     7.3773     -0.116     -0.168    25.5810 0.0000e+00
     -0.127     -0.034     5.6136     67.723     42.380  42.918326     4.3200     4.1380     0.1278     6.0489 7.9678e+02     7.2420     -0.124     -0.181    25.5914 0.0000e+00
     -0.135     -0.031     5.5974     67.473     42.403  42.949231     4.4100     4.0960     0.1278     6.0066 7.8782e+02     7.2720     -0.132     -0.192    25.6014 0.0000e+00
     -0.142     -0.028     5.5772     67.285     42.431  42.985169     4.4100     4.1036     0.1278     6.0066 7.8373e+02     7.2720     -0.139     -0.202    25.6108 0.0000e+00
     -0.149     -0.024     5.5544     67.183     42.458  43.019874     4.4100     4.0884     0.1278     6.0066 7.8543e+02     7.2720     -0.146     -0.212    25.6199 0.0000e+00
     -0.155     -0.021     5.5311     67.178     42.483  43.050713     4.4100     4.0846     0.1278     6.0066 7.8885e+02     7.3171     -0.152     -0.221    25.6290 0.0000e+00
     -0.161     -0.017     5.5098     67.284     42.511  43.081950     4.3200     4.3096     0.1278     6.0066 7.9384e+02     7.4825     -0.157     -0.228    25.6381 0.0000e+00
     -0.165     -0.012     5.4935     67.525     42.546  43.117950     4.3200     4.2486     0.1278     6.0066 8.4934e+02     7.5276     -0.161     -0.234    25.6469 0.0000e+00
     -0.167     -0.008     5.4844     67.935     42.594  43.164352     4.3200     4.3020     0.1278     6.0066 8.7748e+02     7.5125     -0.164     -0.238    25.6549 0.0000e+00
     -0.168     -0.004     5.4834     68.537     42.661  43.225605     4.3200     4.2791     0.1278     6.0066 9.0360e+02     7.5726     -0.165     -0.239    25.6612 0.0000e+00
     -0.168     -0.000     5.4917     69.313     42.737  43.292286     4.3200     4.1761     0.1278     5.9643 9.0321e+02     7.5426     -0.165     -0.239    25.6649 0.0000e+00
     -0.167      0.002     5.5113     70.199     42.807  43.350478     4.3200     4.1647     0.1278     5.9643 9.0282e+02     7.5726     -0.164     -0.237    25.6656 0.0000e+00
     -0.165      0.004     5.5451     71.096     42.862  43.393904     4.3200     4.1532     0.1278     5.9643 8.9539e+02     7.6628     -0.162     -0.235    25.6627 0.0000e+00
     -0.164      0.004     5.5950     71.891     42.903  43.426216     4.3200     4.1723     0.1278     5.9643 9.0066e+02     7.5125     -0.161     -0.233    25.6555 0.0000e+00
     -0.163      0.004     5.6595     72.501     42.939  43.456033     4.3200     4.2257     0.1278     5.9643 9.0105e+02     7.3171     -0.160     -0.232    25.6437 0.0000e+00
     -0.162      0.004     5.7335     72.894     42.977  43.487342     4.4100     4.2371     0.1278     5.9643 8.9949e+02     7.2420     -0.159     -0.231    25.6289 0.0000e+00
     -0.161      0.003     5.8082     73.099     43.006  43.508680     4.4100     4.2181     0.1278     5.9643 8.9773e+02     7.3171     -0.158     -0.229    25.6148 0.0000e+00
     -0.160      0.003     5.8743     73.210     42.998  43.488094     4.4100     4.2104     0.1278     5.9643 8.9656e+02     7.2420     -0.157     -0.228    25.6039 0.0000e+00
     -0.160      0.003     5.9250     73.381     42.939  43.410186     4.4100     4.2829     0.1278     5.9643 8.9481e+02     7.3472     -0.156     -0.227    25.5957 0.0000e+00
     -0.159      0.003     5.9580     73.816     42.872  43.313619     4.4100     4.2715     0.1278     6.0066 8.9403e+02     7.3472     -0.156     -0.226    25.5879 0.0000e+00
     -0.158      0.003     5.9759     74.812     42.840  43.241984     4.4100     4.2753     0.1278     6.0066 8.9539e+02     7.3773     -0.155     -0.225    25.5782 0.0000e+00
     -0.158      0.003     5.9866     76.667     42.842  43.197970     4.4100     4.2905     0.1278     6.0066 8.9442e+02     7.2270     -0.155     -0.224    25.5643 0.0000e+00
     -0.157      0.003     6.0031     79.416     42.856  43.169836     4.4100     4.3478     0.1278     6.0066 8.9462e+02     7.5426     -0.154     -0.223    25.5427 0.0000e+00
     -0.156      0.003     6.0426     82.780     42.872  43.150077     4.3200     4.3440     0.1278     6.2181 8.9442e+02     7.6027     -0.153     -0.222    25.5092 0.0000e+00
     -0.155      0.003     6.1296     86.336     42.886  43.137386     4.3200     4.3440     0.1278     6.2181 8.9151e+02     7.4825     -0.152     -0.221    25.4627 0.0000e+00
     -0.155      0.003     6.2878     89.679     42.902  43.132338     4.3200     4.3134     0.1278     6.2181 8.9016e+02     7.5426     -0.152     -0.220    25.4099 0.0000e+00
     -0.154      0.002     6.5193     92.492     42.917  43.133588     4.3200     4.3440     0.1278     6.2181 8.8880e+02     7.6027     -0.151     -0.220    25.3600 0.0000e+00
     -0.154      0.002     6.8005     94.565     42.931  43.137505     4.3200     4.3325     0.1704     6.2181 8.9054e+02     7.5426     -0.151     -0.219    25.3185 0.0000e+00
     -0.153      0.002     7.0966     95.792     42.941  43.141171     4.3200     4.3630     0.1704     6.2181 8.9074e+02     7.5276     -0.150     -0.218    25.2864 0.0000e+00
     -0.153      0.002     7.3743     96.211     42.946  43.141603     4.3200     4.3401     0.1704     6.2181 8.9151e+02     7.5726     -0.150     -0.217    25.2628 0.0000e+00
     -0.152      0.002     7.6078     96.024     42.946  43.138914     4.3200     4.4012     0.1704     6.2181 8.9035e+02     7.6328     -0.149     -0.217    25.2461 0.0000e+00
     -0.152      0.001     7.7797     95.495     42.949  43.140313     4.3200     4.3935     0.1704     6.2181 8.9112e+02     7.4674     -0.149     -0.216    25.2345 0.0000e+00
     -0.152      0.001     7.8816     94.840     42.952  43.142211     4.4100     4.4164     0.1278     6.0489 8.9306e+02     7.5726     -0.149     -0.216    25.2267 0.0000e+00
     -0.151      0.001     7.9167     94.199     42.947  43.137188     4.4100     4.3859     0.1278     6.0489 8.9559e+02     7.6027     -0.148     -0.215    25.2215 0.0000e+00
     -0.151      0.001     7.9018     93.644     42.938  43.127867     4.4100     4.3134     0.1278     6.0489 8.9637e+02     7.5426     -0.148     -0.215    25.2182 0.0000e+00
     -0.151      0.001     7.8585     93.199     42.930  43.119688     4.4100     4.3173     0.1278     6.0489 8.9715e+02     7.6177     -0.148     -0.215    25.2161 0.0000e+00
     -0.151      0.001     7.8047     92.866     42.928  43.118394     4.4100     4.3325     0.1278     6.1335 8.9656e+02     7.5576     -0.148     -0.215    25.2151 0.0000e+00
     -0.151      0.001     7.7521     92.636     42.933  43.123641     4.4100     4.3401     0.1278     6.1335 8.9773e+02     7.5877     -0.148     -0.215    25.2148 0.0000e+00
     -0.151      0.001     7.7064     92.497     42.938  43.128904     4.4100     4.3211     0.1278     6.1335 8.9949e+02     7.5426     -0.148     -0.214    25.2148 0.0000e+00
     -0.151      0.001     7.6697     92.430     42.940  43.131622     4.4100     4.3401     0.1278     6.1335 8.9773e+02     7.5877     -0.148     -0.214    25.2150 0.0000e+00
     -0.150      0.001     7.6422     92.409     42.937  43.128558     4.4100     4.3325     0.1704     6.1758 8.9773e+02     7.6027     -0.147     -0.214    25.2156 0.0000e+00
     -0.150      0.001     7.6232     92.419     42.931  43.122857     4.4100     4.3325     0.1704     6.1758 8.9832e+02     7.5726     -0.147     -0.214    25.2163 0.0000e+00
     -0.150      0.001     7.6117     92.455     42.934  43.124888     4.4100     4.2791     0.1704     6.1758 8.9890e+02     7.3171     -0.147     -0.214    25.2169 0.0000e+00
     -0.150      0.001     7.6061     92.515     42.940  43.131228     4.4100     4.2715     0.1704     6.1758 8.9871e+02     7.3171     -0.147     -0.213    25.2172 0.0000e+00
     -0.150      0.001     7.6044     92.589     42.941  43.131681     4.4100     4.2524     0.1704     6.1758 8.9969e+02     7.3472     -0.147     -0.213    25.2172 0.0000e+00
     -0.150      0.000     7.6052     92.666     42.935  43.126369     4.4100     4.2677     0.1278     6.1335 8.9910e+02     7.2119     -0.147     -0.213    25.2170 0.0000e+00
     -0.150      0.000     7.6081     92.736     42.931  43.121798     4.4100     4.3173     0.1278     6.1335 8.9851e+02     7.2570     -0.147     -0.213    25.2168 0.0000e+00
     -0.150      0.000     7.6131     92.792     42.930  43.120713     4.4100     4.3516     0.1278     6.1335 8.9578e+02     7.3171     -0.147     -0.213    25.2166 0.0000e+00
     -0.150      0.000     7.6192     92.838     42.932  43.122825     4.4100     4.3363     0.1278     6.1335 8.9403e+02     7.3622     -0.147     -0.213    25.2164 0.0000e+00
     -0.150      0.000     7.6256     92.891     42.937  43.128697     4.4100     4.3287     0.1704     6.0912 8.9812e+02     7.3773     -0.147     -0.213    25.2163 0.0000e+00
     -0.150      0.000     7.6314     92.963     42.944  43.135931     4.4100     4.3516     0.1704     6.0912 8.9988e+02     7.6177     -0.147     -0.213    25.2163 0.0000e+00
     -0.150      0.001     7.6359     93.058     42.950  43.142495     4.4100     4.3516     0.1704     6.0912 9.0008e+02     7.5276     -0.147     -0.213    25.2165 0.0000e+00
     -0.150      0.001     7.6397     93.175     42.957  43.150140     4.4100     4.3249     0.1704     6.0912 9.0066e+02     7.5125     -0.147     -0.213    25.2169 0.0000e+00
     -0.150      0.001     7.6440     93.312     42.963  43.156941     4.4100     4.3363     0.1704     6.1758 9.0008e+02     7.5726     -0.147     -0.213    25.2173 0.0000e+00
     -0.149      0.001     7.6498     93.474     42.966  43.160749     4.4100     4.3440     0.1704     6.1758 9.0047e+02     7.0466     -0.146     -0.212    25.2177 0.0000e+00
     -0.149      0.001     7.6576     93.654     42.968  43.162581     4.4100     4.3173     0.1704     6.1758 8.9890e+02     7.1217     -0.146     -0.212    25.2183 0.0000e+00
     -0.149      0.001     7.6671     93.836     42.968  43.162924     4.4100     4.3287     0.1704     6.1758 9.0027e+02     7.0767     -0.146     -0.212    25.2189 0.0000e+00
     -0.149      0.001     7.6783     94.009     42.967  43.161871     4.4100     4.3096     0.1704     6.1758 8.9832e+02     7.0316     -0.146     -0.212    25.2194 0.0000e+00
     -0.149      0.001     7.6916     94.164     42.964  43.159140     4.4100     4.2867     0.1704     6.1758 8.9890e+02     7.2720     -0.146     -0.212    25.2199 0.0000e+00
     -0.148      0.001     7.7063     94.300     42.958  43.154004     4.4100     4.2791     0.1704     6.1758 9.0243e+02     7.3322     -0.145     -0.211    25.2203 0.0000e+00
     -0.148      0.001     7.7213     94.423     42.953  43.149054     4.4100     4.2638     0.1704     6.1758 8.9988e+02     7.3622     -0.145     -0.211    25.2205 0.0000e+00
     -0.148      0.001     7.7355     94.536     42.951  43.146934     4.4100     4.2829     0.1704     6.1758 8.9929e+02     7.3171     -0.145     -0.211    25.2207 0.0000e+00
     -0.148      0.001     7.7483     94.637     42.947  43.143115     4.4100     4.3478     0.1704     6.1335 9.0047e+02     7.7981     -0.145     -0.211    25.2211 0.0000e+00
     -0.148      0.001     7.7594     94.724     42.940  43.136580     4.4100     4.3440     0.1704     6.1335 8.9949e+02     7.7530     -0.145     -0.210    25.2216 0.0000e+00
     -0.148      0.001     7.7694     94.808     42.936  43.133510     4.4100     4.3096     0.1704     6.1335 8.9812e+02     7.8282     -0.145     -0.210    25.2221 0.0000e+00
     -0.148      0.001     7.7787     94.896     42.936  43.133087     4.4100     4.3592     0.1704     6.1335 8.9695e+02     7.8883     -0.145     -0.210    25.2224 0.0000e+00
     -0.148      0.001     7.7869     94.987     42.934  43.131235     4.3200     4.3440     0.1704     5.9220 8.9695e+02     7.9334     -0.145     -0.210    25.2227 0.0000e+00
     -0.147      0.001     7.7940     95.083     42.935  43.131424     4.3200     4.3363     0.1704     5.9220 8.9637e+02     8.0085     -0.144     -0.209    25.2231 0.0000e+00
     -0.147      0.001     7.8009     95.184     42.937  43.133704     4.3200     4.3516     0.1704     5.9220 8.9871e+02     7.9634     -0.144     -0.209    25.2233 0.0000e+00
     -0.147      0.001     7.8081     95.292     42.938  43.134719     4.3200     4.3211     0.1704     5.9220 8.9676e+02     7.9334     -0.144     -0.209    25.2235 0.0000e+00
     -0.147      0.001     7.8156     95.402     42.942  43.138704     4.4100     4.4660     0.1704     6.0912 8.9812e+02     7.7530     -0.144     -0.209    25.2234 0.0000e+00
     -0.147      0.001     7.8235     95.503     42.949  43.146721     4.4100     4.4584     0.1704     6.0912 8.9793e+02     7.7680     -0.144     -0.209    25.2234 0.0000e+00
     -0.147      0.001     7.8319     95.592     42.959  43.156945     4.4100     4.4775     0.1704     6.0912 8.9793e+02     7.8131     -0.144     -0.209    25.2234 0.0000e+00
     -0.147      0.000     7.8407     95.670     42.970  43.168140     4.4100     4.4546     0.1704     6.0912 8.9539e+02     7.8131     -0.144     -0.208    25.2234 0.0000e+00
     -0.146      0.000     7.8497     95.740     42.973  43.171405     4.4100     4.4737     0.1704     6.0912 8.9559e+02     8.0837     -0.143     -0.208    25.2236 0.0000e+00
     -0.146      0.000     7.8580     95.803     42.969  43.167610     4.4100     4.4622     0.1704     6.0912 8.9462e+02     8.0536     -0.143     -0.208    25.2238 0.0000e+00
     -0.146 2.8947e-07     7.8652     95.863     42.966  43.163667     4.4100     4.4698     0.1704     6.0912 8.9442e+02     7.9634     -0.143     -0.208    25.2242 0.0000e+00
     -0.146 3.7218e-07     7.8716     95.926     42.962  43.158527     4.4100     4.4584     0.1704     6.0912 8.9326e+02     8.0536     -0.143     -0.208    25.2247 0.0000e+00
     -0.146 4.7852e-07     7.8773     95.998     42.963  43.158741     4.4100     4.4012     0.1704     6.0912 8.9248e+02     7.7530     -0.143     -0.208    25.2249 0.0000e+00
     -0.146 6.1524e-07     7.8825     96.083     42.969  43.164369     4.3200     4.4202     0.1704     6.0489 8.9093e+02     7.7831     -0.143     -0.208    25.2248 0.0000e+00
     -0.146 7.9102e-07     7.8875     96.179     42.971  43.165022     4.3200     4.4012     0.1704     6.0489 8.9229e+02     7.8131     -0.143     -0.208    25.2243 0.0000e+00
     -0.146      0.000     7.8928     96.283     42.968  43.160875     4.3200     4.4050     0.1704     6.0489 8.9209e+02     7.6779     -0.143     -0.208    25.2234 0.0000e+00
     -0.146      0.000     7.8989     96.389     42.966  43.158747     4.3200     4.4431     0.1704     6.0489 8.9151e+02     8.0236     -0.143     -0.208    25.2223 0.0000e+00
     -0.146      0.000     7.9061     96.496     42.970  43.162033     4.3200     4.4584     0.1278     6.0066 8.9054e+02     8.0085     -0.143     -0.208    25.2210 0.0000e+00
     -0.146      0.000     7.9142     96.597     42.976  43.167646     4.3200     4.4584     0.1278     6.0066 8.8996e+02     7.9634     -0.143     -0.208    25.2198 0.0000e+00
     -0.146      0.000     7.9229     96.689     42.982  43.173122     4.3200     4.4355     0.1278     6.0066 8.8938e+02     8.0987     -0.143     -0.207    25.2187 0.0000e+00
     -0.146      0.000     7.9318     96.772     42.984  43.175958     4.3200     4.5194     0.1278     6.0066 8.8919e+02     8.0236     -0.143     -0.207    25.2179 0.0000e+00
     -0.146      0.000     7.9406     96.849     42.981  43.172947     4.4100     4.4813     0.1704     5.8374 8.9093e+02     8.0536     -0.143     -0.207    25.2173 0.0000e+00
     -0.146      0.000     7.9490     96.922     42.975  43.167251     4.4100     4.5194     0.1704     5.8374 8.8900e+02     8.0837     -0.143     -0.207    25.2171 0.0000e+00
     -0.146      0.000     7.9565     96.993     42.970  43.161311     4.4100     4.5461     0.1704     5.8374 8.8900e+02     7.9183     -0.143     -0.207    25.2171 0.0000e+00
     -0.146      0.000     7.9633     97.061     42.962  43.153543     4.4100     4.5385     0.1704     5.8374 8.8803e+02     8.5045     -0.143     -0.207    25.2172 0.0000e+00
     -0.146      0.000     7.9697     97.129     42.955  43.145840     4.4100     4.5271     0.1704     5.9220 8.8822e+02     8.5195     -0.143     -0.207    25.2172 0.0000e+00
     -0.146      0.000     7.9757     97.198     42.953  43.144072     4.4100     4.5042     0.1704     5.9220 8.8707e+02     8.5346     -0.143     -0.207    25.2172 0.0000e+00
     -0.146      0.000     7.9816     97.268     42.957  43.147766     4.4100     4.5004     0.1704     5.9220 8.8861e+02     8.4745     -0.143     -0.207    25.2170 0.0000e+00
     -0.146      0.000     7.9873     97.336     42.960  43.149984     4.4100     4.5194     0.1704     5.9220 8.9016e+02     8.0236     -0.143     -0.207    25.2167 0.0000e+00
     -0.146      0.000     7.9929     97.397     42.957  43.147354     4.4100     4.4889     0.1704     5.9220 8.8996e+02     7.9935     -0.143     -0.207    25.2163 0.0000e+00
     -0.146      0.000     7.9986     97.450     42.953  43.143137     4.4100     4.5232     0.1278     6.0489 8.8880e+02     7.9484     -0.143     -0.207    25.2160 0.0000e+00
     -0.145      0.000     8.0044     97.508     42.950  43.140172     4.4100     4.5156     0.1278     6.0489 8.8996e+02     8.0236     -0.142     -0.207    25.2157 0.0000e+00
     -0.145      0.000     8.0100     97.582     42.947  43.137667     4.4100     4.5080     0.1278     6.0489 8.8900e+02     7.7981     -0.142     -0.207    25.2155 0.0000e+00
     -0.145      0.000     8.0150     97.669     42.948  43.138917     4.4100     4.5271     0.1278     6.0489 8.8996e+02     7.7981     -0.142     -0.207    25.2153 0.0000e+00
     -0.145      0.000     8.0194     97.762     42.953  43.144255     4.3200     4.5309     0.1278     6.0066 8.8784e+02     7.8282     -0.142     -0.207    25.2153 0.0000e+00
     -0.145      0.000     8.0242     97.847     42.955  43.147181     4.3200     4.5194     0.1278     6.0066 8.8784e+02     7.8282     -0.142     -0.207    25.2153 0.0000e+00
     -0.145      0.000     8.0303     97.913     42.956  43.148474     4.3200     4.4470     0.1278     6.0066 8.8707e+02     7.7831     -0.142     -0.207    25.2155 0.0000e+00
     -0.145      0.000     8.0374     97.971     42.956  43.148479     4.3200     4.4584     0.1278     6.0066 8.8630e+02     7.8432     -0.142     -0.207    25.2158 0.0000e+00
     -0.145      0.000     8.0450     98.030     42.947  43.139273     4.4100     4.4775     0.1278     6.2181 8.8649e+02     7.7981     -0.142     -0.207    25.2163 0.0000e+00
     -0.145      0.000     8.0519     98.084     42.935  43.126325     4.4100     4.4508     0.1278     6.2181 8.8630e+02     7.7380     -0.142     -0.207    25.2169 0.0000e+00
     -0.145      0.001     8.0572     98.134     42.930  43.122033     4.4100     4.3668     0.1278     6.2181 8.8169e+02     7.7680     -0.142     -0.206    25.2174 0.0000e+00
     -0.145      0.001     8.0620     98.187     42.929  43.121290     4.4100     4.3325     0.1278     6.2181 8.8073e+02     7.8883     -0.142     -0.206    25.2176 0.0000e+00
     -0.145      0.001     8.0669     98.239     42.923  43.115973     4.4100     4.3401     0.1278     6.2181 8.7958e+02     7.7981     -0.142     -0.206    25.2176 0.0000e+00
     -0.145      0.001     8.0713     98.287     42.915  43.108625     4.4100     4.3401     0.1278     6.1758 8.7824e+02     7.7380     -0.142     -0.206    25.2174 0.0000e+00
     -0.145      0.001     8.0755     98.329     42.910  43.105214     4.4100     4.3745     0.1278     6.1758 8.7882e+02     7.8582     -0.142     -0.205    25.2173 0.0000e+00
     -0.144      0.002     8.0798     98.365     42.912  43.108790     4.4100     4.4241     0.1278     6.1758 8.7882e+02     7.7530     -0.141     -0.205    25.2176 0.0000e+00
     -0.144      0.002     8.0839     98.398     42.918  43.116347     4.4100     4.4355     0.1278     6.1758 8.7786e+02     7.7831     -0.141     -0.204    25.2184 0.0000e+00
     -0.143      0.003     8.0877     98.433     42.923  43.121973     4.4100     4.4012     0.1278     6.0489 8.7824e+02     7.7981     -0.140     -0.204    25.2197 0.0000e+00
     -0.142      0.004     8.0909     98.475     42.923  43.123208     4.4100     4.3363     0.1278     6.0489 8.7863e+02     7.4975     -0.139     -0.203    25.2213 0.0000e+00
     -0.141      0.005     8.0936     98.530     42.919  43.120380     4.4100     4.3363     0.1278     6.0489 8.7824e+02     7.5276     -0.138     -0.201    25.2230 0.0000e+00
     -0.140      0.007     8.0961     98.597     42.915  43.116698     4.4100     4.3440     0.1278     6.0489 8.7748e+02     7.5276     -0.137     -0.199    25.2246 0.0000e+00
     -0.138      0.009     8.0988     98.674     42.914  43.115143     4.4100     4.3516     0.1704     5.9220 8.7615e+02     7.4975     -0.135     -0.197    25.2260 0.0000e+00
     -0.136      0.011     8.1020     98.750     42.910  43.111336     4.4100     4.3020     0.1704     5.9220 8.7748e+02     7.8282     -0.133     -0.194    25.2273 0.0000e+00
     -0.133      0.014     8.1063     98.814     42.905  43.104264     4.4100     4.3401     0.1704     5.9220 8.7863e+02     7.6929     -0.130     -0.190    25.2283 0.0000e+00
     -0.129      0.018     8.1118     98.859     42.899  43.096002     4.4100     4.3173     0.1704     5.9220 8.7901e+02     7.8582     -0.127     -0.184    25.2288 0.0000e+00
     -0.125      0.022     8.1182     98.892     42.895  43.088311     4.4100     4.3440     0.1704     6.0066 8.7691e+02     7.7530     -0.122     -0.178    25.2287 0.0000e+00
     -0.119      0.028     8.1245     98.922     42.899  43.087064     4.4100     4.1952     0.1704     6.0066 8.7254e+02     7.9634     -0.116     -0.169    25.2281 0.0000e+00
     -0.111      0.033     8.1300     98.943     42.913  43.095889     4.4100     4.1875     0.1704     6.0066 8.7008e+02     8.0386     -0.109     -0.159    25.2265 0.0000e+00
     -0.102      0.039     8.1341     98.957     42.934  43.113178     4.4100     4.2028     0.1704     6.0066 8.9734e+02     7.9935     -0.100     -0.146    25.2235 0.0000e+00
     -0.092      0.045     8.1376     98.976     42.955  43.131653     4.4100     4.2219     0.1704     6.0066 5.8612e+02     8.0236     -0.090     -0.130    25.2189 0.0000e+00
     -0.079      0.052     8.1408     99.003     42.965  43.140392     4.4100     4.0769     0.1278     6.0066 6.3519e+02     7.9484     -0.077     -0.113    25.2133 0.0000e+00
     -0.065      0.058     8.1435     99.021     42.959  43.133799     4.4100     4.0922     0.1278     6.0066 5.9524e+02     7.9634     -0.064     -0.093    25.2075 0.0000e+00
     -0.050      0.064     8.1453     99.005     42.944  43.118042     4.4100     4.1036     0.1278     6.0066 5.5248e+02     8.0386     -0.049     -0.071    25.2028 0.0000e+00
     -0.033      0.070     8.1474     98.945     42.927  43.100805     4.4100     4.1036     0.1278     6.0066 5.2646e+02     7.9484     -0.032     -0.046    25.1998 0.0000e+00
     -0.014      0.074     8.1498     98.854     42.913  43.085418     4.4100     4.0922     0.1704     6.0912 4.6031e+02     7.7530     -0.013     -0.019    25.1984 0.0000e+00
      0.007      0.075     8.1514     98.758     42.900  43.071740     4.4100     4.0769     0.1704     6.0912 3.8829e+02     7.8883      0.007      0.010    25.1978 0.0000e+00
      0.029      0.074     8.1501     98.674     42.886  43.056123     4.4100     4.0731     0.1704     6.0912 3.2590e+02     7.8733      0.028      0.041    25.1973 0.0000e+00
      0.049      0.070     8.1453     98.605     42.874  43.042326     4.4100     4.0960     0.1704     6.0912 2.6621e+02     7.6929      0.048      0.070    25.1964 0.0000e+00
      0.068      0.064     8.1380     98.544     42.868  43.034596     4.4100     4.1494     0.0852     6.1335 2.1731e+02     7.5426      0.066      0.096    25.1952 0.0000e+00
      0.083      0.057     8.1303     98.497     42.862  43.026909     4.4100     4.1608     0.0852     6.1335 1.7856e+02     7.5877      0.081      0.118    25.1938 0.0000e+00
      0.096      0.049     8.1236     98.475     42.857  43.021176     4.4100     4.1647     0.0852     6.1335 1.5803e+02     7.5726      0.094      0.136    25.1923 0.0000e+00
      0.107      0.042     8.1181     98.478     42.863  43.027758     4.4100     4.1608     0.0852     6.1335 1.4506e+02     7.5276      0.104      0.151    25.1905 0.0000e+00
      0.116      0.036     8.1135     98.492     42.874  43.040482     4.4100     4.0846     0.1704     6.1335 1.3227e+02     7.5426      0.113      0.164    25.1885 0.0000e+00
      0.124      0.032     8.1099     98.504     42.878  43.046895     4.4100     4.0846     0.1704     6.1335 1.2664e+02     7.6027      0.121      0.176    25.1867 0.0000e+00
      0.131      0.028     8.1082     98.500     42.878  43.048705     4.4100     4.0998     0.1704     6.1335 1.3252e+02     7.5276      0.129      0.187    25.1855 0.0000e+00
      0.138      0.026     8.1084     98.478     42.874  43.046396     4.4100     4.0846     0.1704     6.1335 1.3668e+02     7.6779      0.135      0.196    25.1856 0.0000e+00
      0.144      0.024     8.1094     98.444     42.862  43.035389     4.4100     4.2257     0.1704     6.1335 1.4114e+02     7.5726      0.141      0.204    25.1872 0.0000e+00
      0.149      0.023     8.1099     98.408     42.845  43.016712     4.4100     4.2143     0.1278     5.9643 1.4343e+02     7.5726      0.146      0.212    25.1901 0.0000e+00
      0.154      0.023     8.1092     98.380     42.828  42.997272     4.4100     4.2333     0.1278     5.9643 1.4201e+02     7.5576      0.151      0.219    25.1932 0.0000e+00
      0.160      0.024     8.1070     98.365     42.817  42.983772     4.4100     4.1952     0.1278     5.9643 1.3977e+02     7.5426      0.157      0.227    25.1953 0.0000e+00
      0.166      0.024     8.1041     98.360     42.813  42.976574     4.4100     4.2791     0.1278     5.9643 1.3635e+02     7.5426      0.163      0.236    25.1957 0.0000e+00
      0.173      0.024     8.1014     98.358     42.812  42.973758     4.4100     4.2791     0.1704     6.1335 1.2917e+02     7.5726      0.169      0.245    25.1944 0.0000e+00
      0.179      0.023     8.0995     98.353     42.814  42.974572     4.4100     4.2944     0.1704     6.1335 1.2694e+02     7.5877      0.176      0.255    25.1918 0.0000e+00
      0.185      0.022     8.0987     98.338     42.819  42.979235     4.4100     4.3096     0.1704     6.1335 1.2389e+02     7.5426      0.182      0.264    25.1888 0.0000e+00
      0.191      0.021     8.0987     98.301     42.824  42.985028     4.4100     4.2791     0.1704     6.1335 1.2489e+02     7.1969      0.187      0.272    25.1858 0.0000e+00
      0.196      0.019     8.0989     98.233     42.828  42.989531     4.4100     4.2791     0.1704     6.1758 1.2811e+02     7.2871      0.192      0.279    25.1833 0.0000e+00
      0.200      0.017     8.0987     98.141     42.832  42.993947     4.4100     4.2905     0.1704     6.1758 1.2979e+02     7.3773      0.197      0.285    25.1815 0.0000e+00
      0.204      0.015     8.0976     98.040     42.832  42.995491     4.4100     4.2867     0.1704     6.1758 1.3118e+02     7.2420      0.200      0.290    25.1809 0.0000e+00
      0.208      0.013     8.0945     97.946     42.827  42.990612     4.4100     4.5156     0.1704     6.1758 1.3161e+02     7.3472      0.204      0.295    25.1813 0.0000e+00
      0.211      0.011     8.0888     97.865     42.822  42.985935     4.4100     4.5500     0.1278     6.0489 1.3172e+02     7.3322      0.207      0.300    25.1823 0.0000e+00
      0.213      0.009     8.0810     97.800     42.824  42.988135     4.4100     4.5194     0.1278     6.0489 1.3189e+02     7.3773      0.209      0.303    25.1835 0.0000e+00
      0.215      0.007     8.0726     97.755     42.829  42.993838     4.4100     4.5271     0.1278     6.0489 1.3075e+02     7.2119      0.211      0.306    25.1844 0.0000e+00
      0.216      0.006     8.0648     97.737     42.835  43.000602     4.4100     4.5118     0.1278     6.0489 1.2953e+02     7.3472      0.212      0.308    25.1850 0.0000e+00
      0.218      0.004     8.0581     97.751     42.840  43.006269     4.4100     4.5194     0.1278     6.0489 1.2772e+02     7.2720      0.214      0.310    25.1853 0.0000e+00
      0.219      0.003     8.0527     97.795     42.838  43.004424     4.4100     4.5118     0.1704     6.2604 1.2716e+02     7.3773      0.215      0.311    25.1856 0.0000e+00
      0.219      0.003     8.0489     97.863     42.831  42.998539     4.4100     4.5309     0.1704     6.2604 1.2725e+02     7.2420      0.215      0.312    25.1859 0.0000e+00
      0.220      0.002     8.0474     97.947     42.830  42.998931     4.4100     4.3096     0.1704     6.2604 1.2777e+02     7.3923      0.216      0.313    25.1866 0.0000e+00
      0.220      0.002     8.0484     98.037     42.832  43.001743     4.4100     4.3249     0.1704     6.2604 1.2869e+02     7.3021      0.216      0.313    25.1875 0.0000e+00
      0.221      0.002     8.0518     98.126     42.834  43.003761     4.4100     4.3287     0.1278     6.2181 1.2990e+02     7.2119      0.216      0.314    25.1886 0.0000e+00
      0.221      0.002     8.0572     98.200     42.839  43.009486     4.4100     4.3325     0.1278     6.2181 1.3135e+02     7.2871      0.217      0.314    25.1898 0.0000e+00
      0.221      0.001     8.0639     98.241     42.841  43.012521     4.4100     4.5652     0.1278     6.2181 1.3241e+02     7.3021      0.217      0.315    25.1909 0.0000e+00
      0.221      0.001     8.0713     98.245     42.839  43.009713     4.4100     4.5652     0.1278     6.2181 1.3204e+02     7.3773      0.217      0.315    25.1918 0.0000e+00
      0.222      0.002     8.0785     98.223     42.837  43.008237     4.4100     4.5957     0.1704     6.1758 1.3149e+02     7.3171      0.218      0.315    25.1927 0.0000e+00
      0.222      0.002     8.0844     98.198     42.837  43.007701     4.4100     4.5805     0.1704     6.1758 1.3086e+02     7.2420      0.218      0.316    25.1934 0.0000e+00
      0.222      0.002     8.0878     98.183     42.834  43.003997     4.4100     4.4050     0.1704     6.1758 1.2928e+02     7.2720      0.218      0.316    25.1938 0.0000e+00
      0.223      0.002     8.0880     98.180     42.831  43.000101     4.4100     4.4012     0.1704     6.1758 1.2844e+02     7.3622      0.219      0.317    25.1940 0.0000e+00
      0.223      0.002     8.0862     98.200     42.830  42.998937     4.4100     4.3935     0.1704     6.1758 1.2777e+02     7.3923      0.219      0.318    25.1938 0.0000e+00
      0.224      0.003     8.0842     98.250     42.828  42.996232     4.4100     4.4088     0.1704     5.7951 1.2833e+02     7.3472      0.220      0.319    25.1934 0.0000e+00
      0.225      0.003     8.0830     98.324     42.820  42.987302     4.4100     4.3707     0.1704     5.7951 1.2802e+02     7.3021      0.220      0.320    25.1928 0.0000e+00
      0.226      0.004     8.0830     98.406     42.811  42.977691     4.4100     4.3630     0.1704     5.7951 1.2839e+02     7.2720      0.221      0.321    25.1923 0.0000e+00
      0.227      0.004     8.0847     98.478     42.806  42.972759     4.4100     4.3668     0.1704     5.7951 1.2864e+02     7.2119      0.223      0.323    25.1917 0.0000e+00
      0.228      0.005     8.0889     98.522     42.802  42.967231     4.4100     4.3287     0.1704     5.8797 1.3018e+02     7.3472      0.224      0.324    25.1910 0.0000e+00
      0.229      0.005     8.0951     98.532     42.791  42.955668     4.4100     4.4508     0.1704     5.8797 1.3027e+02     7.3322      0.225      0.326    25.1902 0.0000e+00
      0.231      0.006     8.1020     98.514     42.772  42.934988     4.4100     4.4508     0.1704     5.8797 1.2990e+02     7.2720      0.226      0.328    25.1893 0.0000e+00
      0.232      0.008     8.1080     98.477     42.746  42.907600     4.4100     4.4508     0.1704     5.8797 1.2897e+02     7.3171      0.228      0.330    25.1885 0.0000e+00
      0.234      0.009     8.1119     98.430     42.723  42.882051     4.4100     4.4355     0.1278     6.0066 1.2800e+02     7.3472      0.230      0.333    25.1876 0.0000e+00
      0.237      0.011     8.1128     98.381     42.703  42.859452     4.4100     4.3173     0.1278     6.0066 1.2769e+02     7.2720      0.232      0.337    25.1866 0.0000e+00
      0.240      0.014     8.1115     98.334     42.681  42.833777     4.4100     4.3325     0.1278     6.0066 1.2648e+02     7.4073      0.235      0.341    25.1851 0.0000e+00
      0.243      0.016     8.1088     98.284     42.652  42.802142     4.4100     4.3516     0.1278     6.0066 1.2505e+02     7.3472      0.239      0.346    25.1829 0.0000e+00
      0.248      0.019     8.1053     98.220     42.620  42.767996     4.4100     4.3363     0.1278     6.0066 1.2530e+02     7.3622      0.243      0.352    25.1801 0.0000e+00
      0.253      0.023     8.1018     98.126     42.591  42.736103     4.4100     4.3935     0.1278     6.0066 1.2617e+02     7.6027      0.248      0.359    25.1768 0.0000e+00
      0.259      0.027     8.0985     97.994     42.567  42.709846     4.4100     4.3935     0.1278     6.0066 1.2626e+02     7.5726      0.254      0.368    25.1735 0.0000e+00
      0.266      0.033     8.0948     97.821     42.549  42.688166     4.4100     4.4012     0.1278     6.0066 1.2678e+02     7.5726      0.261      0.378    25.1704 0.0000e+00
      0.274      0.040     8.0899     97.617     42.524  42.659338     4.4100     4.4012     0.1278     6.0066 1.2797e+02     7.5576      0.269      0.390    25.1677 0.0000e+00
      0.285      0.048     8.0826     97.392     42.482  42.613693     4.5000     4.4241     0.1704     5.9643 1.2741e+02     7.7530      0.279      0.405    25.1648 0.0000e+00
      0.297      0.056     8.0722     97.150     42.419  42.545002     4.5000     4.3897     0.1704     5.9643 1.2800e+02     7.7981      0.292      0.423    25.1616 0.0000e+00
      0.313      0.065     8.0585     96.881     42.341  42.460703     4.5000     4.3974     0.1704     5.9643 1.2659e+02     7.7079      0.307      0.445    25.1578 0.0000e+00
      0.331      0.073     8.0423     96.567     42.277  42.389825     4.5000     4.3859     0.1704     5.9643 1.1615e+02     7.8733      0.325      0.471    25.1536 0.0000e+00
      0.352      0.080     8.0245     96.188     42.241  42.345168     4.5000     4.5728     0.1278     6.1335 1.1138e+02     6.8061      0.345      0.500    25.1487 0.0000e+00
      0.374      0.086     8.0054     95.730     42.227  42.322745     4.5000     4.5614     0.1278     6.1335 1.0419e+02     6.8813      0.367      0.532    25.1428 0.0000e+00
      0.397      0.091     7.9843     95.167     42.233  42.320539     4.5000     4.5957     0.1278     6.1335 1.0127e+02     6.8211      0.389      0.564    25.1355 0.0000e+00
      0.420      0.095     7.9597     94.461     42.250  42.330037     4.5000     4.5843     0.1278     6.1335 1.0050e+02     6.8813      0.412      0.598    25.1267 0.0000e+00
      0.444      0.099     7.9299     93.574     42.274  42.345847     4.4100     4.3935     0.1278     5.3721 9.6896e+01     5.8442      0.436      0.632    25.1172 0.0000e+00
      0.470      0.102     7.8935     92.486     42.315  42.376148     4.4100     4.3935     0.1278     5.3721 9.2654e+01     5.8292      0.461      0.669    25.1077 0.0000e+00
      0.497      0.104     7.8483     91.205     42.379  42.429017     4.4100     4.4202     0.1278     5.3721 8.3913e+01     5.9043      0.487      0.707    25.0984 0.0000e+00
      0.525      0.105     7.7914     89.767     42.475  42.510631     4.4100     4.3935     0.1278     5.3721 7.7582e+01     5.8893      0.515      0.747    25.0890 0.0000e+00
      0.553      0.106     7.7197     88.230     42.611  42.626902     4.3200     4.3363     0.1278     4.6530 7.5487e+01     3.5746      0.542      0.787    25.0788 0.0000e+00
      0.580      0.107     7.6315     86.652     42.786  42.773174     4.3200     4.3401     0.1278     4.6530 7.6345e+01     3.4995      0.568      0.825    25.0670 0.0000e+00
      0.606      0.106     7.5276     85.093     42.977  42.927037     4.3200     4.3249     0.1278     4.6530 7.3945e+01     3.4995      0.594      0.862    25.0533 0.0000e+00
      0.633      0.106     7.4112     83.590     43.149  43.056212     4.3200     4.3211     0.1278     4.6530 6.8977e+01     3.5446      0.621      0.900    25.0362 0.0000e+00
      0.661      0.104     7.2873     82.117     43.280  43.145615     4.3200     4.3363     0.1278     4.6530 6.4765e+01     3.3642      0.648      0.940    25.0128 0.0000e+00
      0.689      0.102     7.1612     80.563     43.372  43.201251     4.1400     4.0311     0.0852     3.8493 5.9619e+01     2.7179      0.675      0.979    24.9796 0.0000e+00
      0.716      0.097     7.0379     78.749     43.431  43.230031     4.1400     4.0464     0.0852     3.8493 5.6503e+01     2.8081      0.701      1.017    24.9365 0.0000e+00
      0.741      0.092     6.9198     76.484     43.466  43.241609     4.1400     4.0273     0.0852     3.8493 5.3295e+01     2.7780      0.726      1.053    24.8879 0.0000e+00
      0.763      0.086     6.8038     73.663     43.490  43.248978     4.1400     4.0197     0.0852     3.8493 5.2025e+01     2.8532      0.748      1.085    24.8400 0.0000e+00
      0.783      0.080     6.6803     70.329     43.510  43.256083     4.0500     3.9816     0.0852     1.9881 5.2206e+01     2.7029      0.768      1.114    24.7976 0.0000e+00
      0.802      0.075     6.5341     66.633     43.531  43.264821     4.0500     3.9930     0.0852     1.9881 5.1732e+01     2.6879      0.786      1.140    24.7630 0.0000e+00
      0.819      0.072     6.3493     62.793     43.559  43.279501     4.0500     3.9510     0.0852     1.9881 5.1084e+01     2.5676      0.803      1.165    24.7367 0.0000e+00
      0.836      0.070     6.1173     59.084     43.589  43.294131     4.0500     3.9663     0.0852     1.9881 5.0565e+01     2.6127      0.820      1.189    24.7173 0.0000e+00
      0.854      0.070     5.8420     55.786     43.611  43.298743     4.0500     3.9091     0.0426     1.6497 4.9221e+01     2.3121      0.837      1.214    24.7022 0.0000e+00
      0.872      0.070     5.5363     53.090     43.628  43.298528     4.0500     3.8862     0.0426     1.6497 4.7353e+01     2.3722      0.855      1.240    24.6885 0.0000e+00
      0.890      0.069     5.2187     51.057     43.646  43.301355     4.0500     3.9091     0.0426     1.6497 4.5448e+01     2.3271      0.873      1.266    24.6734 0.0000e+00
      0.909      0.067     4.9120     49.628     43.661  43.304012     4.0500     3.9091     0.0426     1.6497 4.3505e+01     2.4173      0.891      1.292    24.6558 0.0000e+00
      0.926      0.064     4.6395     48.665     43.674  43.307208     4.0500     3.6077     0.0852     1.3536 4.1169e+01     2.2069      0.908      1.317    24.6365 0.0000e+00
      0.942      0.059     4.4169     48.009     43.685  43.311794     4.0500     3.5963     0.0852     1.3536 4.1116e+01     2.1017      0.924      1.340    24.6169 0.0000e+00
      0.957      0.055     4.2493     47.516     43.692  43.315031     4.0500     3.6001     0.0852     1.3536 4.0223e+01     2.1618      0.938      1.361    24.5993 0.0000e+00
      0.970      0.050     4.1315     47.074     43.702  43.321745     4.0500     3.5963     0.0852     1.3536 3.9780e+01     2.0716      0.951      1.379    24.5849 0.0000e+00
      0.981      0.045     4.0522     46.626     43.716  43.333726     4.0500     3.6192     0.0852     1.3536 3.9350e+01     1.9814      0.962      1.396    24.5742 0.0000e+00
      0.992      0.040     3.9982     46.175     43.730  43.346243     4.0500     3.6230     0.0852     1.0998 3.8857e+01     1.8762      0.973      1.410    24.5671 0.0000e+00
      1.001      0.037     3.9576     45.744     43.737  43.350748     4.0500     3.6230     0.0852     1.0998 3.8647e+01     1.9814      0.982      1.424    24.5627 0.0000e+00
      1.010      0.034     3.9210     45.358     43.732  43.344479     4.0500     3.6153     0.0852     1.0998 3.8462e+01     2.0416      0.990      1.436    24.5599 0.0000e+00
      1.018      0.033     3.8838     45.042     43.727  43.337652     4.0500     3.6611     0.0852     1.0998 3.8370e+01     1.8762      0.998      1.448    24.5576 0.0000e+00
      1.025      0.032     3.8464     44.802     43.728  43.336370     4.0500     3.6687     0.0852     1.0998 3.8196e+01     1.9514      1.006      1.459    24.5554 0.0000e+00
      1.033      0.032     3.8107     44.630     43.734  43.340293     4.0500     3.6878     0.0852     1.0998 3.8055e+01     2.0115      1.013      1.469    24.5531 0.0000e+00
      1.041      0.034     3.7787     44.507     43.748  43.350466     4.0500     3.6573     0.0852     1.0998 3.8229e+01     1.8462      1.021      1.480    24.5508 0.0000e+00
      1.049      0.037     3.7525     44.412     43.770  43.365640     4.0500     3.7603     0.0852     1.0998 3.8521e+01     1.9363      1.029      1.492    24.5487 0.0000e+00
      1.058      0.042     3.7327     44.328     43.794  43.377974     4.0500     3.7717     0.0426     1.1844 3.8563e+01     1.8762      1.038      1.505    24.5470 0.0000e+00
      1.069      0.047     3.7184     44.243     43.817  43.382830     4.0500     3.7946     0.0426     1.1844 3.8254e+01     1.9814      1.048      1.520    24.5446 0.0000e+00
      1.082      0.052     3.7084     44.146     43.842  43.385467     4.0500     3.7450     0.0426     1.1844 3.6995e+01     1.8762      1.061      1.538    24.5403 0.0000e+00
      1.096      0.056     3.7011     44.020     43.872  43.390548     4.0500     3.7183     0.0426     1.1844 3.5406e+01     1.9213      1.075      1.559    24.5324 0.0000e+00
      1.112      0.059     3.6950     43.842     43.902  43.395463     4.0500     3.7183     0.0426     1.1844 3.3476e+01     1.9363      1.091      1.582    24.5190 0.0000e+00
      1.129      0.061     3.6893     43.574     43.923  43.393599     4.0500     3.7221     0.0426     1.2267 3.1878e+01     1.8762      1.107      1.606    24.4993 0.0000e+00
      1.145      0.062     3.6829     43.162     43.930  43.380493     4.0500     3.7298     0.0426     1.2267 3.1397e+01     1.8612      1.123      1.629    24.4742 0.0000e+00
      1.161      0.063     3.6743     42.560     43.922  43.352650     4.0500     3.9816     0.0426     1.2267 3.1112e+01     1.9814      1.138      1.651    24.4460 0.0000e+00
      1.176      0.063     3.6614     41.752     43.896  43.306608     4.0500     3.9816     0.0426     1.2267 3.0896e+01     1.8762      1.153      1.672    24.4179 0.0000e+00
      1.191      0.064     3.6407     40.754     43.862  43.247919     4.0500     3.9930     0.0426     0.8883 3.0417e+01     1.8762      1.168      1.694    24.3921 0.0000e+00
      1.208      0.066     3.6078     39.610     43.831  43.188669     4.0500     3.9816     0.0426     0.8883 2.9563e+01     2.0265      1.184      1.718    24.3688 0.0000e+00
      1.225      0.067     3.5589     38.393     43.812  43.138813     4.0500     5.8546     0.0426     0.8883 2.8043e+01     2.7480      1.201      1.742    24.3465 0.0000e+00
      1.243      0.068     3.4928     37.181     43.809  43.104866     4.0500     5.8660     0.0426     0.8883 2.6908e+01     2.6879      1.219      1.768    24.3225 0.0000e+00
      1.261      0.068     3.4110     36.058     43.820  43.085699     4.0500     5.8508     0.0426     1.1421 2.5932e+01     2.6578      1.237      1.794    24.2944 0.0000e+00
      1.279      0.067     3.3172     35.103     43.839  43.076201     4.0500     5.8584     0.0426     1.1421 2.5177e+01     2.6428      1.255      1.820    24.2615 0.0000e+00
      1.297      0.064     3.2173     34.364     43.859  43.069874     4.0500     7.0219     0.0426     1.1421 2.4269e+01     2.7029      1.272      1.844    24.2260 0.0000e+00
      1.313      0.061     3.1179     33.853     43.872  43.061066     4.0500     7.0181     0.0426     1.1421 2.3877e+01     2.6578      1.288      1.868    24.1905 0.0000e+00
      1.328      0.058     3.0257     33.555     43.876  43.047430     4.0500     7.0295     0.0852     1.3959 2.3696e+01     2.6879      1.302      1.889    24.1561 0.0000e+00
      1.342      0.055     2.9474     33.431     43.864  43.021364     4.0500     7.0219     0.0852     1.3959 2.3609e+01     2.7179      1.316      1.909    24.1235 0.0000e+00
      1.355      0.052     2.8870     33.409     43.837  42.979881     4.0500     7.0219     0.0852     1.3959 2.3573e+01     2.4925      1.329      1.927    24.0939 0.0000e+00
      1.367      0.052     2.8454     33.399     43.802  42.927768     4.0500     7.0295     0.0852     1.3959 2.3440e+01     2.3722      1.341      1.945    24.0695 0.0000e+00
      1.380      0.052     2.8215     33.319     43.755  42.859053     4.0500     7.0448     0.0852     1.3959 2.3278e+01     2.4474      1.353      1.962    24.0500 0.0000e+00
      1.392      0.054     2.8119     33.114     43.696  42.771260     4.0500     7.0028     0.0426     1.1844 2.3167e+01     2.4774      1.366      1.981    24.0332 0.0000e+00
      1.406      0.056     2.8110     32.764     43.647  42.686544     4.0500    10.4743     0.0426     1.1844 2.2777e+01     2.6277      1.379      2.000    24.0163 0.0000e+00
      1.421      0.058     2.8112     32.273     43.616  42.617975     4.0500    10.5086     0.0426     1.1844 2.2297e+01     2.5376      1.394      2.021    23.9966 0.0000e+00
      1.436      0.060     2.8057     31.656     43.576  42.539339     4.0500    10.5048     0.0426     1.1844 2.1733e+01     2.6127      1.409      2.043    23.9704 0.0000e+00
      1.452      0.061     2.7902     30.927     43.509  42.431648     4.1400    10.4895     0.1278     1.6497 2.1470e+01     2.6578      1.424      2.066    23.9354 0.0000e+00
      1.468      0.062     2.7628     30.092     43.446  42.325618     4.1400    16.9708     0.1278     1.6497 2.1197e+01     3.0786      1.440      2.089    23.8936 0.0000e+00
      1.485      0.063     2.7237     29.141     43.423  42.258348     4.1400    16.9822     0.1278     1.6497 2.0827e+01     3.0786      1.456      2.112    23.8496 0.0000e+00
      1.501      0.062     2.6737     28.075     43.437  42.229729     4.1400    16.9555     0.1278     1.6497 2.0242e+01     3.0786      1.472      2.135    23.8045 0.0000e+00
      1.517      0.062     2.6145     26.918     43.465  42.220239     4.2300    16.9899     0.1704     3.0456 2.0225e+01     3.1087      1.488      2.158    23.7565 0.0000e+00
      1.532      0.062     2.5463     25.713     43.488  42.209517     4.2300    18.3975     0.1704     3.0456 2.0176e+01     3.1989      1.503      2.180    23.7049 0.0000e+00
      1.547      0.062     2.4682     24.509     43.506  42.192722     4.2300    18.3823     0.1704     3.0456 2.0212e+01     3.2740      1.518      2.201    23.6528 0.0000e+00
      1.563      0.063     2.3800     23.355     43.545  42.187168     4.2300    18.4128     0.1704     3.0456 2.0229e+01     3.2740      1.533      2.223    23.6044 0.0000e+00
      1.579      0.064     2.2837     22.300     43.609  42.195332     4.2300    18.4166     0.1704     3.1302 1.9989e+01     3.3342      1.548      2.245    23.5623 0.0000e+00
      1.595      0.065     2.1830     21.382     43.683  42.205523     4.2300    18.3594     0.1704     3.1302 1.9289e+01     2.8081      1.565      2.270    23.5250 0.0000e+00
      1.613      0.066     2.0823     20.614     43.763  42.218474     4.2300    18.3556     0.1704     3.1302 1.8797e+01     3.0185      1.582      2.295    23.4853 0.0000e+00
      1.631      0.066     1.9860     19.985     43.847  42.235653     4.2300    18.3327     0.1704     3.1302 1.8365e+01     2.8231      1.599      2.319    23.4357 0.0000e+00
      1.648      0.066     1.8985     19.474     43.933  42.255695     4.2300    18.3403     0.1704     3.1302 1.8194e+01     2.7480      1.616      2.344    23.3744 0.0000e+00
      1.664      0.065     1.8228     19.054     44.021  42.279980     4.2300    19.6602     0.1278     3.1302 1.7962e+01     2.8832      1.632      2.367    23.3049 0.0000e+00
      1.680      0.064     1.7597     18.705     44.103  42.301113     4.2300    19.6716     0.1278     3.1302 1.7780e+01     2.8382      1.648      2.390    23.2316 0.0000e+00
      1.696      0.062     1.7085     18.413     44.166  42.308878     4.2300    19.6640     0.1278     3.1302 1.7341e+01     2.7029      1.663      2.413    23.1582 0.0000e+00
      1.713      0.060     1.6671     18.168     44.209  42.305342     4.2300    19.7060     0.1278     3.1302 1.6712e+01     2.7931      1.679      2.436    23.0868 0.0000e+00
      1.728      0.057     1.6334     17.967     44.239  42.297486     4.1400    19.5686     0.1704     2.9187 1.6449e+01     2.9133      1.695      2.458    23.0180 0.0000e+00
      1.743      0.054     1.6055     17.803     44.268  42.295099     4.1400    19.5610     0.1704     2.9187 1.6356e+01     2.7480      1.709      2.479    22.9526 0.0000e+00
      1.756      0.051     1.5822     17.668     44.304  42.305470     4.1400    19.5496     0.1704     2.9187 1.6246e+01     2.8532      1.722      2.497    22.8931 0.0000e+00
      1.768      0.047     1.5627     17.555     44.344  42.319476     4.1400    19.5763     0.1704     2.9187 1.6239e+01     2.8983      1.733      2.514    22.8420 0.0000e+00
      1.779      0.044     1.5467     17.459     44.374  42.321041     4.2300    20.0340     0.1704     2.9187 1.6099e+01     3.0786      1.745      2.530    22.8002 0.0000e+00
      1.790      0.042     1.5336     17.374     44.398  42.314542     4.2300    20.0417     0.1704     2.9187 1.5890e+01     2.9734      1.755      2.546    22.7668 0.0000e+00
      1.800      0.039     1.5228     17.289     44.424  42.310132     4.2300    20.0607     0.1704     2.9187 1.5576e+01     3.1538      1.766      2.561    22.7388 0.0000e+00
      1.810      0.035     1.5139     17.199     44.439  42.302671     4.2300    20.0607     0.1704     2.9187 1.5191e+01     3.1087      1.775      2.575    22.7117 0.0000e+00
      1.820      0.031     1.5065     17.099     44.443  42.294129     4.2300    25.1534     0.1278     2.9610 1.5034e+01     3.5746      1.784      2.588    22.6816 0.0000e+00
      1.827      0.027     1.5001     16.991     44.441  42.290153     4.2300    25.1687     0.1278     2.9610 1.5024e+01     3.5295      1.792      2.599    22.6484 0.0000e+00
      1.833      0.023     1.4937     16.877     44.435  42.289683     4.2300    25.1420     0.1278     2.9610 1.4994e+01     3.5145      1.798      2.607    22.6161 0.0000e+00
      1.838      0.019     1.4866     16.762     44.428  42.292594     4.2300    25.1687     0.1278     2.9610 1.4910e+01     3.5446      1.803      2.614    22.5910 0.0000e+00
      1.842      0.015     1.4784     16.648     44.418  42.295702     4.2300    19.4695     0.1278     2.9610 1.4832e+01     3.2740      1.806      2.620    22.5773 0.0000e+00
      1.845      0.012     1.4691     16.538     44.403  42.295873     4.0500    19.4275     0.1704     2.7918 1.4752e+01     3.2740      1.810      2.624    22.5750 0.0000e+00
      1.848      0.010     1.4591     16.436     44.383  42.293153     4.0500    19.4542     0.1704     2.7918 1.4720e+01     3.2440      1.812      2.628    22.5808 0.0000e+00
      1.850      0.009     1.4488     16.340     44.358  42.286818     4.0500    19.4237     0.1704     2.7918 1.4714e+01     3.3642      1.814      2.631    22.5915 0.0000e+00
      1.852      0.007     1.4386     16.246     44.331  42.279141     4.0500    19.2101     0.1704     2.7918 1.4759e+01     3.0335      1.816      2.634    22.6057 0.0000e+00
      1.853      0.007     1.4287     16.154     44.305  42.276001     4.1400    19.1948     0.1278     3.1302 1.4698e+01     3.0636      1.818      2.636    22.6224 0.0000e+00
      1.855      0.006     1.4193     16.062     44.287  42.280523     4.1400    19.1795     0.1278     3.1302 1.4746e+01     3.0486      1.819      2.638    22.6404 0.0000e+00
      1.856      0.006     1.4105     15.970     44.275  42.289952     4.1400    19.1910     0.1278     3.1302 1.4707e+01     3.0335      1.820      2.640    22.6594 0.0000e+00
      1.858      0.006     1.4019     15.880     44.265  42.298880     4.1400    18.4853     0.1278     3.1302 1.4784e+01     3.2440      1.822      2.642    22.6806 0.0000e+00
      1.859      0.007     1.3933     15.789     44.257  42.305725     4.1400    18.4700     0.1704     2.7918 1.4794e+01     3.2289      1.823      2.644    22.7045 0.0000e+00
      1.861      0.008     1.3847     15.698     44.252  42.312314     4.1400    18.4433     0.1704     2.7918 1.4784e+01     3.2590      1.825      2.647    22.7295 0.0000e+00
      1.863      0.009     1.3762     15.605     44.248  42.316441     4.1400    18.4624     0.1704     2.7918 1.4832e+01     3.2891      1.827      2.649    22.7529 0.0000e+00
      1.865      0.011     1.3678     15.511     44.244  42.319208     4.1400    19.8204     0.1704     2.7918 1.4891e+01     3.5295      1.829      2.653    22.7734 0.0000e+00
      1.868      0.014     1.3596     15.419     44.249  42.329277     4.1400    19.8013     0.1704     2.7918 1.4858e+01     3.4694      1.832      2.657    22.7903 0.0000e+00
      1.871      0.017     1.3514     15.329     44.267  42.349334     4.1400    19.7975     0.1704     2.9187 1.4829e+01     3.4243      1.835      2.662    22.8031 0.0000e+00
      1.876      0.022     1.3431     15.238     44.297  42.376803     4.1400    19.8319     0.1704     2.9187 1.4768e+01     3.5596      1.840      2.668    22.8124 0.0000e+00
      1.881      0.027     1.3349     15.147     44.347  42.415046     4.1400    18.3556     0.1704     2.9187 1.4810e+01     2.9734      1.845      2.676    22.8195 0.0000e+00
      1.888      0.034     1.3268     15.063     44.435  42.474263     4.1400    18.3823     0.1704     2.9187 1.4669e+01     3.1538      1.852      2.686    22.8254 0.0000e+00
      1.897      0.041     1.3189     14.988     44.569  42.554396     4.1400    18.4280     0.1278     2.8341 1.4590e+01     3.0185      1.861      2.699    22.8289 0.0000e+00
      1.909      0.048     1.3111     14.919     44.720  42.627283     4.1400    18.4051     0.1278     2.8341 1.4319e+01     3.0035      1.872      2.715    22.8277 0.0000e+00
      1.923      0.054     1.3036     14.841     44.849  42.660844     4.1400    22.6433     0.1278     2.8341 1.3761e+01     3.3342      1.885      2.735    22.8173 0.0000e+00
      1.939      0.058     1.2970     14.742     44.951  42.660063     4.1400    22.6395     0.1278     2.8341 1.2980e+01     3.2891      1.901      2.758    22.7895 0.0000e+00
      1.956      0.061     1.2918     14.607     45.037  42.644536     4.1400    22.6090     0.1278     3.0033 1.2550e+01     3.2440      1.918      2.782    22.7365 0.0000e+00
      1.972      0.061     1.2878     14.429     45.111  42.620027     4.1400    22.6281     0.1278     3.0033 1.2406e+01     3.3342      1.934      2.805    22.6569 0.0000e+00
      1.988      0.060     1.2835     14.206     45.187  42.595844     4.1400    24.0281     0.1278     3.0033 1.2158e+01     3.3041      1.950      2.828    22.5569 0.0000e+00
      2.003      0.058     1.2775     13.938     45.284  42.581387     4.1400    24.0472     0.1278     3.0033 1.2021e+01     3.3041      1.965      2.849    22.4480 0.0000e+00
      2.018      0.055     1.2685     13.634     45.411  42.580721     4.1400    24.0548     0.1278     3.1302 1.1748e+01     3.2891      1.979      2.870    22.3401 0.0000e+00
      2.032      0.052     1.2554     13.313     45.558  42.593662     4.1400    24.0357     0.1278     3.1302 1.1533e+01     3.2440      1.992      2.890    22.2361 0.0000e+00
      2.045      0.048     1.2384     12.997     45.698  42.607805     4.1400    19.3131     0.1278     3.1302 1.1246e+01     3.3342      2.005      2.908    22.1304 0.0000e+00
      2.057      0.044     1.2178     12.703     45.803  42.611064     4.1400    19.3359     0.1278     3.1302 1.0961e+01     3.3342      2.017      2.926    22.0130 0.0000e+00
      2.068      0.039     1.1942     12.442     45.872  42.604304     4.1400    19.3321     0.1278     3.1302 1.0725e+01     3.2289      2.028      2.942    21.8811 0.0000e+00
      2.078      0.033     1.1693     12.218     45.911  42.593646     4.0500    19.3054     0.1278     4.6953 1.0536e+01     3.2740      2.037      2.955    21.7437 0.0000e+00
      2.085      0.028     1.1443     12.028     45.928  42.584169     4.0500    16.8678     0.1278     4.6953 1.0463e+01     2.7480      2.045      2.966    21.6163 0.0000e+00
      2.091      0.023     1.1207     11.871     45.934  42.581270     4.0500    16.8678     0.1278     4.6953 1.0518e+01     2.7480      2.051      2.974    21.5117 0.0000e+00
      2.096      0.019     1.0995     11.743     45.930  42.584178     4.0500    16.8296     0.1278     4.6953 1.0442e+01     2.7931      2.056      2.981    21.4343 0.0000e+00
      2.100      0.016     1.0808     11.641     45.917  42.585744     4.0500    16.8678     0.1278     5.4567 1.0418e+01     2.7029      2.059      2.986    21.3829 0.0000e+00
      2.102      0.014     1.0646     11.563     45.905  42.586388     4.0500    15.6051     0.1278     5.4567 1.0632e+01     2.7480      2.062      2.990    21.3545 0.0000e+00
      2.105      0.013     1.0509     11.503     45.904  42.590244     4.0500    15.6318     0.1278     5.4567 1.0603e+01     2.8532      2.064      2.994    21.3461 0.0000e+00
      2.108      0.013     1.0395     11.454     45.913  42.594381     4.0500    15.6051     0.1278     5.4567 1.0370e+01     2.8081      2.067      2.998    21.3531 0.0000e+00
      2.111      0.014     1.0302     11.410     45.935  42.595938     4.0500    15.6166     0.1278     4.9491 1.0424e+01     2.7480      2.070      3.002    21.3674 0.0000e+00
      2.114      0.015     1.0230     11.364     45.968  42.595331     4.0500    16.4863     0.1278     4.9491 1.0438e+01     2.9584      2.074      3.007    21.3800 0.0000e+00
      2.118      0.016     1.0176     11.302     46.010  42.596356     4.0500    16.5016     0.1278     4.9491 1.0088e+01     2.9885      2.077      3.013    21.3858 0.0000e+00
      2.122      0.018     1.0133     11.226     46.053  42.599286     4.0500    16.4749     0.1278     4.9491 9.9723e+00     3.0185      2.082      3.019    21.3810 0.0000e+00
      2.127      0.019     1.0099     11.138     46.088  42.600937     4.0500    16.4978     0.1278     5.0760 9.8389e+00     2.9885      2.086      3.025    21.3609 0.0000e+00
      2.132      0.021     1.0064     11.045     46.116  42.605710     4.0500    12.0154     0.1278     5.0760 9.8004e+00     3.3642      2.091      3.032    21.3268 0.0000e+00
      2.137      0.023     1.0018     10.950     46.141  42.614877     4.0500    12.0078     0.1278     5.0760 9.8282e+00     3.2740      2.096      3.040    21.2858 0.0000e+00
      2.143      0.026     0.9958     10.857     46.162  42.626920     4.0500    12.0459     0.1278     5.0760 9.6065e+00     3.3041      2.102      3.048    21.2457 0.0000e+00
      2.150      0.029     0.9887     10.769     46.184  42.641088     4.0500    12.0307     0.1278     5.0760 9.3267e+00     3.3492      2.108      3.057    21.2124 0.0000e+00
      2.157      0.032     0.9808     10.689     46.208  42.653234     4.0500    12.0459     0.1278     4.9914 9.1660e+00     3.2440      2.116      3.068    21.1886 0.0000e+00
      2.166      0.036     0.9727     10.617     46.245  42.662637     4.0500    12.0955     0.1278     4.9914 9.0473e+00     3.3642      2.124      3.080    21.1739 0.0000e+00
      2.175      0.041     0.9646     10.544     46.315  42.675768     4.0500    12.0803     0.1278     4.9914 9.0198e+00     3.3642      2.133      3.094    21.1657 0.0000e+00
      2.186      0.046     0.9568     10.462     46.429  42.696128     4.0500    12.0688     0.1278     4.9914 8.9573e+00     3.3492      2.143      3.109    21.1598 0.0000e+00
      2.198      0.052     0.9499     10.369     46.574  42.721215     4.0500    11.4241     0.0852     7.7409 8.5652e+00     3.1989      2.155      3.126    21.1491 0.0000e+00
      2.212      0.057     0.9440     10.268     46.738  42.753750     4.0500    11.4165     0.0852     7.7409 8.3447e+00     3.1838      2.169      3.146    21.1231 0.0000e+00
      2.228      0.063     0.9385     10.165     46.924  42.802404     4.0500    11.4356     0.0852     7.7409 7.9000e+00     3.4394      2.184      3.168    21.0682 0.0000e+00
      2.244      0.068     0.9328     10.061     47.148  42.878167     4.0500    11.3822     0.0852     7.7409 7.7723e+00     3.3342      2.201      3.192    20.9780 0.0000e+00
      2.262      0.072     0.9266      9.956     47.420  42.985387     3.9600     7.3652     0.0852     8.5446 7.4693e+00     2.5526      2.219      3.218    20.8626 0.0000e+00
      2.282      0.077     0.9198      9.850     47.743  43.126895     3.9600     7.3576     0.0852     8.5446 7.2897e+00     2.6277      2.237      3.245    20.7371 0.0000e+00
      2.302      0.080     0.9129      9.744     48.116  43.308720     3.9600     7.3538     0.0852     8.5446 6.9691e+00     2.6127      2.257      3.274    20.6085 0.0000e+00
      2.323      0.084     0.9059      9.640     48.540  43.533773     3.9600     7.3958     0.0852     8.5446 6.6265e+00     2.6578      2.278      3.304    20.4738 0.0000e+00
      2.345      0.087     0.8990      9.541     49.020  43.810548     3.8700     5.0344     0.0852     8.2062 6.4939e+00     1.7710      2.299      3.335    20.3274 0.0000e+00
      2.367      0.090     0.8922      9.440     49.589  44.163315     3.8700     5.0802     0.0852     8.2062 6.1679e+00     1.6357      2.322      3.367    20.1707 0.0000e+00
      2.391      0.093     0.8854      9.327     50.282  44.614813     3.8700     5.0459     0.0852     8.2062 5.8992e+00     1.6357      2.345      3.401    20.0103 0.0000e+00
      2.415      0.096     0.8788      9.195     51.054  45.118999     3.8700     5.0649     0.0852     8.2062 5.5667e+00     1.6207      2.368      3.435    19.8513 0.0000e+00
      2.440      0.099     0.8724      9.044     51.816  45.596323     3.8700     3.7946     0.0852     8.2062 5.2804e+00     1.7860      2.393      3.471    19.6955 0.0000e+00
      2.466      0.101     0.8658      8.882     52.536  46.025451     3.7800     3.7984     0.0426     6.6834 4.9525e+00     1.7259      2.418      3.507    19.5404 0.0000e+00
      2.492      0.102     0.8582      8.709     53.188  46.390027     3.7800     3.7946     0.0426     6.6834 4.6309e+00     1.7410      2.444      3.545    19.3781 0.0000e+00
      2.519      0.102     0.8490      8.526     53.731  46.658460     3.7800     3.7679     0.0426     6.6834 4.2601e+00     1.6808      2.470      3.583    19.2012 0.0000e+00
      2.545      0.101     0.8382      8.333     54.159  46.834948     3.7800     2.8676     0.0426     6.6834 3.9131e+00     1.6658      2.496      3.621    19.0115 0.0000e+00
      2.571      0.099     0.8264      8.144     54.486  46.938801     3.7800     2.8371     0.0426     4.1031 3.6781e+00     1.6357      2.522      3.658    18.8162 0.0000e+00
      2.597      0.097     0.8136      7.974     54.715  46.977891     3.7800     2.8524     0.0426     4.1031 3.5156e+00     1.6658      2.547      3.694    18.6200 0.0000e+00
      2.621      0.095     0.7996      7.830     54.865  46.970563     3.7800     2.8638     0.0426     4.1031 3.4400e+00     1.6959      2.570      3.728    18.4272 0.0000e+00
      2.644      0.093     0.7845      7.713     54.968  46.938636     3.7800     2.5739     0.0426     4.1031 3.3081e+00     2.1768      2.593      3.761    18.2441 0.0000e+00
      2.667      0.091     0.7693      7.625     55.005  46.861705     3.8700     2.5663     0.0426     2.3265 3.1325e+00     2.1167      2.616      3.794    18.0776 0.0000e+00
      2.690      0.090     0.7555      7.570     54.930  46.695470     3.8700     2.5548     0.0426     2.3265 2.9966e+00     2.1317      2.639      3.827    17.9312 0.0000e+00
      2.713      0.090     0.7439      7.537     54.755  46.445140     3.8700     2.5434     0.0426     2.3265 2.8698e+00     2.1468      2.661      3.859    17.8049 0.0000e+00
      2.736      0.091     0.7344      7.492     54.575  46.188615     3.8700     2.5434     0.0426     2.3265 2.7718e+00     3.1087      2.683      3.892    17.6946 0.0000e+00
      2.759      0.091     0.7276      7.403     54.491  46.008085     3.8700     2.5548     0.0426     2.3265 2.7772e+00     2.9734      2.705      3.924    17.5946 0.0000e+00
      2.782      0.092     0.7238      7.255     54.510  45.910888     3.7800     2.5625     0.0852     2.2842 2.6121e+00     3.0937      2.728      3.957    17.5000 0.0000e+00
      2.806      0.091     0.7220      7.061     54.556  45.837414     3.7800     2.5548     0.0852     2.2842 2.4340e+00     2.9885      2.752      3.992    17.4072 0.0000e+00
      2.830      0.090     0.7192      6.841     54.586  45.752213     3.7800     2.3107     0.0852     2.2842 2.3539e+00     3.5746      2.776      4.026    17.3117 0.0000e+00
      2.854      0.089     0.7120      6.613     54.607  45.664267     3.7800     2.2878     0.0852     2.2842 2.2572e+00     3.4694      2.799      4.060    17.2115 0.0000e+00
      2.877      0.086     0.6992      6.402     54.605  45.560025     3.7800     2.3221     0.0852     2.1573 2.1617e+00     3.4995      2.821      4.092    17.1085 0.0000e+00
      2.898      0.083     0.6820      6.232     54.555  45.411689     3.7800     2.2764     0.0852     2.1573 2.1286e+00     3.5295      2.842      4.123    17.0055 0.0000e+00
      2.919      0.081     0.6621      6.128     54.455  45.211402     3.7800     2.1200     0.0852     2.1573 2.1093e+00     3.9955      2.862      4.151    16.9043 0.0000e+00
      2.938      0.080     0.6414      6.110     54.317  44.967177     3.7800     2.1238     0.0852     2.1573 2.0951e+00     3.9804      2.882      4.179    16.8069 0.0000e+00
      2.958      0.079     0.6222      6.193     54.159  44.695125     3.9600     2.1352     0.0852     1.8612 2.0336e+00     4.0857      2.901      4.207    16.7126 0.0000e+00
      2.978      0.080     0.6070      6.395     53.993  44.407895     3.9600     2.1085     0.0852     1.8612 2.0056e+00     3.9504      2.920      4.235    16.6149 0.0000e+00
      2.998      0.082     0.5983      6.690     53.818  44.108143     3.9600     1.8605     0.0852     1.8612 1.9650e+00     5.3332      2.940      4.264    16.5069 0.0000e+00
      3.019      0.084     0.5982      6.952     53.636  43.799149     3.9600     1.8949     0.0852     1.8612 1.8987e+00     5.4384      2.961      4.294    16.3868 0.0000e+00
      3.041      0.086     0.6082      7.050     53.463  43.497576     4.0500     1.8987     0.0852     1.4382 1.8294e+00     5.3482      2.982      4.325    16.2559 0.0000e+00
      3.063      0.087     0.6299      6.948     53.342  43.239897     4.0500     1.8720     0.0852     1.4382 1.7991e+00     5.4083      3.005      4.357    16.1168 0.0000e+00
      3.086      0.087     0.6610      6.662     53.317  43.064380     4.0500     1.4447     0.0852     1.4382 1.7635e+00     8.4745      3.027      4.390    15.9718 0.0000e+00
      3.109      0.087     0.6889      6.232     53.389  42.973749     4.0500     1.4447     0.0852     1.4382 1.6793e+00     8.5045      3.049      4.422    15.8232 0.0000e+00
      3.132      0.085     0.7006      5.718     53.525  42.947790     4.0500     1.4562     0.0852     1.4382 1.6547e+00     8.4745      3.071      4.454    15.6738 0.0000e+00
      3.154      0.082     0.6923      5.197     53.686  42.955801     4.1400     1.4486     0.1278     1.2267 1.6276e+00     8.5346      3.093      4.486    15.5258 0.0000e+00
      3.174      0.079     0.6657      4.761     53.810  42.946421     4.1400     1.3036     0.1278     1.2267 1.6468e+00     9.6769      3.113      4.515    15.3809 0.0000e+00
      3.194      0.076     0.6244      4.489     53.858  42.885444     4.1400     1.3227     0.1278     1.2267 1.6163e+00     9.6468      3.132      4.543    15.2431 0.0000e+00
      3.212      0.074     0.5744      4.390     53.850  42.784346     4.1400     1.3150     0.1278     1.2267 1.6048e+00     9.6769      3.150      4.569    15.1169 0.0000e+00
      3.230      0.072     0.5233      4.414     53.858  42.693432     4.2300     1.3227     0.1704     0.9729 1.5672e+00     9.6919      3.168      4.595    15.0040 0.0000e+00
      3.248      0.071     0.4806      4.505     53.969  42.677612     4.2300     1.1319     0.1704     0.9729 1.5761e+00    11.1799      3.185      4.620    14.9030 0.0000e+00
      3.266      0.071     0.4541      4.627     54.229  42.772290     4.2300     1.1548     0.1704     0.9729 1.5658e+00    11.0897      3.203      4.645    14.8110 0.0000e+00
      3.284      0.070     0.4451      4.759     54.601  42.955157     4.2300     1.1281     0.1704     0.9729 1.5140e+00    11.0296      3.221      4.671    14.7231 0.0000e+00
      3.303      0.070     0.4485      4.898     54.987  43.152137     4.3200     1.1243     0.1704     0.8460 1.4940e+00    11.0897      3.239      4.697    14.6335 0.0000e+00
      3.321      0.070     0.4589      5.045     55.282  43.281026     4.3200     1.1014     0.1704     0.8460 1.4670e+00    11.6608      3.257      4.723    14.5378 0.0000e+00
      3.339      0.070     0.4725      5.200     55.431  43.296938     4.3200     1.0366     0.1704     0.8460 1.4414e+00    11.5406      3.274      4.748    14.4370 0.0000e+00
      3.356      0.070     0.4870      5.361     55.467  43.223926     4.3200     1.0594     0.1704     0.8460 1.4374e+00    11.6007      3.291      4.773    14.3359 0.0000e+00
      3.373      0.070     0.5023      5.523     55.452  43.109882     4.3200     1.0709     0.2556     0.7614 1.4414e+00    11.6158      3.308      4.798    14.2384 0.0000e+00
      3.391      0.071     0.5185      5.669     55.396  42.964018     4.3200     0.7619     0.2556     0.7614 1.3688e+00    12.2621      3.326      4.824    14.1448 0.0000e+00
      3.410      0.072     0.5354      5.787     55.321  42.806870     4.3200     0.7543     0.2556     0.7614 1.3414e+00    12.3673      3.344      4.850    14.0530 0.0000e+00
      3.428      0.072     0.5531      5.863     55.263  42.669838     4.3200     0.7619     0.2556     0.7614 1.3295e+00    12.2470      3.362      4.876    13.9610 0.0000e+00
      3.447      0.073     0.5709      5.895     55.217  42.550056     4.3200     0.8039     0.2556     0.7614 1.3408e+00    12.2921      3.381      4.903    13.8682 0.0000e+00
      3.466      0.072     0.5872      5.896     55.178  42.443317     4.5000     0.6932     0.2130     0.6345 1.3200e+00    12.6679      3.399      4.930    13.7759 0.0000e+00
      3.485      0.072     0.6005      5.884     55.157  42.356818     4.5000     0.6932     0.2130     0.6345 1.2802e+00    12.8332      3.417      4.956    13.6861 0.0000e+00
      3.503      0.071     0.6096      5.880     55.156  42.291265     4.5000     0.6856     0.2130     0.6345 1.2663e+00    12.6829      3.435      4.982    13.6022 0.0000e+00
      3.521      0.070     0.6139      5.908     55.163  42.237100     4.5000     0.6894     0.2130     0.6345 1.2154e+00    12.7881      3.453      5.008    13.5262 0.0000e+00
      3.538      0.069     0.6149      5.986     55.180  42.193745     4.4100     0.6589     0.2556     0.5076 1.2204e+00    12.4424      3.470      5.032    13.4569 0.0000e+00
      3.555      0.069     0.6145      6.125     55.216  42.165487     4.4100     0.6627     0.2556     0.5076 1.2335e+00    12.5476      3.487      5.057    13.3929 0.0000e+00
      3.573      0.069     0.6150      6.324     55.249  42.132902     4.4100     0.6551     0.2556     0.5076 1.1908e+00    12.5927      3.504      5.081    13.3342 0.0000e+00
      3.590      0.069     0.6186      6.568     55.250  42.073431     4.4100     0.6551     0.2556     0.5076 1.1774e+00    12.3973      3.521      5.106    13.2803 0.0000e+00
      3.608      0.069     0.6275      6.833     55.215  41.985079     4.2300     0.6551     0.2556     0.4653 1.1364e+00    12.5176      3.538      5.132    13.2294 0.0000e+00
      3.626      0.070     0.6429      7.098     55.145  41.870042     4.2300     0.6665     0.2556     0.4653 1.1441e+00    12.5476      3.556      5.158    13.1788 0.0000e+00
      3.644      0.070     0.6646      7.336     55.053  41.739243     4.2300     0.6818     0.2556     0.4653 1.1069e+00    12.4875      3.573      5.183    13.1264 0.0000e+00
      3.662      0.071     0.6910      7.517     54.975  41.621200     4.2300     0.6780     0.2556     0.4653 1.0940e+00    12.4875      3.591      5.208    13.0720 0.0000e+00
      3.679      0.071     0.7198      7.614     54.916  41.518113     4.2300     0.6017     0.2556     0.3384 1.0728e+00    11.1198      3.608      5.234    13.0162 0.0000e+00
      3.698      0.071     0.7486      7.619     54.854  41.414376     4.2300     0.6017     0.2556     0.3384 1.0622e+00    11.0596      3.626      5.259    12.9601 0.0000e+00
      3.716      0.070     0.7746      7.541     54.796  41.314023     4.2300     0.5940     0.2556     0.3384 1.0348e+00    10.9695      3.644      5.286    12.9049 0.0000e+00
      3.735      0.069     0.7946      7.402     54.741  41.218026     4.2300     0.6093     0.2556     0.3384 1.0086e+00    11.1799      3.662      5.312    12.8510 0.0000e+00
      3.752      0.068     0.8058      7.231     54.689  41.126538     4.2300     0.7009     0.2556     0.3384 9.7778e-01     7.0466      3.680      5.337    12.7981 0.0000e+00
      3.769      0.066     0.8072      7.053     54.654  41.054784     4.1400     0.7238     0.2982     0.2961 9.9687e-01     7.0917      3.696      5.361    12.7460 0.0000e+00
      3.786      0.064     0.7998      6.898     54.645  41.009382     4.1400     0.7123     0.2982     0.2961 9.3274e-01     7.0466      3.712      5.384    12.6947 0.0000e+00
      3.802      0.063     0.7860      6.788     54.649  40.978224     4.1400     0.7161     0.2982     0.2961 9.2327e-01     7.1217      3.728      5.407    12.6448 0.0000e+00
      3.817      0.062     0.7686      6.735     54.666  40.953000     4.1400     0.5445     0.2982     0.2961 9.2809e-01     6.3552      3.743      5.430    12.5977 0.0000e+00
      3.833      0.062     0.7504      6.744     54.713  40.938871     3.7800     0.5483     0.1704     0.3384 8.8978e-01     6.4003      3.759      5.452    12.5558 0.0000e+00
      3.848      0.062     0.7345      6.805     54.811  40.947915     3.7800     0.5368     0.1704     0.3384 8.9075e-01     6.3402      3.774      5.473    12.5207 0.0000e+00
      3.864      0.062     0.7233      6.906     54.955  40.982543     3.7800     0.5368     0.1704     0.3384 8.6031e-01     6.4003      3.789      5.495    12.4895 0.0000e+00
      3.880      0.063     0.7183      7.047     55.111  41.024248     3.7800     0.4300     0.1704     0.3384 8.4935e-01     8.7300      3.804      5.518    12.4551 0.0000e+00
      3.896      0.064     0.7201      7.234     55.254  41.060378     3.5100     0.4453     0.1278     0.2538 8.4604e-01     8.6097      3.820      5.541    12.4099 0.0000e+00
      3.912      0.065     0.7276      7.480     55.387  41.092639     3.5100     0.4491     0.1278     0.2538 7.9922e-01     8.7300      3.836      5.564    12.3516 0.0000e+00
      3.928      0.066     0.7395      7.802     55.510  41.121709     3.5100     0.4148     0.1278     0.2538 7.8051e-01     8.6999      3.853      5.588    12.2854 0.0000e+00
      3.946      0.068     0.7558      8.225     55.623  41.147412     3.5100     0.3919     0.1278     0.2538 7.5122e-01     9.3612      3.869      5.612    12.2183 0.0000e+00
      3.963      0.069     0.7770      8.775     55.714  41.164714     3.7800     0.2393     0.2130     0.1692 6.7564e-01    10.8342      3.887      5.637    12.1543 0.0000e+00
      3.981      0.070     0.8045      9.467     55.780  41.170302     3.7800     0.2316     0.2130     0.1692 6.4424e-01    10.8492      3.904      5.663    12.0942 0.0000e+00
      3.999      0.071     0.8403     10.305     55.826  41.169628     3.7800     0.2355     0.2130     0.1692 6.2602e-01    10.8342      3.922      5.689    12.0377 0.0000e+00
      4.017      0.072     0.8869     11.280     55.866  41.170435     3.7800     0.2431     0.2130     0.1692 6.2548e-01    10.7741      3.940      5.715    11.9858 0.0000e+00
      4.035      0.072     0.9472     12.358     55.906  41.176900     3.7800     0.2431     0.2130     0.1692 5.9888e-01    11.2851      3.958      5.740    11.9402 0.0000e+00
      4.054      0.073     1.0228     13.481     55.944  41.186784     4.0500     0.2507     0.2556     0.2115 6.1084e-01    11.3302      3.975      5.766    11.9019 0.0000e+00
      4.073      0.073     1.1141     14.601     55.974  41.194798     4.0500     0.2202     0.2556     0.2115 5.1819e-01    11.2851      3.994      5.793    11.8704 0.0000e+00
      4.092      0.072     1.2202     15.675     55.992  41.199115     4.0500     0.2202     0.2556     0.2115 4.7805e-01    11.3452      4.013      5.821    11.8447 0.0000e+00
      4.111      0.071     1.3373     16.672     56.004  41.200887     4.0500     0.1592     0.2556     0.2115 4.7402e-01    11.5556      4.032      5.848    11.8240 0.0000e+00
      4.129      0.070     1.4594     17.568     56.010  41.200587     4.2300     0.1668     0.2556     0.1692 4.6777e-01    11.6308      4.049      5.873    11.8078 0.0000e+00
      4.146      0.069     1.5810     18.347     56.013  41.198134     4.2300     0.1477     0.2556     0.1692 4.4497e-01    11.5256      4.066      5.898    11.7958 0.0000e+00
      4.163      0.068     1.6975     19.003     56.019  41.196837     4.2300     0.1706     0.2556     0.1692 4.6262e-01    11.6007      4.083      5.921    11.7874 0.0000e+00
      4.180      0.069     1.8056     19.551     56.033  41.200311     4.2300     0.2240     0.2556     0.1692 4.4487e-01    11.6007      4.099      5.945    11.7816 0.0000e+00
      4.197      0.070     1.9028     20.004     56.042  41.199577     4.3200     0.2088     0.2556     0.0846 4.2309e-01    11.5556      4.116      5.969    11.7770 0.0000e+00
      4.215      0.072     1.9873     20.365     56.036  41.188497     4.3200     0.2355     0.2556     0.0846 3.7584e-01    11.5256      4.134      5.995    11.7725 0.0000e+00
      4.234      0.074     2.0586     20.642     56.035  41.181944     4.3200     0.2355     0.2556     0.0846 3.6087e-01    11.5105      4.152      6.023    11.7673 0.0000e+00
      4.254      0.076     2.1182     20.852     56.050  41.188077     4.3200     0.2545     0.2556     0.0846 3.3920e-01    11.5707      4.172      6.050    11.7611 0.0000e+00
      4.273      0.077     2.1676     21.010     56.068  41.196644     4.3200     0.2278     0.2556     0.0846 3.3678e-01    11.5707      4.191      6.078    11.7548 0.0000e+00
      4.293      0.079     2.2070     21.122     56.078  41.200024     4.3200     0.2507     0.2556     0.1269 3.3700e-01    11.5406      4.210      6.106    11.7489 0.0000e+00
      4.313      0.080     2.2373     21.194     56.078  41.197137     4.3200     0.2355     0.2556     0.1269 2.7986e-01    11.4955      4.230      6.135    11.7437 0.0000e+00
      4.334      0.081     2.2602     21.247     56.076  41.193158     4.3200     0.1897     0.2556     0.1269 3.2854e-01    11.5406      4.250      6.164    11.7392 0.0000e+00
      4.355      0.083     2.2776     21.304     56.079  41.192966     4.3200     0.1821     0.2556     0.1269 2.9793e-01    11.6007      4.271      6.194    11.7353 0.0000e+00
      4.376      0.084     2.2899     21.376     56.081  41.192551     4.3200     0.1630     0.2556     0.1692 2.7780e-01    11.5256      4.292      6.225    11.7319 0.0000e+00
      4.398      0.085     2.2978     21.461     56.082  41.191799     4.3200     0.1515     0.2556     0.1692 2.6529e-01    11.5406      4.313      6.255    11.7291 0.0000e+00
      4.420      0.086     2.3038     21.534     56.087  41.194474     4.3200     0.2011     0.2556     0.1692 2.5628e-01    11.6308      4.334      6.286    11.7268 0.0000e+00
      4.442      0.086     2.3100     21.575     56.092  41.197326     4.3200     0.1668     0.2556     0.1692 2.4736e-01    11.5256      4.356      6.318    11.7249 0.0000e+00
      4.465      0.086     2.3180     21.570     56.093  41.197154     4.2300     0.1630     0.2130     0.1269 2.1959e-01    11.5256      4.378      6.350    11.7233 0.0000e+00
      4.487      0.085     2.3272     21.511     56.089  41.193911     4.2300     0.1821     0.2130     0.1269 2.0215e-01    11.5105      4.400      6.382    11.7219 0.0000e+00
      4.509      0.083     2.3353     21.401     56.086  41.190695     4.2300     0.2278     0.2130     0.1269 2.2910e-01    11.4504      4.422      6.413    11.7207 0.0000e+00
      4.530      0.081     2.3397     21.253     56.084  41.188629     4.2300     0.2431     0.2130     0.1269 2.1126e-01    11.5707      4.443      6.443    11.7199 0.0000e+00
      4.551      0.078     2.3391     21.085     56.080  41.185183     4.3200     0.2316     0.2130     0.1269 1.9858e-01    11.6158      4.463      6.472    11.7194 0.0000e+00
      4.570      0.076     2.3328     20.921     56.075  41.181416     4.3200     0.2355     0.2130     0.1269 1.9511e-01    11.4805      4.482      6.500    11.7189 0.0000e+00
      4.589      0.074     2.3209     20.780     56.066  41.174345     4.3200     0.2278     0.2130     0.1269 2.2613e-01    11.4955      4.500      6.526    11.7184 0.0000e+00
      4.607      0.073     2.3048     20.671     56.054  41.166044     4.3200     0.2431     0.2130     0.1269 1.9242e-01    11.5707      4.518      6.552    11.7178 0.0000e+00
      4.624      0.072     2.2867     20.589     56.054  41.166189     4.3200     0.2584     0.2130     0.1269 2.0232e-01    11.5406      4.535      6.577    11.7174 0.0000e+00
      4.642      0.073     2.2689     20.525     56.061  41.170854     4.3200     0.2278     0.2982     0.2115 2.0215e-01    11.5707      4.553      6.602    11.7172 0.0000e+00
      4.661      0.074     2.2537     20.484     56.064  41.173360     4.3200     0.1744     0.2982     0.2115 2.1099e-01    11.9013      4.570      6.628    11.7171 0.0000e+00
      4.679      0.076     2.2418     20.477     56.065  41.174375     4.3200     0.2164     0.2982     0.2115 1.9309e-01    11.7360      4.589      6.655    11.7170 0.0000e+00
      4.699      0.079     2.2328     20.510     56.065  41.174169     4.3200     0.1821     0.2982     0.2115 1.9334e-01    11.7811      4.608      6.683    11.7170 0.0000e+00
      4.719      0.082     2.2259     20.587     56.063  41.172687     4.2300     0.1821     0.2556     0.0846 1.8984e-01    11.7961      4.628      6.712    11.7170 0.0000e+00
      4.740      0.086     2.2215     20.699     56.060  41.169535     4.2300     0.1515     0.2556     0.0846 1.6736e-01    11.5406      4.648      6.742    11.7172 0.0000e+00
      4.762      0.090     2.2207     20.827     56.059  41.167834     4.2300     0.1706     0.2556     0.0846 1.7279e-01    11.6007      4.670      6.773    11.7173 0.0000e+00
      4.786      0.093     2.2243     20.951     56.065  41.171093     4.2300     0.1668     0.2556     0.0846 1.7571e-01    11.5256      4.694      6.807    11.7173 0.0000e+00
      4.811      0.095     2.2327     21.051     56.073  41.176218     4.3200     0.1782     0.2982     0.2115 1.3974e-01    11.5857      4.718      6.843    11.7170 0.0000e+00
      4.837      0.096     2.2448     21.116     56.075  41.176651     4.3200     0.1935     0.2982     0.2115 1.6136e-01    11.5857      4.743      6.879    11.7163 0.0000e+00
      4.862      0.097     2.2588     21.145     56.071  41.172507     4.3200     0.1592     0.2982     0.2115 1.4387e-01    11.5707      4.768      6.915    11.7155 0.0000e+00
      4.887      0.098     2.2722     21.156     56.069  41.170607     4.3200     0.1706     0.2982     0.2115 1.5827e-01    11.5707      4.792      6.950    11.7146 0.0000e+00
      4.911      0.099     2.2832     21.169     56.075  41.174406     4.3200     0.1592     0.2556     0.1692 1.6689e-01    11.6007      4.816      6.984    11.7136 0.0000e+00
      4.935      0.100     2.2902     21.202     56.085  41.180955     4.3200     0.1592     0.2556     0.1692 1.5893e-01    11.5105      4.839      7.019    11.7128 0.0000e+00
      4.960      0.102     2.2934     21.260     56.089  41.184075     4.3200     0.1706     0.2556     0.1692 1.5270e-01    11.6158      4.864      7.055    11.7120 0.0000e+00
      4.987      0.105     2.2947     21.339     56.090  41.184598     4.3200     0.1630     0.2556     0.1692 1.3754e-01    11.5707      4.891      7.093    11.7113 0.0000e+00
      5.015      0.106     2.2961     21.429     56.093  41.186626     4.3200     0.1821     0.2556     0.1692 1.3302e-01    11.5857      4.918      7.133    11.7107 0.0000e+00
      5.043      0.106     2.2997     21.513     56.099  41.190699     4.3200     0.1592     0.2556     0.0846 1.4393e-01    11.8562      4.946      7.173    11.7102 0.0000e+00
      5.071      0.105     2.3060     21.573     56.107  41.195923     4.3200     0.1935     0.2556     0.0846 1.1597e-01    11.7811      4.973      7.213    11.7099 0.0000e+00
      5.098      0.102     2.3146     21.598     56.110  41.197748     4.3200     0.1592     0.2556     0.0846 1.4328e-01    11.7360      5.000      7.251    11.7097 0.0000e+00
      5.124      0.099     2.3243     21.587     56.107  41.194679     4.3200     0.1706     0.2556     0.0846 1.4315e-01    11.9013      5.025      7.288    11.7096 0.0000e+00
      5.148      0.095     2.3335     21.548     56.099  41.187878     4.4100     0.1668     0.2982     0.0846 1.3204e-01    11.7961      5.049      7.323    11.7095 0.0000e+00
      5.172      0.092     2.3401     21.489     56.088  41.179494     4.4100     0.1668     0.2982     0.0846 1.1595e-01    11.7961      5.072      7.356    11.7091 0.0000e+00
      5.194      0.091     2.3427     21.423     56.083  41.175216     4.4100     0.1782     0.2982     0.0846 1.1701e-01    11.8111      5.094      7.388    11.7085 0.0000e+00
      5.216      0.091     2.3417     21.364     56.081  41.173903     4.4100     0.1325     0.2982     0.0846 1.1602e-01    11.6909      5.115      7.419    11.7079 0.0000e+00
      5.239      0.092     2.3375     21.325     56.078  41.171243     4.4100     0.2278     0.2556     0.0846 1.1605e-01    11.7811      5.137      7.451    11.7073 0.0000e+00
      5.262      0.095     2.3311     21.313     56.077  41.170488     4.4100     0.2355     0.2556     0.0846 1.1585e-01    11.8412      5.160      7.484    11.7069 0.0000e+00
      5.286      0.099     2.3239     21.325     56.084  41.175400     4.4100     0.2278     0.2556     0.0846 1.1597e-01    11.7661      5.184      7.518    11.7067 0.0000e+00
      5.312      0.103     2.3175     21.349     56.092  41.181345     4.4100     0.2355     0.2556     0.0846 1.1585e-01    11.7961      5.209      7.555    11.7065 0.0000e+00
      5.340      0.106     2.3133     21.381     56.091  41.180003     4.3200     0.1668     0.2982     0.0846 1.1610e-01    12.2170      5.236      7.594    11.7064 0.0000e+00
      5.368      0.108     2.3120     21.413     56.081  41.172996     4.3200     0.1935     0.2982     0.0846 1.1615e-01    12.1719      5.264      7.635    11.7063 0.0000e+00
      5.397      0.109     2.3133     21.438     56.075  41.168362     4.3200     0.1592     0.2982     0.0846 1.1590e-01    12.2470      5.292      7.676    11.7062 0.0000e+00
      5.425      0.109     2.3160     21.452     56.076  41.168828     4.3200     0.2049     0.2982     0.0846 1.1610e-01    12.2621      5.320      7.716    11.7060 0.0000e+00
      5.453      0.109     2.3194     21.450     56.084  41.174516     4.3200     0.1630     0.2982     0.0846 1.1602e-01    11.8111      5.347      7.755    11.7057 0.0000e+00
      5.480      0.109     2.3229     21.436     56.096  41.182983     4.4100     0.1554     0.2130     0.1692 1.1617e-01    11.7811      5.374      7.794    11.7054 0.0000e+00
      5.507      0.108     2.3256     21.416     56.101  41.186580     4.4100     0.1592     0.2130     0.1692 1.1612e-01    11.7961      5.400      7.833    11.7052 0.0000e+00
      5.535      0.108     2.3271     21.397     56.099  41.184285     4.4100     0.1897     0.2130     0.1692 1.1605e-01    11.8262      5.428      7.872    11.7051 0.0000e+00
      5.563      0.109     2.3270     21.378     56.101  41.185392     4.4100     0.1859     0.2130     0.1692 1.1605e-01    12.0667      5.455      7.912    11.7048 0.0000e+00
      5.591      0.109     2.3254     21.356     56.110  41.192177     4.3200     0.1554     0.2556     0.0846 1.1600e-01    11.9614      5.483      7.952    11.7045 0.0000e+00
      5.618      0.109     2.3232     21.336     56.119  41.198526     4.3200     0.1554     0.2556     0.0846 1.1612e-01    11.9915      5.510      7.991    11.7043 0.0000e+00
      5.646      0.110     2.3212     21.323     56.124  41.202167     4.3200     0.1935     0.2556     0.0846 1.1590e-01    12.0366      5.537      8.030    11.7041 0.0000e+00
      5.673      0.111     2.3192     21.316     56.124  41.202093     4.3200     0.1782     0.2556     0.0846 1.1602e-01    11.8713      5.564      8.070    11.7040 0.0000e+00
      5.702      0.112     2.3168     21.313     56.122  41.200263     4.3200     0.1744     0.2556     0.0846 1.1605e-01    11.6759      5.591      8.110    11.7039 0.0000e+00
      5.730      0.113     2.3146     21.318     56.125  41.202133     4.3200     0.1821     0.2556     0.0846 1.1607e-01    11.6909      5.620      8.151    11.7038 0.0000e+00
      5.760      0.114     2.3132     21.332     56.132  41.206221     4.3200     0.1706     0.2556     0.0846 1.1610e-01    11.7210      5.648      8.193    11.7038 0.0000e+00
      5.790      0.115     2.3124     21.350     56.135  41.207673     4.3200     0.1782     0.2556     0.0846 1.1615e-01    12.0667      5.678      8.235    11.7037 0.0000e+00
      5.820      0.114     2.3122     21.367     56.129  41.202914     4.3200     0.1401     0.2556     0.0846 1.1605e-01    11.9614      5.707      8.278    11.7033 0.0000e+00
      5.849      0.113     2.3127     21.379     56.118  41.194637     4.3200     0.1554     0.2556     0.1269 1.1595e-01    12.0366      5.736      8.320    11.7028 0.0000e+00
      5.877      0.112     2.3142     21.390     56.109  41.188559     4.3200     0.1592     0.2556     0.1269 1.1590e-01    11.9915      5.764      8.360    11.7022 0.0000e+00
      5.905      0.112     2.3162     21.403     56.099  41.181080     4.3200     0.2240     0.2556     0.1269 1.1585e-01    12.2771      5.791      8.399    11.7017 0.0000e+00
      5.932      0.112     2.3181     21.415     56.084  41.170204     4.3200     0.1973     0.2556     0.1269 1.1612e-01    12.2470      5.817      8.438    11.7014 0.0000e+00
      5.960      0.114     2.3194     21.428     56.072  41.160955     4.4100     0.2431     0.2556     0.0846 1.1612e-01    12.3071      5.845      8.477    11.7012 0.0000e+00
      5.989      0.116     2.3206     21.442     56.064  41.154830     4.4100     0.2240     0.2556     0.0846 1.1595e-01    12.2621      5.873      8.519    11.7011 0.0000e+00
      6.020      0.119     2.3220     21.459     56.059  41.150195     4.4100     0.2088     0.2556     0.0846 1.1585e-01    12.3222      5.903      8.562    11.7011 0.0000e+00
      6.051      0.121     2.3233     21.473     56.059  41.149775     4.4100     0.1592     0.2556     0.0846 1.1600e-01    12.2921      5.934      8.607    11.7012 0.0000e+00
      6.083      0.121     2.3247     21.474     56.065  41.153460     4.4100     0.1897     0.2556     0.1269 1.1605e-01    12.2019      5.965      8.652    11.7010 0.0000e+00
      6.115      0.120     2.3263     21.457     56.067  41.154307     4.4100     0.1668     0.2556     0.1269 1.1600e-01    12.1268      5.996      8.697    11.7006 0.0000e+00
      6.146      0.118     2.3282     21.429     56.071  41.156505     4.4100     0.1515     0.2556     0.1269 1.1600e-01    12.1268      6.027      8.741    11.7000 0.0000e+00
      6.176      0.115     2.3297     21.394     56.083  41.164600     4.4100     0.2088     0.2556     0.1269 1.1577e-01    12.0065      6.056      8.784    11.6994 0.0000e+00
      6.205      0.110     2.3298     21.354     56.095  41.172829     4.4100     0.1782     0.2556     0.1269 1.1600e-01    12.0065      6.085      8.825    11.6988 0.0000e+00
      6.233      0.105     2.3280     21.310     56.105  41.179422     4.4100     0.1630     0.2556     0.1269 1.1600e-01    11.9765      6.112      8.864    11.6982 0.0000e+00
      6.259      0.099     2.3250     21.268     56.109  41.182176     4.4100     0.1744     0.2556     0.1269 1.1595e-01    12.0366      6.138      8.902    11.6976 0.0000e+00
      6.283      0.094     2.3212     21.233     56.109  41.181826     4.4100     0.1782     0.2556     0.1269 1.1590e-01    12.0817      6.162      8.936    11.6970 0.0000e+00
      6.305      0.090     2.3170     21.203     56.116  41.186201     4.4100     0.1515     0.2556     0.1269 1.1612e-01    12.0216      6.184      8.968    11.6964 0.0000e+00
      6.327      0.088     2.3123     21.174     56.128  41.194489     4.3200     0.1630     0.2982     0.0846 1.1600e-01    12.0366      6.205      8.999    11.6959 0.0000e+00
      6.348      0.086     2.3076     21.147     56.131  41.197011     4.3200     0.1515     0.2982     0.0846 1.1597e-01    11.9765      6.225      9.029    11.6954 0.0000e+00
      6.369      0.086     2.3039     21.121     56.122  41.190478     4.3200     0.1592     0.2982     0.0846 1.1612e-01    12.0216      6.246      9.059    11.6949 0.0000e+00
      6.391      0.086     2.3007     21.101     56.115  41.185034     4.3200     0.1821     0.2982     0.0846 1.1590e-01    12.0366      6.268      9.090    11.6945 0.0000e+00
      6.413      0.087     2.2975     21.091     56.120  41.189135     4.4100     0.1515     0.2556     0.2115 1.1587e-01    12.0516      6.289      9.122    11.6942 0.0000e+00
      6.436      0.089     2.2946     21.091     56.129  41.195949     4.4100     0.1592     0.2556     0.2115 1.1600e-01    11.9765      6.311      9.153    11.6941 0.0000e+00
      6.458      0.090     2.2919     21.092     56.133  41.199367     4.4100     0.1782     0.2556     0.2115 1.1592e-01    12.0967      6.334      9.186    11.6941 0.0000e+00
      6.481      0.092     2.2896     21.096     56.134  41.200303     4.4100     0.1592     0.2556     0.2115 1.1595e-01    12.0216      6.356      9.219    11.6942 0.0000e+00
      6.505      0.093     2.2886     21.105     56.133  41.199004     4.4100     0.1782     0.2982     0.1269 1.1605e-01    12.0366      6.379      9.252    11.6945 0.0000e+00
      6.529      0.094     2.2885     21.115     56.129  41.195126     4.4100     0.1935     0.2982     0.1269 1.1580e-01    12.1117      6.403      9.286    11.6948 0.0000e+00
      6.553      0.094     2.2886     21.120     56.119  41.187634     4.4100     0.1782     0.2982     0.1269 1.1600e-01    12.0667      6.427      9.321    11.6950 0.0000e+00
      6.578      0.094     2.2890     21.119     56.107  41.178492     4.4100     0.1592     0.2982     0.1269 1.1595e-01    12.0216      6.451      9.356    11.6950 0.0000e+00
      6.602      0.093     2.2900     21.109     56.101  41.173187     4.3200     0.1897     0.2556     0.0846 1.1595e-01    11.9013      6.475      9.391    11.6948 0.0000e+00
      6.626      0.091     2.2911     21.085     56.097  41.170304     4.3200     0.1782     0.2556     0.0846 1.1605e-01    11.8863      6.498      9.425    11.6944 0.0000e+00
      6.649      0.089     2.2917     21.053     56.091  41.165112     4.3200     0.1782     0.2556     0.0846 1.1617e-01    11.8262      6.521      9.458    11.6939 0.0000e+00
      6.672      0.087     2.2916     21.019     56.084  41.160189     4.3200     0.1859     0.2556     0.0846 1.1600e-01    11.8412      6.543      9.489    11.6934 0.0000e+00
      6.693      0.085     2.2905     20.985     56.082  41.158183     4.3200     0.1935     0.2556     0.0846 1.1602e-01    11.8412      6.564      9.520    11.6930 0.0000e+00
      6.714      0.084     2.2879     20.953     56.083  41.158561     4.4100     0.1668     0.2130     0.0846 1.1587e-01    11.8412      6.584      9.549    11.6926 0.0000e+00
      6.734      0.083     2.2845     20.923     56.088  41.161422     4.4100     0.1935     0.2130     0.0846 1.1617e-01    11.8111      6.604      9.579    11.6922 0.0000e+00
      6.755      0.083     2.2808     20.898     56.091  41.163567     4.4100     0.1782     0.2130     0.0846 1.1587e-01    11.7961      6.625      9.609    11.6919 0.0000e+00
      6.777      0.084     2.2771     20.886     56.089  41.161606     4.4100     0.1859     0.2130     0.0846 1.1605e-01    11.7961      6.646      9.639    11.6916 0.0000e+00
      6.798      0.086     2.2736     20.889     56.085  41.158978     4.4100     0.1592     0.2556     0.0423 1.1592e-01    12.0516      6.667      9.669    11.6914 0.0000e+00
      6.820      0.087     2.2704     20.898     56.086  41.158945     4.4100     0.1706     0.2556     0.0423 1.1605e-01    12.0817      6.689      9.701    11.6911 0.0000e+00
      6.843      0.088     2.2677     20.906     56.089  41.161499     4.4100     0.1706     0.2556     0.0423 1.1595e-01    12.0366      6.711      9.733    11.6909 0.0000e+00
      6.866      0.089     2.2664     20.912     56.098  41.167319     4.4100     0.1897     0.2556     0.0423 1.1602e-01    12.0667      6.733      9.766    11.6906 0.0000e+00
      6.889      0.089     2.2668     20.914     56.107  41.173996     4.4100     0.2431     0.2556     0.1692 1.1630e-01    12.0366      6.756      9.799    11.6903 0.0000e+00
      6.912      0.088     2.2678     20.910     56.115  41.179348     4.4100     0.2049     0.2556     0.1692 1.1590e-01    12.0065      6.779      9.832    11.6901 0.0000e+00
      6.935      0.087     2.2687     20.894     56.128  41.188764     4.4100     0.2278     0.2556     0.1692 1.1612e-01    12.0817      6.801      9.864    11.6899 0.0000e+00
      6.957      0.086     2.2693     20.861     56.148  41.202775     4.4100     0.2278     0.2556     0.1692 1.1605e-01    12.1268      6.823      9.895    11.6897 0.0000e+00
      6.979      0.085     2.2696     20.811     56.162  41.213229     4.4100     0.1630     0.2556     0.1269 1.1587e-01    12.3372      6.844      9.926    11.6894 0.0000e+00
      7.000      0.083     2.2692     20.739     56.168  41.216972     4.4100     0.1706     0.2556     0.1269 1.1585e-01    12.2921      6.865      9.956    11.6892 0.0000e+00
      7.021      0.083     2.2674     20.634     56.165  41.215000     4.4100     0.1554     0.2556     0.1269 1.1602e-01    12.2921      6.885      9.986    11.6889 0.0000e+00
      7.042      0.083     2.2639     20.500     56.157  41.208771     4.4100     0.1592     0.2556     0.1269 1.1607e-01    12.2470      6.906     10.016    11.6887 0.0000e+00
      7.063      0.084     2.2585     20.364     56.145  41.200584     4.4100     0.1782     0.2556     0.1269 1.1600e-01    12.0366      6.926     10.045    11.6885 0.0000e+00
      7.083      0.086     2.2507     20.254     56.136  41.194199     4.4100     0.1515     0.2982     0.1269 1.1605e-01    11.9915      6.946     10.075    11.6883 0.0000e+00
      7.105      0.088     2.2393     20.188     56.133  41.191877     4.4100     0.1592     0.2982     0.1269 1.1610e-01    12.0817      6.968     10.106    11.6882 0.0000e+00
      7.128      0.090     2.2247     20.170     56.128  41.189035     4.4100     0.1782     0.2982     0.1269 1.1600e-01    12.0216      6.990     10.138    11.6881 0.0000e+00
      7.152      0.092     2.2099     20.194     56.123  41.184916     4.4100     0.2507     0.2982     0.1269 1.1602e-01    12.2921      7.013     10.172    11.6883 0.0000e+00
      7.176      0.093     2.1980     20.254     56.120  41.182384     4.4100     0.2088     0.2982     0.2115 1.1595e-01    12.2621      7.038     10.208    11.6885 0.0000e+00
      7.201      0.093     2.1908     20.339     56.118  41.180764     4.4100     0.2469     0.2982     0.2115 1.1607e-01    12.3222      7.062     10.243    11.6888 0.0000e+00
      7.225      0.093     2.1889     20.426     56.116  41.179624     4.4100     0.2507     0.2982     0.2115 1.1600e-01    12.2170      7.085     10.277    11.6889 0.0000e+00
      7.248      0.092     2.1915     20.497     56.115  41.178658     4.4100     0.1592     0.2982     0.2115 1.1595e-01    12.2621      7.108     10.309    11.6890 0.0000e+00
      7.271      0.091     2.1981     20.545     56.114  41.177611     4.4100     0.1630     0.2556     0.2115 1.1612e-01    12.3522      7.130     10.341    11.6889 0.0000e+00
      7.294      0.091     2.2072     20.568     56.112  41.176203     4.4100     0.1554     0.2556     0.2115 1.1587e-01    12.3372      7.153     10.374    11.6887 0.0000e+00
      7.317      0.091     2.2166     20.569     56.109  41.174059     4.4100     0.1554     0.2556     0.2115 1.1590e-01    12.2320      7.176     10.407    11.6885 0.0000e+00
      7.340      0.092     2.2243     20.554     56.105  41.170605     4.4100     0.1897     0.2556     0.2115 1.1620e-01    12.3071      7.199     10.441    11.6883 0.0000e+00
      7.364      0.093     2.2295     20.526     56.103  41.168884     4.4100     0.1897     0.2556     0.0846 1.1590e-01    12.3222      7.222     10.474    11.6882 0.0000e+00
      7.388      0.094     2.2320     20.488     56.103  41.168436     4.4100     0.1859     0.2556     0.0846 1.1600e-01    12.2921      7.245     10.508    11.6880 0.0000e+00
      7.412      0.094     2.2322     20.441     56.099  41.165179     4.4100     0.1592     0.2556     0.0846 1.1595e-01    12.2921      7.268     10.542    11.6879 0.0000e+00
      7.436      0.094     2.2306     20.388     56.095  41.162208     4.4100     0.1668     0.2556     0.0846 1.1612e-01    12.0366      7.293     10.577    11.6878 0.0000e+00
      7.461      0.093     2.2276     20.331     56.101  41.166655     4.4100     0.1821     0.2556     0.0846 1.1600e-01    12.0667      7.317     10.612    11.6876 0.0000e+00
      7.485      0.092     2.2235     20.278     56.116  41.177724     4.4100     0.1630     0.2982     0.0846 1.1607e-01    12.0366      7.341     10.647    11.6874 0.0000e+00
      7.509      0.090     2.2184     20.235     56.125  41.184500     4.4100     0.1821     0.2982     0.0846 1.1610e-01    12.1117      7.363     10.679    11.6873 0.0000e+00
      7.531      0.089     2.2126     20.197     56.128  41.186807     4.4100     0.1744     0.2982     0.0846 1.1605e-01    11.9765      7.385     10.711    11.6872 0.0000e+00
      7.553      0.087     2.2064     20.156     56.134  41.191205     4.4100     0.1668     0.2982     0.0846 1.1607e-01    12.0065      7.407     10.742    11.6871 0.0000e+00
      7.575      0.087     2.2007     20.110     56.139  41.194904     4.4100     0.1592     0.2556     0.0846 1.1628e-01    12.0516      7.428     10.773    11.6870 0.0000e+00
      7.597      0.087     2.1960     20.067     56.139  41.194928     4.4100     0.1706     0.2556     0.0846 1.1587e-01    12.1268      7.450     10.805    11.6869 0.0000e+00
      7.619      0.087     2.1918     20.031     56.140  41.195246     4.4100     0.1706     0.2556     0.0846 1.1595e-01    12.0216      7.471     10.836    11.6869 0.0000e+00
      7.641      0.088     2.1874     19.995     56.146  41.199906     4.4100     0.1706     0.2556     0.0846 1.1607e-01    12.0667      7.493     10.867    11.6870 0.0000e+00
      7.663      0.089     2.1824     19.956     56.155  41.206186     4.3200     0.1630     0.2556     0.0846 1.1612e-01    12.0216      7.515     10.900    11.6870 0.0000e+00
      7.686      0.089     2.1778     19.914     56.160  41.209820     4.3200     0.1782     0.2556     0.0846 1.1590e-01    12.0516      7.538     10.932    11.6870 0.0000e+00
      7.709      0.090     2.1739     19.878     56.160  41.209793     4.3200     0.2164     0.2556     0.0846 1.1605e-01    12.1719      7.560     10.965    11.6869 0.0000e+00
      7.732      0.090     2.1700     19.846     56.158  41.208081     4.3200     0.2278     0.2556     0.0846 1.1595e-01    12.2621      7.583     10.998    11.6869 0.0000e+00
      7.755      0.090     2.1657     19.814     56.156  41.206209     4.3200     0.2316     0.2556     0.0846 1.1607e-01    12.2621      7.605     11.030    11.6868 0.0000e+00
      7.778      0.090     2.1612     19.778     56.153  41.203676     4.5000     0.2355     0.2982     0.0846 1.1600e-01    12.3522      7.628     11.063    11.6867 0.0000e+00
      7.801      0.089     2.1572     19.741     56.148  41.199806     4.5000     0.1668     0.2982     0.0846 1.1595e-01    12.2621      7.650     11.095    11.6866 0.0000e+00
      7.824      0.089     2.1538     19.707     56.145  41.197532     4.5000     0.1782     0.2982     0.0846 1.1600e-01    12.2019      7.673     11.128    11.6865 0.0000e+00
      7.847      0.088     2.1504     19.677     56.149  41.200207     4.5000     0.1744     0.2982     0.0846 1.1597e-01    12.2921      7.695     11.161    11.6864 0.0000e+00
      7.870      0.087     2.1465     19.655     56.155  41.204584     4.5000     0.1630     0.2556     0.1269 1.1605e-01    12.2470      7.717     11.193    11.6862 0.0000e+00
      7.891      0.086     2.1425     19.635     56.160  41.207866     4.5000     0.1782     0.2556     0.1269 1.1595e-01    12.1869      7.739     11.224    11.6859 0.0000e+00
      7.913      0.085     2.1388     19.613     56.162  41.208949     4.5000     0.1859     0.2556     0.1269 1.1610e-01    12.2019      7.760     11.254    11.6857 0.0000e+00
      7.933      0.085     2.1356     19.589     56.159  41.206140     4.5000     0.1859     0.2556     0.1269 1.1587e-01    12.3222      7.780     11.284    11.6854 0.0000e+00
      7.954      0.085     2.1331     19.563     56.157  41.204633     4.4100     0.1935     0.2556     0.0846 1.1582e-01    12.2170      7.801     11.314    11.6852 0.0000e+00
      7.976      0.087     2.1310     19.535     56.165  41.209969     4.4100     0.1782     0.2556     0.0846 1.1628e-01    12.4725      7.822     11.345    11.6849 0.0000e+00
      7.998      0.090     2.1287     19.508     56.175  41.217629     4.4100     0.1706     0.2556     0.0846 1.1590e-01    12.5176      7.844     11.376    11.6846 0.0000e+00
      8.021      0.093     2.1261     19.481     56.181  41.221730     4.4100     0.1782     0.2556     0.0846 1.1617e-01    12.4875      7.866     11.409    11.6843 0.0000e+00
      8.045      0.096     2.1232     19.458     56.181  41.221384     4.3200     0.1821     0.2556     0.1692 1.1600e-01    12.4274      7.890     11.443    11.6841 0.0000e+00
      8.070      0.098     2.1202     19.445     56.177  41.218481     4.3200     0.1706     0.2556     0.1692 1.1585e-01    12.2470      7.914     11.479    11.6838 0.0000e+00
      8.096      0.099     2.1173     19.438     56.171  41.214228     4.3200     0.1744     0.2556     0.1692 1.1600e-01    12.2470      7.940     11.516    11.6836 0.0000e+00
      8.123      0.099     2.1143     19.432     56.162  41.207490     4.3200     0.1706     0.2556     0.1692 1.1607e-01    12.1268      7.966     11.553    11.6834 0.0000e+00
      8.148      0.099     2.1118     19.429     56.150  41.198451     4.3200     0.1554     0.2556     0.1692 1.1600e-01    12.2771      7.991     11.590    11.6833 0.0000e+00
      8.173      0.098     2.1105     19.422     56.135  41.186683     4.3200     0.1592     0.2556     0.0846 1.1617e-01    12.2921      8.015     11.625    11.6833 0.0000e+00
      8.197      0.097     2.1097     19.410     56.116  41.173010     4.3200     0.1325     0.2556     0.0846 1.1585e-01    12.2921      8.039     11.659    11.6832 0.0000e+00
      8.221      0.096     2.1091     19.394     56.106  41.165671     4.3200     0.1706     0.2556     0.0846 1.1602e-01    12.3071      8.062     11.694    11.6832 0.0000e+00
      8.246      0.095     2.1087     19.374     56.108  41.166673     4.3200     0.1782     0.2556     0.0846 1.1595e-01    12.2621      8.086     11.728    11.6831 0.0000e+00
      8.270      0.095     2.1080     19.353     56.115  41.172320     4.4100     0.1973     0.2556     0.0846 1.1590e-01    12.0967      8.110     11.763    11.6830 0.0000e+00
      8.294      0.095     2.1067     19.334     56.132  41.184119     4.4100     0.1592     0.2556     0.0846 1.1600e-01    12.0216      8.134     11.797    11.6828 0.0000e+00
      8.319      0.096     2.1050     19.317     56.150  41.197289     4.4100     0.1630     0.2556     0.0846 1.1592e-01    12.0216      8.157     11.832    11.6827 0.0000e+00
      8.343      0.097     2.1028     19.300     56.164  41.207420     4.4100     0.1782     0.2556     0.0846 1.1595e-01    12.0967      8.181     11.866    11.6826 0.0000e+00
      8.368      0.098     2.1005     19.282     56.175  41.215233     4.4100     0.1897     0.2556     0.0846 1.1602e-01    12.0065      8.206     11.901    11.6825 0.0000e+00
      8.393      0.098     2.0984     19.263     56.180  41.218847     4.4100     0.1668     0.2556     0.0846 1.1617e-01    12.0216      8.230     11.938    11.6824 0.0000e+00
      8.419      0.099     2.0966     19.241     56.178  41.217245     4.4100     0.1706     0.2556     0.0846 1.1585e-01    12.0667      8.256     11.974    11.6823 0.0000e+00
      8.444      0.099     2.0948     19.217     56.171  41.211982     4.4100     0.1859     0.2556     0.0846 1.1605e-01    12.0967      8.280     12.010    11.6822 0.0000e+00
      8.469      0.099     2.0928     19.194     56.162  41.205616     4.4100     0.1744     0.2982     0.0846 1.1600e-01    12.5176      8.305     12.045    11.6820 0.0000e+00
      8.494      0.100     2.0907     19.171     56.149  41.196450     4.4100     0.1630     0.2982     0.0846 1.1605e-01    12.5025      8.329     12.081    11.6819 0.0000e+00
      8.519      0.100     2.0883     19.153     56.138  41.187982     4.4100     0.1859     0.2982     0.0846 1.1600e-01    12.4574      8.354     12.117    11.6819 0.0000e+00
      8.545      0.100     2.0858     19.140     56.135  41.185879     4.4100     0.1554     0.2982     0.0846 1.1595e-01    12.4875      8.379     12.153    11.6818 0.0000e+00
      8.571      0.100     2.0832     19.126     56.135  41.185617     4.4100     0.1477     0.2982     0.0846 1.1612e-01    12.0216      8.405     12.190    11.6818 0.0000e+00
      8.597      0.099     2.0808     19.109     56.135  41.185147     4.5000     0.1821     0.2982     0.2538 1.1600e-01    12.1117      8.430     12.227    11.6817 0.0000e+00
      8.622      0.098     2.0789     19.092     56.137  41.186323     4.5000     0.1592     0.2982     0.2538 1.1580e-01    12.1268      8.455     12.263    11.6817 0.0000e+00
      8.646      0.097     2.0774     19.073     56.147  41.193422     4.5000     0.1439     0.2982     0.2538 1.1615e-01    11.9464      8.479     12.298    11.6816 0.0000e+00
      8.670      0.096     2.0758     19.050     56.164  41.206354     4.5000     0.1706     0.2982     0.2538 1.1600e-01    12.8332      8.503     12.332    11.6815 0.0000e+00
      8.695      0.094     2.0740     19.027     56.179  41.216683     4.4100     0.1821     0.2556     0.1269 1.1602e-01    12.7580      8.527     12.367    11.6814 0.0000e+00
      8.719      0.093     2.0722     19.002     56.185  41.221219     4.4100     0.1706     0.2556     0.1269 1.1595e-01    12.7731      8.551     12.402    11.6813 0.0000e+00
      8.743      0.090     2.0702     18.979     56.186  41.221172     4.4100     0.1706     0.2556     0.1269 1.1602e-01    12.8332      8.574     12.436    11.6812 0.0000e+00
      8.766      0.088     2.0677     18.960     56.182  41.218510     4.4100     0.2393     0.2556     0.1269 1.1612e-01    12.2170      8.597     12.468    11.6810 0.0000e+00
      8.788      0.085     2.0652     18.943     56.180  41.216485     4.5000     0.2164     0.2982     0.0846 1.1600e-01    12.1869      8.618     12.500    11.6809 0.0000e+00
      8.809      0.082     2.0624     18.926     56.177  41.214557     4.5000     0.2584     0.2982     0.0846 1.1600e-01    12.1869      8.639     12.529    11.6807 0.0000e+00
      8.829      0.079     2.0599     18.910     56.177  41.214195     4.5000     0.2011     0.2982     0.0846 1.1610e-01    12.2921      8.658     12.558    11.6805 0.0000e+00
      8.849      0.076     2.0579     18.896     56.184  41.219262     4.5000     0.2507     0.2982     0.0846 1.1605e-01    12.4875      8.678     12.586    11.6803 0.0000e+00
      8.868      0.074     2.0561     18.885     56.193  41.225167     4.5000     0.2316     0.2982     0.1692 1.1602e-01    12.5777      8.697     12.613    11.6801 0.0000e+00
      8.887      0.071     2.0542     18.881     56.200  41.229523     4.5000     0.2164     0.2982     0.1692 1.1597e-01    12.4875      8.715     12.640    11.6799 0.0000e+00
      8.905      0.069     2.0526     18.877     56.211  41.237453     4.5000     0.2393     0.2982     0.1692 1.1623e-01    12.5326      8.733     12.666    11.6796 0.0000e+00
      8.922      0.065     2.0510     18.850     56.226  41.247110     4.5000     0.2393     0.2982     0.1692 1.1617e-01    13.7801      8.750     12.690    11.6793 0.0000e+00
      8.939      0.062     2.0498     18.798     56.235  41.253144     4.5000     0.2088     0.2982     0.1692 1.1585e-01    13.7049      8.766     12.714    11.6789 0.0000e+00
      8.954      0.058     2.0495     18.731     56.238  41.255183     4.4100     0.2278     0.2982     0.1269 1.1592e-01    13.6448      8.781     12.736    11.6783 0.0000e+00
      8.969      0.054     2.0490     18.656     56.236  41.253771     4.4100     0.2355     0.2982     0.1269 1.1615e-01    13.6749      8.795     12.757    11.6777 0.0000e+00
      8.982      0.050     2.0461     18.582     56.233  41.252493     4.4100     0.2736     0.2982     0.1269 1.1600e-01    14.1258      8.808     12.775    11.6771 0.0000e+00
      8.993      0.047     2.0405     18.524     56.234  41.254971     4.4100     0.3041     0.2982     0.1269 1.1587e-01    14.1558      8.820     12.792    11.6765 0.0000e+00
      9.004      0.045     2.0334     18.500     56.241  41.261866     4.5000     0.2774     0.2556     0.1692 1.1605e-01    14.1108      8.830     12.808    11.6762 0.0000e+00
      9.015      0.043     2.0252     18.514     56.250  41.271054     4.5000     0.2889     0.2556     0.1692 1.1607e-01    14.2310      8.841     12.822    11.6764 0.0000e+00
      9.025      0.043     2.0170     18.557     56.260  41.281023     4.5000     0.2965     0.2556     0.1692 1.1623e-01    14.2009      8.851     12.837    11.6772 0.0000e+00
      9.036      0.045     2.0107     18.617     56.274  41.294432     4.5000     0.2164     0.2556     0.1692 1.1595e-01    14.6518      8.861     12.852    11.6785 0.0000e+00
      9.047      0.047     2.0080     18.697     56.292  41.310895     4.5000     0.2393     0.2556     0.0846 1.1595e-01    14.5617      8.872     12.868    11.6802 0.0000e+00
      9.059      0.049     2.0094     18.813     56.316  41.330839     4.5000     0.2164     0.2556     0.0846 1.1602e-01    14.5917      8.884     12.885    11.6823 0.0000e+00
      9.072      0.052     2.0140     18.988     56.349  41.355621     4.5000     0.2240     0.2556     0.0846 1.1590e-01    14.5767      8.896     12.903    11.6849 0.0000e+00
      9.086      0.054     2.0204     19.266     56.389  41.383924     4.5000     0.2316     0.2556     0.0846 1.1610e-01    14.6819      8.910     12.923    11.6879 0.0000e+00
      9.100      0.056     2.0289     19.647     56.430  41.411409     4.5000     0.2431     0.2982     0.1269 1.1595e-01    14.6518      8.924     12.944    11.6908 0.0000e+00
      9.116      0.056     2.0414     20.031     56.464  41.433518     4.5000     0.2393     0.2982     0.1269 1.1612e-01    14.6068      8.939     12.966    11.6928 0.0000e+00
      9.131      0.055     2.0604     20.298     56.499  41.456148     4.5000     0.2278     0.2982     0.1269 1.1607e-01    14.5767      8.954     12.987    11.6935 0.0000e+00
      9.146      0.052     2.0906     20.368     56.542  41.485332     4.5000     0.2507     0.2982     0.1269 1.1605e-01    14.4565      8.969     13.008    11.6925 0.0000e+00
      9.159      0.048     2.1320     20.209     56.587  41.516966     4.5000     0.2202     0.2982     0.1269 1.1612e-01    14.3813      8.982     13.027    11.6902 0.0000e+00
      9.171      0.044     2.1739     19.824     56.646  41.559486     4.6800     0.2393     0.2982     0.0846 1.1600e-01    14.2911      8.994     13.044    11.6874 0.0000e+00
      9.181      0.040     2.2029     19.231     56.750  41.636116     4.6800     0.2431     0.2982     0.0846 1.1600e-01    14.4414      9.004     13.058    11.6849 0.0000e+00
      9.190      0.036     2.2106     18.492     56.912  41.755406     4.6800     0.2355     0.2982     0.0846 1.1585e-01    14.4414      9.012     13.071    11.6830 0.0000e+00
      9.197      0.033     2.1935     17.743     57.155  41.933316     4.6800     0.2355     0.2982     0.0846 1.1605e-01    14.3663      9.020     13.082    11.6817 0.0000e+00
      9.205      0.031     2.1518     17.140     57.552  42.225214     4.7700     0.2202     0.2982     0.1692 1.1617e-01    14.4865      9.027     13.093    11.6810 0.0000e+00
      9.213      0.031     2.0874     16.761     58.221  42.716864     4.7700     0.2431     0.2982     0.1692 1.1602e-01    14.2911      9.035     13.103    11.6810 0.0000e+00
      9.220      0.031     2.0071     16.609     59.347  43.543334     4.7700     0.3003     0.2982     0.1692 1.1597e-01    14.8923      9.042     13.114    11.6812 0.0000e+00
      9.228      0.032     1.9258     16.651     61.241  44.932942     4.7700     0.2812     0.2982     0.1692 1.1597e-01    14.8472      9.050     13.125    11.6816 0.0000e+00
      9.236      0.033     1.8603     16.846     64.415  47.260212     4.2300     0.2965     0.4686     1.8189 1.1590e-01    14.8773      9.058     13.137    11.6822 0.0000e+00
      9.244      0.036     1.8191     17.143     69.710  51.141786     4.2300     0.3118     0.4686     1.8189 1.1600e-01    14.8021      9.066     13.148    11.6831 0.0000e+00
      9.253      0.040     1.8025     17.481     78.504  57.586998     4.2300     0.2774     0.4686     1.8189 1.1610e-01    14.6068      9.074     13.161    11.6841 0.0000e+00
      9.263      0.044     1.8071     17.795     93.107  68.288814     4.2300     0.2927     0.4686     1.8189 1.1602e-01    14.6218      9.084     13.175    11.6851 0.0000e+00
      9.274      0.049     1.8282     18.054    117.420  86.106995     4.2300     0.3041     0.4686     1.8189 1.1610e-01    14.6819      9.095     13.191    11.6857 0.0000e+00
      9.288      0.055     1.8605     18.258    152.883 112.091136     3.3300     0.3118     0.5964     4.9491 1.1605e-01    14.5617      9.108     13.210    11.6856 0.0000e+00
      9.303      0.059     1.8972     18.417    190.890 139.919475     3.3300     0.8267     0.5964     4.9491 1.1592e-01    30.8994      9.123     13.231    11.6843 0.0000e+00
      9.319      0.060     1.9313     18.534    220.222 161.359353     3.3300     0.8077     0.5964     4.9491 1.1600e-01    30.9445      9.139     13.255    11.6815 0.0000e+00
      9.337      0.059     1.9594     18.601    239.543 175.444839     3.3300     0.8115     0.5964     4.9491 1.1620e-01    30.8844      9.157     13.281    11.6770 0.0000e+00
      9.355      0.054     1.9816     18.615    252.454 184.832432     0.6300     0.8115     0.2982     2.0304 1.1605e-01    30.8694      9.174     13.305    11.6698 0.0000e+00
      9.369      0.046     1.9992     18.581    261.067 191.079364     0.6300    -0.1460     0.2982     2.0304 1.1612e-01    -0.5136      9.188     13.326    11.6582 0.0000e+00
      9.380      0.036     2.0124     18.517    266.760 195.198688     0.6300    -0.1269     0.2982     2.0304 1.1605e-01    -0.5587      9.198     13.341    11.6426 0.0000e+00
      9.387      0.026     2.0205     18.438    270.541 197.929518     0.6300    -0.1346     0.2982     2.0304 1.1600e-01    -0.6037      9.206     13.352    11.6257 0.0000e+00
      9.392      0.015     2.0225     18.355    273.109 199.782439     0.0000    -0.1346     0.0000     0.0000 1.1607e-01    -0.5136      9.210     13.358    11.6101 0.0000e+00
      9.394      0.006     2.0194     18.282    274.916 201.087833     0.0000    -0.1498     0.0000     0.0000 1.1607e-01    -0.5587      9.212     13.361    11.5971 0.0000e+00
      9.393     -0.001     2.0129     18.230    276.252 202.056025     0.0000    -0.1269     0.0000     0.0000 1.1597e-01    -0.5587      9.212     13.360    11.5869 0.0000e+00
      9.391     -0.007     2.0046     18.198    277.281 202.805423     0.0000    -0.1498     0.0000     0.0000 1.1590e-01    -0.6338      9.209     13.357    11.5793 0.0000e+00
      9.387     -0.010     1.9959     18.181    278.086 203.394086     0.0000    -0.1231     0.0000     0.0423 1.1600e-01    -0.6037      9.206     13.352    11.5740 0.0000e+00
      9.383     -0.011     1.9881     18.169    278.687 203.835213     0.0000    -0.1651     0.0000     0.0423 1.1592e-01    -0.5286      9.202     13.346    11.5705 0.0000e+00
      9.380     -0.010     1.9824     18.153    279.086 204.128615     0.0000    -0.1460     0.0000     0.0423 1.1620e-01    -0.5286      9.198     13.341    11.5686 0.0000e+00
      9.377     -0.007     1.9790     18.133    279.290 204.278644     0.0000    -0.1460     0.0000     0.0423 1.1602e-01    -0.5286      9.196     13.337    11.5678 0.0000e+00
      9.375     -0.004     1.9772     18.112    279.304 204.289361     0.0000    -0.1498     0.0000     0.0423 1.1592e-01    -0.5737      9.194     13.335    11.5678 0.0000e+00
      9.375     -0.001     1.9759     18.088    279.130 204.163624     0.0000    -0.1384     0.0000     0.0423 1.1600e-01    -0.6338      9.194     13.334    11.5679 0.0000e+00
      9.375      0.002     1.9742     18.065    278.820 203.937798     0.0000    -0.1422     0.0000     0.0423 1.1605e-01    -0.5737      9.194     13.335    11.5681 0.0000e+00
      9.377      0.004     1.9720     18.048    278.494 203.701437     0.0000    -0.1422     0.0000     0.0423 1.1602e-01    -0.5737      9.196     13.337    11.5683 0.0000e+00
      9.379      0.005     1.9697     18.035    278.286 203.551267     0.0000    -0.1269     0.0000     0.0423 1.1607e-01    -0.5436      9.198     13.340    11.5684 0.0000e+00
      9.381      0.005     1.9671     18.019    278.296 203.561065     0.0000    -0.1651     0.0000     0.0846 1.1607e-01    -0.5737      9.200     13.343    11.5686 0.0000e+00
      9.383      0.004     1.9645     18.000    278.561 203.757408     0.0000    -0.1575     0.0000     0.0846 1.1600e-01    -0.6037      9.202     13.346    11.5689 0.0000e+00
      9.384      0.001     1.9626     17.978    279.060 204.124758     0.0000    -0.1422     0.0000     0.0846 1.1600e-01    -0.6037      9.203     13.347    11.5692 0.0000e+00
      9.385     -0.003     1.9612     17.954    279.722 204.611308     0.0000    -0.1498     0.0000     0.0846 1.1617e-01    -0.6037      9.203     13.348    11.5696 0.0000e+00
      9.384     -0.009     1.9595     17.935    280.416 205.121143     0.0000    -0.1269     0.0000     0.0423 1.1605e-01    -0.5436      9.203     13.348    11.5700 0.0000e+00
      9.382     -0.016     1.9574     17.914    281.013 205.560560     0.0000    -0.1269     0.0000     0.0423 1.1595e-01    -0.5587      9.201     13.345    11.5704 0.0000e+00
      9.378     -0.026     1.9549     17.889    281.435 205.872986     0.0000    -0.1422     0.0000     0.0423 1.1595e-01    -0.6037      9.197     13.339    11.5708 0.0000e+00
      9.371     -0.037     1.9524     17.862    281.674 206.051863     0.0000    -0.1460     0.0000     0.0423 1.1605e-01    -0.4384      9.190     13.329    11.5713 0.0000e+00
      9.361     -0.051     1.9502     17.835    281.778 206.132908     0.0000    -0.1269     0.0000     0.0423 1.1610e-01    -0.5286      9.181     13.315    11.5717 0.0000e+00
      9.348     -0.067     1.9479     17.808    281.804 206.157705     0.0000    -0.1651     0.0000     0.1269 1.1597e-01    -0.5436      9.167     13.295    11.5722 0.0000e+00
      9.329     -0.084     1.9452     17.785    281.794 206.156834     0.0000    -0.1613     0.0000     0.1269 1.1605e-01    -0.4835      9.148     13.269    11.5728 0.0000e+00
      9.305     -0.104     1.9422     17.771    281.776 206.150034     0.0000    -0.1346     0.0000     0.1269 1.1592e-01    -0.4084      9.125     13.235    11.5735 0.0000e+00
      9.277     -0.127     1.9393     17.765    281.764 206.147477     0.0000    -0.1346     0.0000     0.1269 1.1612e-01     7.0917      9.097     13.195    11.5743 0.0000e+00
      9.244     -0.151     1.9363     17.768    281.768 206.156468     0.0000    -0.1422     0.0000    -0.0423 1.1600e-01     6.9865      9.064     13.147    11.5754 0.0000e+00
      9.204     -0.177     1.9338     17.776    281.814 206.195385     0.0000    -0.1422     0.0000    -0.0423 1.1605e-01     7.1518      9.025     13.090    11.5765 0.0000e+00
      9.156     -0.203     1.9322     17.783    281.949 206.298571     0.0000    -0.1346     0.0000    -0.0423 1.1595e-01     7.0616      8.978     13.022    11.5777 0.0000e+00
      9.099     -0.227     1.9315     17.785    282.188 206.477565     0.0000     0.2698     0.0000    -0.0423 1.1620e-01    52.9486      8.923     12.942    11.5788 0.0000e+00
      9.035     -0.248     1.9317     17.788    282.488 206.702211     0.0000     0.2851     0.0000     0.0846 1.1587e-01    52.9787      8.860     12.851    11.5799 0.0000e+00
      8.965     -0.264     1.9326     17.790    282.790 206.928558     0.0000     0.2736     0.0000     0.0846 1.1585e-01    52.9486      8.792     12.752    11.5808 0.0000e+00
      8.893     -0.276     1.9332     17.786    283.051 207.125095     0.0000     0.3041     0.0000     0.0846 1.1597e-01    52.9637      8.721     12.649    11.5816 0.0000e+00
      8.820     -0.285     1.9335     17.777    283.256 207.280317     0.0000     0.8306     0.0000     0.0846 1.1587e-01    65.9046      8.649     12.545    11.5824 0.0000e+00
      8.747     -0.290     1.9338     17.765    283.377 207.373703     0.0000     0.8229     0.0000     0.0846 1.1602e-01    66.0098      8.577     12.440    11.5833 0.0000e+00
      8.673     -0.295     1.9339     17.751    283.392 207.390209     0.0000     0.8267     0.0000     0.0846 1.1615e-01    65.9347      8.505     12.335    11.5842 0.0000e+00
      8.598     -0.299     1.9334     17.734    283.337 207.354211     0.0000     0.8306     0.0000     0.0846 1.1600e-01    65.9046      8.431     12.228    11.5851 0.0000e+00
      8.520     -0.302     1.9324     17.715    283.252 207.296057     0.0000     0.6894     0.0000     0.0846 1.1602e-01    34.9726      8.355     12.118    11.5860 0.0000e+00
      8.441     -0.305     1.9311     17.695    283.141 207.220211     0.0000     0.6856     0.0000     0.0846 1.1597e-01    34.8523      8.278     12.006    11.5870 0.0000e+00
      8.362     -0.307     1.9295     17.675    282.990 207.114439     0.6300     0.6932     0.1278     0.1269 1.1590e-01    34.9125      8.201     11.894    11.5878 0.0000e+00
      8.284     -0.310     1.9276     17.654    282.794 206.976500     0.6300     0.7276     0.1278     0.1269 1.1597e-01    34.8824      8.124     11.783    11.5886 0.0000e+00
      8.206     -0.312     1.9256     17.629    282.588 206.829527     0.6300     0.4262     0.1278     0.1269 1.1615e-01    20.6188      8.048     11.672    11.5894 0.0000e+00
      8.127     -0.313     1.9233     17.604    282.396 206.692251     0.6300     0.3842     0.1278     0.1269 1.1623e-01    20.5887      7.970     11.560    11.5903 0.0000e+00
      8.046     -0.314     1.9211     17.580    282.195 206.548036     1.7100     0.4224     0.5964     0.8460 1.1585e-01    20.4685      7.891     11.445    11.5912 0.0000e+00
      7.964     -0.314     1.9188     17.555    281.940 206.362421     1.7100     0.4338     0.5964     0.8460 1.1597e-01    20.5286      7.810     11.328    11.5921 0.0000e+00
      7.883     -0.312     1.9160     17.534    281.583 206.101886     1.7100     0.2278     0.5964     0.8460 1.1610e-01    15.2681      7.730     11.211    11.5929 0.0000e+00
      7.802     -0.307     1.9134     17.521    281.076 205.730908     1.7100     0.2355     0.5964     0.8460 1.1612e-01    15.3883      7.651     11.097    11.5935 0.0000e+00
      7.724     -0.302     1.9107     17.517    280.336 205.190504     3.9600     0.2355     0.5964     0.6345 1.1580e-01    15.3733      7.575     10.986    11.5939 0.0000e+00
      7.649     -0.298     1.9079     17.516    279.207 204.366524     3.9600     0.1973     0.5964     0.6345 1.1587e-01    15.3132      7.501     10.879    11.5941 0.0000e+00
      7.575     -0.295     1.9056     17.511    277.428 203.071196     3.9600     0.1897     0.5964     0.6345 1.1582e-01    13.7651      7.429     10.775    11.5943 0.0000e+00
      7.503     -0.294     1.9042     17.500    274.599 201.013023     3.9600     0.2126     0.5964     0.6345 1.1610e-01    13.6448      7.358     10.671    11.5944 0.0000e+00
      7.429     -0.294     1.9038     17.491    270.096 197.735026     3.9600     0.1592     0.5964     0.6345 1.1602e-01    13.7049      7.285     10.566    11.5947 0.0000e+00
      7.353     -0.296     1.9037     17.488    262.895 192.486895     4.3200     0.2049     0.5538     0.6768 1.1592e-01    13.7049      7.211     10.458    11.5954 0.0000e+00
      7.276     -0.297     1.9031     17.492    251.464 184.140717     4.3200     0.1706     0.5538     0.6768 1.1597e-01    12.4875      7.135     10.349    11.5968 0.0000e+00
      7.199     -0.299     1.9018     17.508    233.838 171.255545     4.3200     0.1782     0.5538     0.6768 1.1612e-01    12.4124      7.060     10.240    11.5995 0.0000e+00
      7.123     -0.300     1.9006     17.535    207.548 152.020264     4.3200     0.1630     0.5538     0.6768 1.1595e-01    12.4725      6.986     10.131    11.6036 0.0000e+00
      7.047     -0.302     1.9001     17.574    172.252 126.184680     4.3200     0.1706     0.5112     0.4230 1.1605e-01    12.4124      6.911     10.023    11.6089 0.0000e+00
      6.971     -0.305     1.9004     17.624    134.898  98.838825     4.3200     0.1592     0.5112     0.4230 1.1607e-01    12.4725      6.837      9.915    11.6149 0.0000e+00
      6.894     -0.308     1.9019     17.677    105.283  77.164021     4.3200     0.1668     0.5112     0.4230 1.1590e-01    12.5176      6.761      9.805    11.6214 0.0000e+00
      6.814     -0.311     1.9047     17.722     86.126  63.150769     4.3200     0.1859     0.5112     0.4230 1.1592e-01    12.6228      6.683      9.692    11.6285 0.0000e+00
      6.733     -0.312     1.9087     17.747     74.454  54.618256     4.4100     0.1706     0.4260     0.2115 1.1605e-01    12.4574      6.603      9.576    11.6369 0.0000e+00
      6.651     -0.312     1.9139     17.743     67.385  49.453607     4.4100     0.1859     0.4260     0.2115 1.1600e-01    12.7430      6.523      9.461    11.6477 0.0000e+00
      6.571     -0.312     1.9192     17.712     63.118  46.337039     4.4100     0.1706     0.4260     0.2115 1.1612e-01    12.7580      6.444      9.346    11.6619 0.0000e+00
      6.492     -0.311     1.9234     17.668     60.529  44.447374     4.4100     0.2049     0.4260     0.2115 1.1602e-01    12.8332      6.366      9.234    11.6782 0.0000e+00
      6.415     -0.310     1.9256     17.617     58.953  43.296550     4.4100     0.1935     0.4260     0.2115 1.1605e-01    12.7731      6.290      9.123    11.6933 0.0000e+00
      6.337     -0.309     1.9247     17.553     57.998  42.599473     4.5000     0.1706     0.3408     0.2115 1.1597e-01    13.4795      6.215      9.014    11.7051 0.0000e+00
      6.259     -0.309     1.9210     17.481     57.417  42.174220     4.5000     0.1935     0.3408     0.2115 1.1595e-01    13.3893      6.138      8.902    11.7133 0.0000e+00
      6.178     -0.308     1.9160     17.401     57.064  41.915314     4.5000     0.1515     0.3408     0.2115 1.1607e-01    13.3593      6.059      8.788    11.7188 0.0000e+00
      6.098     -0.306     1.9103     17.305     56.862  41.765600     4.5000     0.1515     0.3408     0.2115 1.1600e-01    13.4645      5.981      8.674    11.7224 0.0000e+00
      6.019     -0.303     1.9033     17.181     56.743  41.677229     4.4100     0.1706     0.3408     0.2115 1.1602e-01    12.4725      5.903      8.562    11.7243 0.0000e+00
      5.942     -0.299     1.8955     17.019     56.665  41.618713     4.4100     0.1630     0.3408     0.2115 1.1607e-01    12.5777      5.828      8.452    11.7248 0.0000e+00
      5.868     -0.295     1.8869     16.819     56.617  41.582370     4.4100     0.1630     0.3408     0.2115 1.1600e-01    12.4424      5.754      8.346    11.7242 0.0000e+00
      5.794     -0.291     1.8765     16.606     56.595  41.566435     4.4100     0.1782     0.3408     0.2115 1.1592e-01    12.5025      5.683      8.242    11.7230 0.0000e+00
      5.721     -0.288     1.8631     16.429     56.578  41.554770     4.4100     0.1935     0.3408     0.2538 1.1595e-01    12.4875      5.611      8.137    11.7216 0.0000e+00
      5.648     -0.286     1.8456     16.323     56.557  41.540303     4.4100     0.1592     0.3408     0.2538 1.1602e-01    12.4875      5.539      8.033    11.7205 0.0000e+00
      5.575     -0.284     1.8239     16.277     56.538  41.527102     4.4100     0.1706     0.3408     0.2538 1.1617e-01    12.5176      5.467      7.929    11.7199 0.0000e+00
      5.503     -0.283     1.8008     16.269     56.505  41.503721     4.4100     0.1821     0.3408     0.2538 1.1587e-01    12.5777      5.397      7.827    11.7200 0.0000e+00
      5.431     -0.282     1.7816     16.282     56.456  41.467888     4.4100     0.2431     0.3408     0.2961 1.1612e-01    13.2240      5.326      7.725    11.7206 0.0000e+00
      5.359     -0.281     1.7700     16.305     56.420  41.441746     4.4100     0.2469     0.3408     0.2961 1.1607e-01    13.2841      5.256      7.623    11.7215 0.0000e+00
      5.288     -0.279     1.7650     16.328     56.421  41.442097     4.4100     0.2355     0.3408     0.2961 1.1595e-01    13.2390      5.186      7.522    11.7225 0.0000e+00
      5.217     -0.276     1.7642     16.344     56.454  41.465073     4.4100     0.2240     0.3408     0.2961 1.1602e-01    13.3142      5.116      7.420    11.7231 0.0000e+00
      5.146     -0.272     1.7656     16.350     56.493  41.493027     4.4100     0.2088     0.3408     0.2961 1.1600e-01    12.8182      5.046      7.319    11.7234 0.0000e+00
      5.076     -0.268     1.7680     16.363     56.516  41.509640     4.4100     0.1439     0.2982     0.1692 1.1600e-01    12.2170      4.978      7.220    11.7232 0.0000e+00
      5.009     -0.265     1.7706     16.402     56.519  41.511416     4.4100     0.1782     0.2982     0.1692 1.3447e-01    12.1719      4.912      7.124    11.7227 0.0000e+00
      4.943     -0.262     1.7724     16.475     56.502  41.498830     4.4100     0.1554     0.2982     0.1692 1.4636e-01    12.2771      4.847      7.030    11.7221 0.0000e+00
      4.878     -0.260     1.7730     16.574     56.470  41.476451     4.4100     0.1630     0.2982     0.1692 1.3279e-01    12.2170      4.784      6.938    11.7214 0.0000e+00
      4.813     -0.259     1.7744     16.692     56.443  41.458121     4.4100     0.1821     0.2982     0.2961 1.4948e-01    12.6378      4.720      6.846    11.7208 0.0000e+00
      4.747     -0.260     1.7787     16.827     56.426  41.446878     4.4100     0.1859     0.2982     0.2961 1.8268e-01    12.7580      4.655      6.751    11.7204 0.0000e+00
      4.680     -0.261     1.7866     16.988     56.409  41.435761     4.4100     0.1782     0.2982     0.2961 2.3808e-01    12.8633      4.589      6.656    11.7206 0.0000e+00
      4.612     -0.261     1.7972     17.199     56.400  41.429732     4.4100     0.1668     0.2982     0.2961 2.1883e-01    12.7731      4.523      6.560    11.7215 0.0000e+00
      4.545     -0.260     1.8100     17.503     56.406  41.435106     4.4100     0.1668     0.3408     0.2115 2.3145e-01    12.1568      4.457      6.465    11.7227 0.0000e+00
      4.478     -0.258     1.8246     17.973     56.431  41.453317     4.4100     0.1935     0.3408     0.2115 2.1191e-01    12.2921      4.392      6.369    11.7239 0.0000e+00
      4.412     -0.253     1.8420     18.498     56.468  41.481297     4.4100     0.1821     0.3408     0.2115 2.7666e-01    12.3071      4.327      6.276    11.7250 0.0000e+00
      4.348     -0.247     1.8649     18.779     56.513  41.514620     4.4100     0.1782     0.3408     0.2115 2.9223e-01    12.2170      4.264      6.184    11.7259 0.0000e+00
      4.284     -0.239     1.8978     18.764     56.567  41.554248     4.4100     0.1592     0.3408     0.2115 3.7855e-01    12.0967      4.201      6.094    11.7264 0.0000e+00
      4.223     -0.229     1.9488     18.602     56.608  41.584994     4.4100     0.1706     0.3408     0.2115 3.7871e-01    12.0216      4.142      6.007    11.7266 0.0000e+00
      4.165     -0.219     2.0056     18.407     56.614  41.589300     4.4100     0.1744     0.3408     0.2115 4.3873e-01    12.0667      4.085      5.924    11.7267 0.0000e+00
      4.111     -0.210     2.0361     18.275     56.609  41.586146     4.4100     0.1630     0.3408     0.2115 5.0496e-01    12.0065      4.032      5.847    11.7269 0.0000e+00
      4.060     -0.203     2.0345     18.295     56.614  41.592520     4.4100     0.1668     0.3408     0.2115 5.1864e-01    11.5556      3.982      5.775    11.7272 0.0000e+00
      4.012     -0.199     2.0169     18.576     56.626  41.606162     4.3200     0.1782     0.3408     0.2961 4.8024e-01    11.4805      3.935      5.707    11.7274 0.0000e+00
      3.965     -0.199     1.9958     19.276     56.652  41.634670     4.3200     0.1554     0.3408     0.2961 4.9777e-01    11.6458      3.888      5.640    11.7276 0.0000e+00
      3.916     -0.202     1.9814     20.492     56.699  41.681685     4.3200     0.1515     0.3408     0.2961 5.6524e-01    11.5857      3.840      5.570    11.7282 0.0000e+00
      3.863     -0.205     1.9835     21.953     56.739  41.726064     4.3200     0.2278     0.3408     0.2961 6.5568e-01    11.5707      3.789      5.495    11.7302 0.0000e+00
      3.808     -0.208     2.0136     23.144     56.727  41.736058     4.4100     0.2011     0.2982     0.1269 7.8323e-01    11.4805      3.735      5.417    11.7348 0.0000e+00
      3.752     -0.210     2.0891     23.784     56.663  41.712351     4.4100     0.2316     0.2982     0.1269 8.6688e-01    11.5707      3.680      5.338    11.7428 0.0000e+00
      3.697     -0.209     2.2203     23.880     56.595  41.694187     4.4100     0.2202     0.2982     0.1269 1.0089e+00    11.6158      3.626      5.259    11.7539 0.0000e+00
      3.644     -0.207     2.3780     23.536     56.585  41.728234     4.4100     0.4186     0.2982     0.1269 1.1479e+00     9.1809      3.573      5.183    11.7675 0.0000e+00
      3.592     -0.206     2.5061     22.883     56.652  41.825555     4.2300     0.4071     0.2982     0.3384 1.0988e+00     9.2260      3.523      5.110    11.7839 0.0000e+00
      3.543     -0.208     2.5743     22.071     56.755  41.954650     4.2300     0.3957     0.2982     0.3384 1.0509e+00     9.1959      3.474      5.039    11.8048 0.0000e+00
      3.493     -0.213     2.5832     21.283     56.854  42.086547     4.2300     0.4148     0.2982     0.3384 1.0775e+00     9.1208      3.425      4.968    11.8328 0.0000e+00
      3.439     -0.220     2.5440     20.733     56.908  42.196984     4.2300     0.5292     0.2982     0.3384 1.1690e+00     9.3763      3.373      4.892    11.8691 0.0000e+00
      3.381     -0.227     2.4712     20.546     56.904  42.281732     4.1400     0.5559     0.2982     0.2538 1.3183e+00     9.4514      3.316      4.809    11.9113 0.0000e+00
      3.319     -0.232     2.3810     20.657     56.857  42.359431     4.1400     0.5445     0.2982     0.2538 1.4708e+00     9.4514      3.255      4.721    11.9577 0.0000e+00
      3.256     -0.235     2.2932     20.921     56.760  42.429010     4.1400     0.5406     0.2982     0.2538 1.5805e+00     9.3913      3.193      4.632    12.0100 0.0000e+00
      3.195     -0.236     2.2305     21.238     56.629  42.499122     4.1400     0.7009     0.2982     0.2538 1.6940e+00    11.0897      3.133      4.544    12.0721 0.0000e+00
      3.135     -0.236     2.2063     21.549     56.515  42.588471     4.1400     0.7161     0.2982     0.2538 1.6995e+00    11.1047      3.074      4.459    12.1499 0.0000e+00
      3.078     -0.237     2.2131     21.816     56.451  42.701079     4.2300     0.7276     0.3408     0.4230 1.7433e+00    11.0897      3.018      4.377    12.2493 0.0000e+00
      3.020     -0.240     2.2349     22.017     56.451  42.843207     4.2300     0.6856     0.3408     0.4230 1.7619e+00    11.0897      2.962      4.296    12.3744 0.0000e+00
      2.960     -0.244     2.2611     22.136     56.515  43.027002     4.2300     0.9297     0.3408     0.4230 1.9295e+00    10.5937      2.903      4.211    12.5226 0.0000e+00
      2.896     -0.249     2.2862     22.158     56.607  43.247983     4.2300     0.9526     0.3408     0.4230 2.1820e+00    10.5937      2.841      4.120    12.6773 0.0000e+00
      2.830     -0.252     2.3073     22.091     56.677  43.483849     4.3200     0.9526     0.3408     0.4653 2.4494e+00    10.5787      2.775      4.025    12.8195 0.0000e+00
      2.762     -0.253     2.3222     21.996     56.699  43.718250     4.3200     0.9565     0.3408     0.4653 2.7960e+00    10.5035      2.709      3.929    12.9446 0.0000e+00
      2.695     -0.253     2.3287     21.940     56.647  43.926521     4.3200     1.4829     0.3408     0.4653 3.1923e+00     8.3242      2.643      3.834    13.0640 0.0000e+00
      2.631     -0.251     2.3242     21.964     56.507  44.084956     4.3200     1.3951     0.3408     0.4653 3.3999e+00     8.2791      2.581      3.743    13.1978 0.0000e+00
      2.570     -0.250     2.3090     22.082     56.278  44.188261     4.3200     1.4371     0.3408     0.6768 3.4192e+00     8.2039      2.520      3.656    13.3595 0.0000e+00
      2.509     -0.251     2.2893     22.279     55.957  44.234271     4.3200     1.4562     0.3408     0.6768 3.5324e+00     8.2490      2.461      3.570    13.5527 0.0000e+00
      2.447     -0.254     2.2722     22.529     55.570  44.237249     4.3200     2.1428     0.3408     0.6768 4.0710e+00     5.6187      2.400      3.481    13.7736 0.0000e+00
      2.381     -0.257     2.2626     22.801     55.161  44.223760     4.3200     2.1200     0.3408     0.6768 4.9676e+00     5.6939      2.335      3.387    14.0128 0.0000e+00
      2.313     -0.259     2.2620     23.051     54.737  44.202105     4.3200     2.1161     0.3408     0.6768 6.0419e+00     5.7390      2.268      3.290    14.2660 0.0000e+00
      2.243     -0.259     2.2687     23.241     54.281  44.168501     4.3200     2.1238     0.4260     0.9306 7.1052e+00     5.7089      2.200      3.191    14.5349 0.0000e+00
      2.175     -0.256     2.2802     23.363     53.794  44.119942     4.3200     4.8094     0.4260     0.9306 8.3483e+00     3.0486      2.133      3.095    14.8153 0.0000e+00
      2.110     -0.251     2.2936     23.427     53.278  44.045476     4.3200     4.8017     0.4260     0.9306 9.0847e+00     3.0185      2.070      3.002    15.0999 0.0000e+00
      2.049     -0.248     2.3043     23.453     52.740  43.935167     4.3200     4.7941     0.4260     0.9306 8.9631e+00     2.9734      2.009      2.914    15.3926 0.0000e+00
      1.989     -0.246     2.3083     23.459     52.199  43.805182     4.2300     4.8170     0.2982     1.9035 9.1163e+00     3.1688      1.951      2.830    15.7021 0.0000e+00
      1.929     -0.247     2.3045     23.449     51.656  43.672384     4.2300     8.2999     0.2982     1.9035 9.9204e+00     3.5897      1.892      2.744    16.0273 0.0000e+00
      1.867     -0.248     2.2950     23.427     51.113  43.552884     4.2300     8.2770     0.2982     1.9035 1.1334e+01     3.5446      1.831      2.655    16.3559 0.0000e+00
      1.801     -0.250     2.2825     23.398     50.610  43.480211     4.2300     8.3113     0.2982     1.9035 1.3302e+01     3.5295      1.767      2.563    16.6737 0.0000e+00
      1.735     -0.250     2.2684     23.368     50.155  43.450851     3.9600     8.3075     0.2130     4.2300 1.4955e+01     3.4243      1.701      2.468    16.9811 0.0000e+00
      1.669     -0.249     2.2528     23.341     49.726  43.429254     3.9600    14.2547     0.2130     4.2300 1.6983e+01     3.9504      1.637      2.374    17.2941 0.0000e+00
      1.606     -0.246     2.2354     23.320     49.300  43.381936     3.9600    14.2509     0.2130     4.2300 1.8225e+01     3.9504      1.574      2.284    17.6260 0.0000e+00
      1.545     -0.244     2.2166     23.305     48.847  43.276481     3.9600    14.2471     0.2130     4.2300 1.8154e+01     4.0105      1.515      2.198    17.9776 0.0000e+00
      1.486     -0.243     2.1976     23.291     48.376  43.138269     4.0500    14.2661     0.1278     4.4415 1.8525e+01     4.0105      1.457      2.114    18.3369 0.0000e+00
      1.426     -0.243     2.1794     23.277     47.930  43.029515     4.0500    15.4106     0.1278     4.4415 2.0530e+01     4.4915      1.398      2.028    18.6873 0.0000e+00
      1.364     -0.244     2.1630     23.266     47.524  42.970761     4.0500    15.4182     0.1278     4.4415 2.3106e+01     4.4314      1.338      1.940    19.0155 0.0000e+00
      1.300     -0.245     2.1485     23.255     47.175  42.958241     4.0500    15.4106     0.1278     4.4415 2.6537e+01     4.5666      1.275      1.849    19.3154 0.0000e+00
      1.235     -0.243     2.1348     23.240     46.899  42.980707     4.0500    15.4258     0.1278     4.4415 2.9314e+01     4.4614      1.211      1.757    19.6025 0.0000e+00
      1.171     -0.239     2.1207     23.218     46.672  43.002556     4.1400    11.8361     0.2130     4.0185 3.3244e+01     3.4694      1.149      1.666    19.9036 0.0000e+00
      1.110     -0.233     2.1063     23.187     46.441  42.988016     4.1400    11.8399     0.2130     4.0185 3.7989e+01     3.4995      1.088      1.579    20.2235 0.0000e+00
      1.051     -0.224     2.0921     23.153     46.191  42.943122     4.1400    11.8476     0.2130     4.0185 4.0214e+01     3.5446      1.031      1.495    20.5422 0.0000e+00
      0.996     -0.214     2.0789     23.117     45.940  42.901475     4.1400    11.8361     0.2130     4.0185 4.1592e+01     3.5446      0.977      1.417    20.8311 0.0000e+00
      0.943     -0.202     2.0669     23.077     45.709  42.887639     4.2300     6.0835     0.1704     3.5109 4.8121e+01     3.2440      0.924      1.341    21.0756 0.0000e+00
      0.891     -0.187     2.0556     23.038     45.512  42.905859     4.2300     6.0797     0.1704     3.5109 5.9296e+01     3.3642      0.874      1.267    21.2876 0.0000e+00
      0.842     -0.170     2.0446     23.008     45.353  42.949115     4.2300     6.0873     0.1704     3.5109 7.1201e+01     3.3492      0.826      1.198    21.4888 0.0000e+00
      0.799     -0.151     2.0331     22.996     45.232  43.009140     4.2300     6.1140     0.1704     3.5109 7.6794e+01     3.2590      0.784      1.137    21.6967 0.0000e+00
      0.763     -0.131     2.0210     23.018     45.154  43.078175     4.2300     4.6644     0.1278     3.0456 8.0222e+01     2.8231      0.748      1.085    21.9166 0.0000e+00
      0.734     -0.111     2.0090     23.095     45.130  43.150863     4.2300     4.6606     0.1278     3.0456 7.9996e+01     2.8081      0.719      1.044    22.1381 0.0000e+00
      0.710     -0.094     1.9983     23.264     45.164  43.222818     4.2300     4.6568     0.1278     3.0456 7.9476e+01     2.8382      0.696      1.010    22.3499 0.0000e+00
      0.691     -0.082     1.9899     23.480     45.246  43.287472     4.2300     4.7025     0.1278     3.0456 7.6444e+01     2.8231      0.678      0.983    22.5421 0.0000e+00
      0.675     -0.076     1.9857     23.564     45.335  43.322439     4.3200     8.3800     0.2130     2.8341 7.3544e+01    12.0967      0.661      0.960    22.6988 0.0000e+00
      0.659     -0.076     1.9883     23.407     45.378  43.303355     4.3200     8.3685     0.2130     2.8341 7.2245e+01    12.0667      0.646      0.937    22.8041 0.0000e+00
      0.642     -0.082     2.0012     23.033     45.379  43.258806     4.3200     8.3609     0.2130     2.8341 7.2292e+01    12.0667      0.629      0.912    22.8478 0.0000e+00
      0.622     -0.091     2.0203     22.499     45.379  43.244271     4.3200     8.3723     0.2130     2.8341 7.0692e+01    12.0366      0.609      0.884    22.8319 0.0000e+00
      0.598     -0.102     2.0297     21.868     45.399  43.277667     4.3200     6.8235     0.2130     2.8341 7.4785e+01    15.1629      0.586      0.850    22.7760 0.0000e+00
      0.568     -0.111     2.0188     21.203     45.450  43.359977     4.3200     6.8312     0.2982     2.4957 9.2212e+01    15.1178      0.557      0.808    22.7089 0.0000e+00
      0.536     -0.117     1.9884     20.572     45.546  43.491361     4.3200     6.8426     0.2982     2.4957 1.0993e+02    15.0577      0.525      0.762    22.6589 0.0000e+00
      0.502     -0.122     1.9430     20.051     45.641  43.615718     4.3200     6.8388     0.2982     2.4957 1.2184e+02    15.2080      0.492      0.714    22.6423 0.0000e+00
      0.470     -0.126     1.8880     19.691     45.648  43.643372     4.3200     5.5570     0.2982     2.4957 1.1997e+02    21.7160      0.461      0.669    22.6580 0.0000e+00
      0.440     -0.130     1.8294     19.467     45.549  43.561885     4.2300     5.5990     0.2130     2.4957 1.1888e+02    21.6709      0.431      0.626    22.6951 0.0000e+00
      0.410     -0.137     1.7734     19.316     45.394  43.434722     4.2300     5.5952     0.2130     2.4957 1.1829e+02    21.7761      0.402      0.582    22.7388 0.0000e+00
      0.377     -0.147     1.7273     19.195     45.229  43.317130     4.2300     5.6295     0.2130     2.4957 1.1703e+02    21.8212      0.370      0.536    22.7754 0.0000e+00
      0.340     -0.158     1.6955     19.072     45.068  43.219360     4.2300     5.4769     0.2130     2.4957 1.2522e+02    15.7490      0.333      0.483    22.7984 0.0000e+00
      0.296     -0.168     1.6756     18.925     44.917  43.141100     4.2300     5.4617     0.1278     3.4686 1.6090e+02    15.8392      0.291      0.421    22.8136 0.0000e+00
      0.248     -0.174     1.6619     18.756     44.778  43.083276     4.2300     5.4769     0.1278     3.4686 2.2805e+02    15.8092      0.243      0.353    22.8374 0.0000e+00
      0.198     -0.175     1.6501     18.598     44.640  43.038397     4.2300     5.4693     0.1278     3.4686 2.8047e+02    15.8993      0.194      0.281    22.8821 0.0000e+00
      0.150     -0.172     1.6376     18.481     44.500  43.002424     4.2300     5.7630     0.1278     3.4686 3.0329e+02     4.7770      0.147      0.214    22.9448 0.0000e+00
      0.107     -0.167     1.6227     18.415     44.353  42.965769     4.2300     5.8050     0.1704     3.1302 3.2231e+02     4.7320      0.105      0.152    23.0191 0.0000e+00
      0.067     -0.163     1.6056     18.391     44.197  42.918662     4.2300     5.7859     0.1704     3.1302 3.1218e+02     4.6418      0.066      0.096    23.1049 0.0000e+00
      0.030     -0.162     1.5891     18.398     44.042  42.864396     4.2300     5.7859     0.1704     3.1302 3.1130e+02     4.7921      0.030      0.043    23.2036 0.0000e+00
     -0.007     -0.167     1.5758     18.427     43.891  42.800395     4.2300     5.1107     0.1704     3.1302 2.9929e+02     8.2640     -0.007     -0.010    23.3149 0.0000e+00
     -0.047     -0.176     1.5666     18.464     43.737  42.719499     4.2300     5.0993     0.1704     3.1302 3.0132e+02     8.1889     -0.046     -0.067    23.4333 0.0000e+00
     -0.093     -0.189     1.5611     18.496     43.597  42.643725     4.3200     5.1412     0.3408     3.5109 3.5143e+02     8.2941     -0.091     -0.132    23.5506 0.0000e+00
     -0.144     -0.203     1.5585     18.511     43.493  42.598437     4.3200     5.1145     0.3408     3.5109 5.3222e+02     8.2791     -0.142     -0.205    23.6597 0.0000e+00
     -0.200     -0.215     1.5581     18.509     43.426  42.583448     4.3200     5.6448     0.3408     3.5109 5.5610e+02    11.5857     -0.196     -0.284    23.7542 0.0000e+00
     -0.259     -0.221     1.5590     18.499     43.410  42.610611     4.3200     5.5761     0.3408     3.5109 5.5057e+02    11.4955     -0.254     -0.367    23.8328 0.0000e+00
     -0.319     -0.219     1.5596     18.499     43.472  42.699061     4.5000     5.5837     0.2130     5.1183 5.2373e+02    11.6308     -0.313     -0.453    23.9023 0.0000e+00
     -0.380     -0.209     1.5590     18.533     43.612  42.844650     4.5000     5.6257     0.2130     5.1183 4.7545e+02    11.6007     -0.372     -0.540    23.9670 0.0000e+00
     -0.437     -0.193     1.5571     18.629     43.805  43.016860     4.5000     5.6600     0.2130     5.1183 4.2883e+02     6.7911     -0.428     -0.621    24.0253 0.0000e+00
     -0.485     -0.171     1.5549     18.754     43.998  43.164535     4.5000     5.6715     0.2130     5.1183 4.0501e+02     6.7460     -0.476     -0.690    24.0735 0.0000e+00
     -0.525     -0.146     1.5539     18.810     44.150  43.253747     4.5000     5.6944     0.2130     5.7951 3.8085e+02     6.8662     -0.515     -0.747    24.1060 0.0000e+00
     -0.557     -0.120     1.5565     18.736     44.246  43.278561     4.5000     5.6715     0.2130     5.7951 3.0434e+02     6.7610     -0.546     -0.792    24.1152 0.0000e+00
     -0.583     -0.097     1.5652     18.537     44.276  43.237666     4.5000     0.8306     0.2130     5.7951 2.3633e+02     2.4323     -0.571     -0.829    24.0954 0.0000e+00
     -0.602     -0.076     1.5771     18.257     44.227  43.124116     4.5000     0.8153     0.2130     5.7951 1.8169e+02     2.4023     -0.591     -0.857    24.0475 0.0000e+00
     -0.618     -0.060     1.5838     17.972     44.070  42.911589     4.5000     0.8229     0.2130     5.7951 5.7858e+01     2.4624     -0.606     -0.879    23.9792 0.0000e+00
     -0.630     -0.047     1.5799     17.727     43.753  42.551335     0.9900     0.8000     0.0426     1.2690 5.1991e+01     2.3873     -0.618     -0.896    23.9008 0.0000e+00
     -0.639     -0.036     1.5653     17.534     43.193  41.963132     0.9900    -0.1536     0.0426     1.2690 4.2478e+01    -0.6037     -0.627     -0.909    23.8211 0.0000e+00
     -0.646     -0.028     1.5438     17.404     42.246  41.005976     0.9900    -0.1193     0.0426     1.2690 4.4316e+01    -0.4384     -0.634     -0.919    23.7458 0.0000e+00
     -0.652     -0.022     1.5217     17.343     40.661  39.440473     0.9900    -0.1422     0.0426     1.2690 4.6386e+01    -0.5587     -0.639     -0.927    23.6775 0.0000e+00
     -0.656     -0.017     1.5027     17.337     38.018  36.857079     0.0000    -0.1498     0.0426     0.0000 3.8287e+01    -0.6037     -0.643     -0.933    23.6170 0.0000e+00
     -0.660     -0.013     1.4878     17.352     33.605  32.566888     0.0000    -0.1498     0.0426     0.0000 4.5143e+01    -0.6338     -0.647     -0.938    23.5641 0.0000e+00
     -0.662     -0.010     1.4780     17.360     27.206  26.358694     0.0000    -0.1346     0.0426     0.0000 8.7755e+01    -0.4835     -0.649     -0.942    23.5191 0.0000e+00
     -0.664     -0.008     1.4739     17.349     20.468  19.825898     0.0000    -0.1346     0.0426     0.0000 1.6645e+02    -0.3933     -0.651     -0.945    23.4824 0.0000e+00
     -0.666     -0.006     1.4742     17.328     15.426  14.937586     0.0000    -0.1613     0.0000    -0.2538 1.6182e+02    -0.6037     -0.653     -0.947    23.4536 0.0000e+00
     -0.667     -0.005     1.4762     17.304     12.130  11.741790     0.0000    -0.1498     0.0000    -0.2538 1.7171e+02    -0.5737     -0.654     -0.949    23.4306 0.0000e+00
     -0.668     -0.004     1.4774     17.273      9.712   9.398162     0.0000    -0.1346     0.0000    -0.2538 1.6703e+02    -0.4685     -0.655     -0.950    23.4113 0.0000e+00
     -0.668     -0.003     1.4770     17.228      7.848   7.590261     0.0000    -0.1575     0.0000    -0.2538 1.6649e+02    -0.5136     -0.655     -0.951    23.3937 0.0000e+00
     -0.669     -0.002     1.4757     17.189      6.535   6.316554     0.0000    -0.1269     0.0000     0.0846 1.6052e+02    -0.5286     -0.656     -0.951    23.3765 0.0000e+00
     -0.669     -0.002     1.4742     17.181      5.759   5.561701     0.0000    -0.1346     0.0000     0.0846 1.4655e+02    -0.5737     -0.656     -0.952    23.3587 0.0000e+00
     -0.670     -0.001     1.4721     17.213      5.319   5.132320     0.0000    -0.1231     0.0000     0.0846 1.5062e+02    -0.4685     -0.657     -0.952    23.3390 0.0000e+00
     -0.670     -0.001     1.4689     17.286      4.918   4.739890     0.0000    -0.1269     0.0000     0.0846 1.9780e+02    -0.5436     -0.657     -0.953    23.3160 0.0000e+00
     -0.670     -0.001     1.4664     17.395      4.461   4.295583     0.0000    -0.1346     0.0000     0.0846 1.7381e+02    -0.4534     -0.657     -0.953    23.2874 0.0000e+00
     -0.670     -0.001     1.4668     17.531      4.054   3.900415     0.0000    -0.1651    -0.0852    -0.1692 1.5724e+02    -0.4835     -0.657     -0.953    23.2502 0.0000e+00
     -0.670     -0.000     1.4708     17.685      3.750   3.605224     0.0000    -0.1575    -0.0852    -0.1692 1.5714e+02    -0.5436     -0.657     -0.953    23.2041 0.0000e+00
     -0.670     -0.000     1.4784     17.838      3.533   3.394569     0.0000    -0.1231    -0.0852    -0.1692 1.7234e+02    -0.5436     -0.657     -0.953    23.1549 0.0000e+00
     -0.670     -0.000     1.4890     17.967      3.391   3.255775     0.0000    -0.1422    -0.0852    -0.1692 1.7957e+02    -0.5436     -0.657     -0.953    23.1100 0.0000e+00
     -0.670     -0.000     1.5018     18.059      3.295   3.161717     0.0000    -0.1269     0.0000     0.1269 1.8528e+02    -0.4084     -0.657     -0.953    23.0715 0.0000e+00
     -0.670     -0.000     1.5159     18.116      3.218   3.087314     0.0000    -0.1575     0.0000     0.1269 1.8922e+02    -0.5136     -0.657     -0.953    23.0385 0.0000e+00
     -0.670     -0.000     1.5298     18.137      3.184   3.054247     0.0000    -0.1422     0.0000     0.1269 1.8951e+02    -0.5436     -0.657     -0.953    23.0099 0.0000e+00
     -0.670 -9.990e-29     1.5415 -9.990e-29 -9.990e-29 -9.990e-29     0.0000 -9.990e-29     0.0000     0.1269 1.8930e+02 -9.990e-29     -0.657     -0.953    22.9856 0.0000e+00
     -0.670 -9.990e-29     1.5500 -9.990e-29 -9.990e-29 -9.990e-29     0.0000 -9.990e-29    -0.0426    -0.0846 1.8889e+02 -9.990e-29     -0.657     -0.953    22.9658 0.0000e+00
     -0.670 -9.990e-29     1.5554 -9.990e-29 -9.990e-29 -9.990e-29     0.0000 -9.990e-29    -0.0426    -0.0846 1.8836e+02 -9.990e-29     -0.657     -0.953    22.9520 0.0000e+00
     -0.670 -9.990e-29     1.5573 -9.990e-29 -9.990e-29 -9.990e-29     0.0000 -9.990e-29    -0.0426    -0.0846 1.8779e+02 -9.990e-29     -0.657     -0.953    22.9468 0.0000e+00
