* Sea-Bird SBE19plus  Data File:
* FileName = C:\Users\CareyLab\Documents\DATA_moored\090219_fcr50_0001.hex
* Software version 2.8.0.119 SB_Terminal.dll
* Temperature SN = 7809
* Conductivity SN = 7809
* System UpLoad Time = Sep 02 2019 09:36:55
* <ApplicationData>
* <Seaterm232>
* <SoftwareVersion>2.8.0.119</SoftwareVersion>
* <BuildDate>07-Nov-2018</BuildDate>
* </Seaterm232>
* </ApplicationData>
* cast   1 02 Sep 2019 09:26:25 samples 1 to 996, avg = 1, stop = mag switch
# nquan = 15
# nvalues = 861                         
# units = specified
# name 0 = depFM: Depth [fresh water, m]
# name 1 = dz/dtM: Descent Rate [m/s]
# name 2 = sbeox0ML/L: Oxygen, SBE 43 [ml/l]
# name 3 = sbeox0PS: Oxygen, SBE 43 [% saturation]
# name 4 = specc: Specific Conductance [uS/cm]
# name 5 = c0uS/cm: Conductivity [uS/cm]
# name 6 = flECO-AFL: Fluorescence, WET Labs ECO-AFL/FL [mg/m^3]
# name 7 = ph: pH
# name 8 = orp: Oxidation Reduction Potential [mV]
# name 9 = par/sat/log: PAR/Logarithmic, Satlantic
# name 10 = turbWETntu0: Turbidity, WET Labs ECO [NTU]
# name 11 = prdM: Pressure, Strain Gauge [db]
# name 12 = prdE: Pressure, Strain Gauge [psi]
# name 13 = tv290C: Temperature [ITS-90, deg C]
# name 14 = flag:  0.000e+00
# span 0 =     -0.552,      9.647       
# span 1 =     -0.166,      4.275       
# span 2 =     0.0087,     6.0160       
# span 3 =      0.574,    100.251       
# span 4 =      1.577,    275.624       
# span 5 =   1.475674, 202.480005       
# span 6 =    -0.6964,    16.6462       
# span 7 =      5.177,      7.718       
# span 8 = -1240.7455,   432.2340       
# span 9 = 1.2359e-01, 1.1747e+03       
# span 10 =    -0.5294,   323.6334      
# span 11 =     -0.542,      9.461      
# span 12 =     -0.786,     13.722      
# span 13 =    11.5248,    24.4566      
# span 14 = 0.0000e+00, 0.0000e+00      
# interval = seconds: 0.25
# start_time = Sep 02 2019 09:26:25 [Instrument's time stamp, header]
# bad_flag = -9.990e-29
# <Sensors count="9" >
#   <sensor Channel="1" >
#     <!-- Count, Temperature -->
#     <TemperatureSensor SensorID="58" >
#       <SerialNumber>7809</SerialNumber>
#       <CalibrationDate>24-Mar-19</CalibrationDate>
#       <A0>1.21792325e-003</A0>
#       <A1>2.81669265e-004</A1>
#       <A2>-1.60333336e-006</A2>
#       <A3>1.98414625e-007</A3>
#       <Slope>1.00000000</Slope>
#       <Offset>0.0000</Offset>
#     </TemperatureSensor>
#   </sensor>
#   <sensor Channel="2" >
#     <!-- Frequency 0, Conductivity -->
#     <ConductivitySensor SensorID="3" >
#       <SerialNumber>7809</SerialNumber>
#       <CalibrationDate>24-Mar-19</CalibrationDate>
#       <UseG_J>1</UseG_J>
#       <!-- Cell const and series R are applicable only for wide range sensors. -->
#       <SeriesR>0.0000</SeriesR>
#       <CellConst>2000.0000</CellConst>
#       <ConductivityType>0</ConductivityType>
#       <Coefficients equation="0" >
#         <A>0.00000000e+000</A>
#         <B>0.00000000e+000</B>
#         <C>0.00000000e+000</C>
#         <D>0.00000000e+000</D>
#         <M>0.0</M>
#         <CPcor>-9.57000000e-008</CPcor>
#       </Coefficients>
#       <Coefficients equation="1" >
#         <G>-1.00589325e+000</G>
#         <H>1.26816302e-001</H>
#         <I>-1.51560448e-004</I>
#         <J>2.67137274e-005</J>
#         <CPcor>-9.57000000e-008</CPcor>
#         <CTcor>3.2500e-006</CTcor>
#         <!-- WBOTC not applicable unless ConductivityType = 1. -->
#         <WBOTC>0.00000000e+000</WBOTC>
#       </Coefficients>
#       <Slope>1.00000000</Slope>
#       <Offset>0.00000</Offset>
#     </ConductivitySensor>
#   </sensor>
#   <sensor Channel="3" >
#     <!-- Count, Pressure, Strain Gauge -->
#     <PressureSensor SensorID="46" >
#       <SerialNumber>7809</SerialNumber>
#       <CalibrationDate>11-Mar-19</CalibrationDate>
#       <PA0>4.56561833e-002</PA0>
#       <PA1>4.85095118e-004</PA1>
#       <PA2>-2.88327090e-012</PA2>
#       <PTEMPA0>-5.48784562e+001</PTEMPA0>
#       <PTEMPA1>5.53756816e+001</PTEMPA1>
#       <PTEMPA2>-5.86727098e-001</PTEMPA2>
#       <PTCA0>5.25246745e+005</PTCA0>
#       <PTCA1>1.22304214e+001</PTCA1>
#       <PTCA2>-3.56745036e-001</PTCA2>
#       <PTCB0>2.51668750e+001</PTCB0>
#       <PTCB1>3.75000000e-004</PTCB1>
#       <PTCB2>0.00000000e+000</PTCB2>
#       <Offset>0.000000</Offset>
#     </PressureSensor>
#   </sensor>
#   <sensor Channel="4" >
#     <!-- A/D voltage 0, Oxygen, SBE 43 -->
#     <OxygenSensor SensorID="38" >
#       <SerialNumber>0434</SerialNumber>
#       <CalibrationDate>13-Apr-19</CalibrationDate>
#       <Use2007Equation>1</Use2007Equation>
#       <CalibrationCoefficients equation="0" >
#         <!-- Coefficients for Owens-Millard equation. -->
#         <Boc>0.0000</Boc>
#         <Soc>0.0000e+000</Soc>
#         <offset>0.0000</offset>
#         <Pcor>0.00e+000</Pcor>
#         <Tcor>0.0000</Tcor>
#         <Tau>0.0</Tau>
#       </CalibrationCoefficients>
#       <CalibrationCoefficients equation="1" >
#         <!-- Coefficients for Sea-Bird equation - SBE calibration in 2007 and later. -->
#         <Soc>4.2007e-001</Soc>
#         <offset>-0.6109</offset>
#         <A>-4.3656e-003</A>
#         <B> 1.7017e-004</B>
#         <C>-2.5341e-006</C>
#         <D0> 2.5826e+000</D0>
#         <D1> 1.92634e-004</D1>
#         <D2>-4.64803e-002</D2>
#         <E> 3.6000e-002</E>
#         <Tau20> 1.1800</Tau20>
#         <H1>-3.3000e-002</H1>
#         <H2> 5.0000e+003</H2>
#         <H3> 1.4500e+003</H3>
#       </CalibrationCoefficients>
#     </OxygenSensor>
#   </sensor>
#   <sensor Channel="5" >
#     <!-- A/D voltage 1, PAR/Logarithmic, Satlantic -->
#     <PARLog_SatlanticSensor SensorID="76" >
#       <SerialNumber>1122</SerialNumber>
#       <CalibrationDate>08-May-2019</CalibrationDate>
#       <a0>9.7456e-001</a0>
#       <a1>8.1640e-001</a1>
#       <Im>1.3589e+000</Im>
#       <Multiplier>1.0000e+000</Multiplier>
#     </PARLog_SatlanticSensor>
#   </sensor>
#   <sensor Channel="6" >
#     <!-- A/D voltage 2, pH -->
#     <pH_Sensor SensorID="43" >
#       <SerialNumber>0363</SerialNumber>
#       <CalibrationDate>15-Apr-19</CalibrationDate>
#       <Slope>4.5952</Slope>
#       <Offset>2.5370</Offset>
#     </pH_Sensor>
#   </sensor>
#   <sensor Channel="7" >
#     <!-- A/D voltage 3, Oxidation Reduction Potential -->
#     <OxidationReductionPotentialSensor SensorID="41" >
#       <SerialNumber>0363</SerialNumber>
#       <CalibrationDate>15-Apr-19</CalibrationDate>
#       <B>2.499480</B>
#       <M>-0.496195</M>
#       <Offset>0.0</Offset>
#     </OxidationReductionPotentialSensor>
#   </sensor>
#   <sensor Channel="8" >
#     <!-- A/D voltage 4, Fluorometer, WET Labs ECO-AFL/FL -->
#     <FluoroWetlabECO_AFL_FL_Sensor SensorID="20" >
#       <SerialNumber>FLNTURT-2496</SerialNumber>
#       <CalibrationDate>08-May-2019</CalibrationDate>
#       <ScaleFactor>5.00000000e+001</ScaleFactor>
#       <!-- Dark output -->
#       <Vblank>0.0550</Vblank>
#     </FluoroWetlabECO_AFL_FL_Sensor>
#   </sensor>
#   <sensor Channel="9" >
#     <!-- A/D voltage 5, Turbidity Meter, WET Labs, ECO-NTU -->
#     <TurbidityMeter SensorID="67" >
#       <SerialNumber>FLNTURT-2496</SerialNumber>
#       <CalibrationDate>08-May-2019</CalibrationDate>
#       <ScaleFactor>189.000000</ScaleFactor>
#       <!-- Dark output -->
#       <DarkVoltage>0.071000</DarkVoltage>
#     </TurbidityMeter>
#   </sensor>
# </Sensors>
# datcnv_date = Sep 18 2019 09:14:16, 7.26.7.129 [datcnv_vars = 14]
# datcnv_in = C:\DATA\090219_fcr50.hex C:\DATA\SBE19plusV2_7809.xmlcon
# datcnv_skipover = 0
# datcnv_ox_hysteresis_correction = yes
# datcnv_ox_tau_correction = yes
# filter_date = Sep 18 2019 09:14:32, 7.26.7.129
# filter_in = C:\DATA\090219_fcr50.cnv
# filter_low_pass_tc_A = 0.030
# filter_low_pass_tc_B = 0.150
# filter_low_pass_A_vars = sbeox0ML/L prdM prdE tv290C
# filter_low_pass_B_vars = depFM dz/dtM sbeox0PS specc c0uS/cm flECO-AFL ph orp par/sat/log turbWETntu0
# alignctd_date = Sep 18 2019 09:15:31, 7.26.7.129
# alignctd_in = C:\DATA\090219_fcr50.cnv
# alignctd_adv = dz/dtM 1.000, sbeox0PS 1.000, specc 1.000, c0uS/cm 1.000, flECO-AFL 1.000, ph 1.000, orp 1.000, turbWETntu0 1.000                                                                                                   
# file_type = ascii
*END*
     -0.552 4.3139e-20     6.0093     97.791      1.637   1.531807    -0.1200      5.728 -1240.7455 8.8174e+02    -0.4723     -0.541     -0.785    21.7689 0.0000e+00
     -0.552 3.9217e-21     6.0078     97.790      1.577   1.475674    -0.1205      5.688 -1240.7455 8.5044e+02    -0.4319     -0.541     -0.785    21.7692 0.0000e+00
     -0.552 3.5652e-22     6.0070     97.786      1.605   1.501400    -0.1289      5.661 -1240.7455 8.5473e+02    -0.4381     -0.542     -0.786    21.7695 0.0000e+00
     -0.552 3.2411e-23     6.0079     97.791      1.766   1.652768    -0.1426      5.673 -1240.7455 7.1083e+02    -0.4163     -0.542     -0.785    21.7698 0.0000e+00
     -0.552 2.9500e-24     6.0103     97.797      1.840   1.721784    -0.1388      5.726 -1240.7455 4.4418e+02    -0.2989     -0.541     -0.785    21.7701 0.0000e+00
     -0.552 3.0757e-25     6.0092     97.810      1.820   1.702250    -0.1263      5.749 -1240.7455 4.3826e+02    -0.2313     -0.541     -0.785    21.7702 0.0000e+00
     -0.552 4.6125e-25     6.0084     97.825      1.921   1.796773    -0.1300      5.727 -1240.7455 5.4484e+02    -0.2548     -0.542     -0.786    21.7701 0.0000e+00
     -0.552 4.8081e-24     6.0095     97.830      2.114   1.977557    -0.1312      5.703 -1240.7455 4.1444e+02    -0.2556     -0.541     -0.785    21.7703 0.0000e+00
     -0.552 5.2865e-23     6.0091     97.833      2.192   2.050558    -0.1148      5.690 -1240.7455 2.7820e+02    -0.2408     -0.541     -0.784    21.7707 0.0000e+00
     -0.552 5.8151e-22     6.0103     97.843      2.119   1.982429    -0.1052      5.695 -1240.7455 2.6679e+02    -0.2719     -0.541     -0.784    21.7711 0.0000e+00
     -0.552 6.3966e-21     6.0115     97.838      1.978   1.850813    -0.1192      5.726 -1240.7455 2.6465e+02    -0.3042     -0.541     -0.785    21.7714 0.0000e+00
     -0.552 7.0363e-20     6.0117     97.828      1.913   1.789832    -0.1285      5.763 -1240.7455 2.6207e+02    -0.3358     -0.541     -0.785    21.7719 0.0000e+00
     -0.552 7.7399e-19     6.0108     97.831      1.940   1.815382    -0.1216      5.785 -1240.7455 2.7372e+02    -0.3927     -0.542     -0.786    21.7721 0.0000e+00
     -0.552 8.5139e-18     6.0131     97.821      1.970   1.842917    -0.1236      5.805 -1240.7455 3.7416e+02    -0.4350     -0.542     -0.785    21.7723 0.0000e+00
     -0.552 9.3653e-17     6.0122     97.812      1.998   1.869312    -0.1259      5.848 -1240.7455 5.9779e+02    -0.4870     -0.541     -0.785    21.7729 0.0000e+00
     -0.552 1.0302e-15     6.0099     97.826      2.011   1.881070    -0.1234      5.913 -1240.7455 6.6763e+02    -0.5294     -0.541     -0.785    21.7735 0.0000e+00
     -0.552 1.1332e-14     6.0125     97.839      1.986   1.858354    -0.1282      5.990 -1240.7455 6.4752e+02    -0.5204     -0.542     -0.785    21.7737 0.0000e+00
     -0.552 1.2465e-13     6.0106     97.844      1.975   1.848101    -0.1322      6.067 -1240.7455 8.7169e+02    -0.5101     -0.542     -0.785    21.7738 0.0000e+00
     -0.552 1.3712e-12     6.0089     97.850      2.013   1.883836    -0.1285      6.131 -1240.7455 1.0463e+03    -0.5027     -0.542     -0.785    21.7743 0.0000e+00
     -0.552 1.5083e-11     6.0113     97.845      2.041   1.910240    -0.1177      6.176 -1240.7455 1.0016e+03    -0.4972     -0.542     -0.785    21.7746 0.0000e+00
     -0.552 1.6591e-10     6.0120     97.840      2.045   1.913902    -0.1145      6.206 -1240.7455 7.9020e+02    -0.5090     -0.541     -0.784    21.7748 0.0000e+00
     -0.552 1.8250e-09     6.0113     97.849      2.060   1.928112    -0.1250      6.225 -1240.7455 4.4697e+02    -0.5144     -0.541     -0.785    21.7754 0.0000e+00
     -0.552 2.0075e-08     6.0130     97.849      2.090   1.955317    -0.1227      6.234 -1240.7451 2.4476e+02    -0.4966     -0.541     -0.784    21.7758 0.0000e+00
     -0.552 2.2083e-07     6.0120     97.849      2.126   1.989384    -0.1130      6.242 -1240.7416 1.9821e+02    -0.4905     -0.541     -0.784    21.7767 0.0000e+00
     -0.552 5.6637e-07     6.0106     97.855      2.162   2.023189    -0.1119      6.259 -1240.7021 1.6603e+02    -0.5066     -0.541     -0.784    21.7769 0.0000e+00
     -0.552      0.000     6.0129     97.850      2.188   2.047235    -0.1093      6.272 -1240.2681 1.4425e+02    -0.4949     -0.541     -0.785    21.7777 0.0000e+00
     -0.552      0.000     6.0119     97.849      2.233   2.090035    -0.1165      6.252 -1235.4940 1.4356e+02    -0.4796     -0.542     -0.785    21.7771 0.0000e+00
     -0.552      0.001     6.0113     97.866      2.646   2.477320    -0.1375      5.983 -1182.9788 1.5782e+02    -0.4203     -0.541     -0.785    21.7787 0.0000e+00
     -0.552      0.006     6.0132     97.882      6.907   6.476402    -0.2851      5.407  -605.3116 1.9382e+02     0.5180     -0.541     -0.783    21.7762 0.0000e+00
     -0.552      0.021     6.0116     97.877     16.132  15.198938    -0.5572      5.177   260.7583 4.1242e+02     2.2785     -0.542     -0.785    21.7805 0.0000e+00
     -0.551      0.048     6.0118     97.866     26.910  25.592989    -0.6964      5.757   432.2340 7.8314e+02     3.3323     -0.540     -0.782    21.7741 0.0000e+00
     -0.549      0.082     6.0121     97.869     36.105  34.669571    -0.6164      6.700   245.2825 9.8451e+02     4.4113     -0.542     -0.785    21.7855 0.0000e+00
     -0.532      0.116     6.0160     97.877     39.818  38.524305     0.4199      7.391   217.4030 9.7000e+02    15.2903     -0.537     -0.778    21.7678 0.0000e+00
     -0.486      0.148     6.0055     97.886     39.415  38.380183     2.3215      7.666   208.8887 9.3804e+02    35.2100     -0.483     -0.700    21.8499 0.0000e+00
     -0.426      0.175     5.9452     97.914     38.765  37.942197     3.3458      7.718   203.4251 9.9337e+02    45.9712     -0.412     -0.599    22.3591 0.0000e+00
     -0.371      0.194     5.8750     97.978     38.275  37.608887     3.3802      7.718   200.1276 1.0505e+03    46.0372     -0.362     -0.525    22.9877 0.0000e+00
     -0.322      0.200     5.8296     98.117     38.028  37.460697     2.7811      7.701   198.7884 1.0722e+03    36.3353     -0.316     -0.458    23.4042 0.0000e+00
     -0.272      0.193     5.7966     98.368     38.065  37.547032     1.6506      7.675   195.7509 1.0975e+03    18.3970     -0.267     -0.387    23.7041 0.0000e+00
     -0.223      0.178     5.7708     98.708     38.200  37.700706     1.0259      7.638   191.7945 1.1151e+03     8.6076     -0.219     -0.317    23.9554 0.0000e+00
     -0.173      0.157     5.7532     99.122     38.230  37.731895     0.9751      7.581   188.2065 1.1281e+03     7.7028     -0.170     -0.247    24.1492 0.0000e+00
     -0.128      0.127     5.7467     99.568     38.180  37.670239     0.9850      7.501   186.6134 1.1388e+03     7.4902     -0.122     -0.178    24.2697 0.0000e+00
     -0.094      0.091     5.7566     99.920     38.122  37.589965     1.0071      7.424   186.8144 1.1410e+03     7.3151     -0.088     -0.126    24.3275 0.0000e+00
     -0.074      0.051     5.7751    100.140     38.077  37.522970     1.0251      7.373   186.6778 1.1327e+03     7.2568     -0.068     -0.097    24.3455 0.0000e+00
     -0.070      0.016     5.7975    100.251     38.061  37.494931     1.0293      7.348   186.2524 1.1114e+03     7.2444     -0.065     -0.093    24.3525 0.0000e+00
     -0.080     -0.009     5.8313    100.232     38.073  37.504831     1.0237      7.341   185.8875 9.4270e+02     7.2310     -0.076     -0.110    24.3308 0.0000e+00
     -0.098     -0.023     5.8559    100.114     38.079  37.515728     1.0181      7.342   186.3096 7.7337e+02     7.3235     -0.097     -0.140    24.2941 0.0000e+00
     -0.113     -0.027     5.8700     99.950     38.053  37.499739     1.0217      7.345   187.9148 7.4487e+02     7.5435     -0.114     -0.165    24.2623 0.0000e+00
     -0.119     -0.022     5.8810     99.751     37.981  37.438465     1.0243      7.346   189.2919 7.4273e+02     7.6962     -0.118     -0.172    24.2449 0.0000e+00
     -0.119     -0.013     5.8782     99.545     37.883  37.346165     1.0238      7.346   188.1617 9.1250e+02     7.6942     -0.116     -0.169    24.2462 0.0000e+00
     -0.118     -0.005     5.8690     99.374     37.808  37.272410     1.0235      7.346   185.1766 1.0883e+03     7.6504     -0.115     -0.167    24.2516 0.0000e+00
     -0.116      0.000     5.8585     99.268     37.781  37.244914     1.0209      7.349   183.7431 1.1063e+03     7.6582     -0.114     -0.165    24.2674 0.0000e+00
     -0.116      0.002     5.8442     99.322     37.802  37.267613     1.0269      7.354   184.1660 1.1094e+03     7.6902     -0.114     -0.165    24.2830 0.0000e+00
     -0.116      0.001     5.8307     99.673     37.820  37.292964     1.0357      7.361   184.7840 1.1113e+03     7.6763     -0.114     -0.166    24.2878 0.0000e+00
     -0.116      0.001     5.8201    100.013     37.814  37.297547     1.0407      7.368   185.0195 1.1150e+03     7.5883     -0.114     -0.165    24.2873 0.0000e+00
     -0.116      0.000     5.8142     99.575     37.830  37.323039     1.0612      7.373   184.6902 1.1201e+03     7.4784     -0.114     -0.165    24.2819 0.0000e+00
     -0.116 1.8773e-08     5.8102     98.033     37.847  37.347303     1.0923      7.376   184.0722 1.1231e+03     7.4299     -0.113     -0.164    24.2835 0.0000e+00
     -0.116 2.0650e-07     5.8333     95.673     37.831  37.337031     1.1049      7.377   183.9138 1.1237e+03     7.4279     -0.114     -0.165    24.2961 0.0000e+00
     -0.116 2.0650e-07     5.8762     92.824     37.816  37.325793     1.0925      7.374   184.3245 1.1209e+03     7.4214     -0.114     -0.165    24.3118 0.0000e+00
     -0.116 1.8773e-08     5.8558     89.729     37.825  37.338380     1.0808      7.367   184.9070 1.1163e+03     7.4169     -0.114     -0.165    24.3249 0.0000e+00
     -0.116 1.7066e-09     5.7528     86.624     37.846  37.362282     1.0766      7.357   185.5375 1.1125e+03     7.4391     -0.114     -0.165    24.3343 0.0000e+00
     -0.116 1.5515e-10     5.6086     83.788     37.842  37.360899     1.0761      7.345   186.0108 1.1079e+03     7.4608     -0.114     -0.165    24.3413 0.0000e+00
     -0.116 1.4104e-11     5.4369     81.553     37.800  37.321662     1.0746      7.335   186.1544 1.0937e+03     7.4824     -0.113     -0.164    24.3464 0.0000e+00
     -0.116 1.2822e-12     5.2502     80.095     37.744  37.268718     1.0666      7.331   186.0691 9.9970e+02     7.5368     -0.114     -0.165    24.3509 0.0000e+00
     -0.116 1.1657e-13     5.0639     79.400     37.704  37.228552     1.0746      7.334   185.9257 7.5487e+02     7.5940     -0.114     -0.165    24.3546 0.0000e+00
     -0.116 1.0597e-14     4.8883     79.387     37.695  37.216868     1.0931      7.339   185.8838 6.1596e+02     7.6164     -0.113     -0.164    24.3582 0.0000e+00
     -0.116 9.6335e-16     4.7540     79.878     37.737  37.254389     1.0914      7.341   185.5629 8.0195e+02     7.6106     -0.113     -0.164    24.3617 0.0000e+00
     -0.115 8.7575e-17     4.6703     80.617     37.787  37.301362     1.0624      7.338   184.8850 1.0220e+03     7.5238     -0.113     -0.164    24.3651 0.0000e+00
     -0.115 7.9615e-18     4.6300     81.363     37.761  37.277018     1.0294      7.328   184.5715 1.0870e+03     7.3529     -0.113     -0.164    24.3662 0.0000e+00
     -0.115 7.2375e-19     4.6336     81.927     37.694  37.213952     1.0135      7.314   184.7831 1.0974e+03     7.2497     -0.113     -0.164    24.3607 0.0000e+00
     -0.115 6.5795e-20     4.6689     82.188     37.652  37.173579     1.0166      7.302   185.1201 1.1013e+03     7.2589     -0.113     -0.164    24.3524 0.0000e+00
     -0.115 5.9815e-21     4.7172     82.092     37.648  37.169718     1.0323      7.295   185.1183 1.1038e+03     7.4313     -0.113     -0.164    24.3492 0.0000e+00
     -0.115 5.4380e-22     4.7646     81.612     37.647  37.167277     1.0383      7.291   184.7618 1.1049e+03     7.7281     -0.113     -0.164    24.3528 0.0000e+00
     -0.115 4.9435e-23     4.7996     80.785     37.625  37.144060     1.0292      7.290   184.4228 1.1040e+03     7.8655     -0.112     -0.163    24.3580 0.0000e+00
     -0.115 4.4941e-24     4.8152     79.744     37.624  37.142895     1.0182      7.290   184.2895 1.1021e+03     7.8480     -0.112     -0.163    24.3608 0.0000e+00
     -0.115 4.0855e-25     4.8106     78.634     37.634  37.153185     1.0262      7.289   184.3548 1.1003e+03     7.8115     -0.113     -0.164    24.3600 0.0000e+00
     -0.115 3.7141e-26     4.7827     77.584     37.621  37.141530     1.0570      7.286   184.4374 1.0983e+03     7.7186     -0.113     -0.163    24.3570 0.0000e+00
     -0.115 3.3764e-27     4.7307     76.695     37.607  37.128930     1.0779      7.279   184.8579 1.0956e+03     7.6418     -0.112     -0.163    24.3546 0.0000e+00
     -0.115 3.0695e-28     4.6671     76.013     37.605  37.127785     1.0796      7.267   185.4822 1.0920e+03     7.6363     -0.112     -0.163    24.3540 0.0000e+00
     -0.115 2.7905e-29     4.5994     75.535     37.605  37.127691     1.0696      7.254   185.7042 1.0889e+03     7.6861     -0.112     -0.163    24.3551 0.0000e+00
     -0.115 2.5368e-30     4.5354     75.199     37.605  37.127796     1.0511      7.241   185.8214 1.0873e+03     7.7851     -0.112     -0.163    24.3568 0.0000e+00
     -0.115 2.3061e-31     4.4828     74.975     37.607  37.129054     1.0384      7.228   185.7809 1.0872e+03     7.8502     -0.113     -0.163    24.3582 0.0000e+00
     -0.115 2.0965e-32     4.4420     74.897     37.622  37.142894     1.0367      7.214   185.5587 1.0879e+03     7.8500     -0.113     -0.163    24.3595 0.0000e+00
     -0.115 1.9059e-33     4.4164     74.990     37.648  37.168179     1.0485      7.201   186.2320 1.0887e+03     7.7503     -0.112     -0.163    24.3604 0.0000e+00
     -0.115 1.7327e-34     4.3976     75.262     37.661  37.180874     1.0688      7.186   187.6412 1.0878e+03     7.5943     -0.113     -0.163    24.3599 0.0000e+00
     -0.115 1.5751e-35     4.3830     75.687     37.649  37.169448     1.0825      7.170   188.3143 1.0680e+03     7.5044     -0.113     -0.163    24.3588 0.0000e+00
     -0.114 1.4319e-36     4.3784     76.181     37.637  37.156972     1.0842      7.150   188.0034 9.4428e+02     7.4492     -0.112     -0.162    24.3578 0.0000e+00
     -0.114 1.3018e-37     4.3836     76.668     37.637  37.156973     1.0817      7.134   187.3239 6.8303e+02     7.4183     -0.112     -0.162    24.3569 0.0000e+00
     -0.114 1.1834e-38     4.3995     77.105     37.650  37.169458     1.0867      7.127   187.4123 4.8956e+02     7.4259     -0.112     -0.163    24.3567 0.0000e+00
     -0.114 1.0759e-39     4.4268     77.422     37.663  37.180990     1.0916      7.124   188.3842 5.8414e+02     7.4434     -0.112     -0.162    24.3568 0.0000e+00
     -0.114 9.7805e-41     4.4577     77.573     37.653  37.169459     1.0893      7.121   188.9222 8.6028e+02     7.4330     -0.112     -0.162    24.3566 0.0000e+00
     -0.115 8.8915e-42     4.4860     77.586     37.642  37.156974     1.0853      7.119   188.8400 1.0515e+03     7.3988     -0.112     -0.163    24.3563 0.0000e+00
     -0.115 8.0830e-43     4.5138     77.511     37.642  37.156984     1.0774      7.117   188.5947 1.1041e+03     7.4561     -0.113     -0.163    24.3554 0.0000e+00
     -0.114 7.3480e-44     4.5337     77.382     37.656  37.169585     1.0723      7.116   188.4515 1.1101e+03     7.6006     -0.112     -0.162    24.3534 0.0000e+00
     -0.114 6.6800e-45     4.5418     77.233     37.670  37.182375     1.0752      7.116   188.4852 1.1085e+03     7.6717     -0.112     -0.162    24.3517 0.0000e+00
     -0.115 6.0730e-46     4.5413     77.104     37.673  37.184684     1.0781      7.114   188.7438 1.0936e+03     7.6280     -0.112     -0.163    24.3505 0.0000e+00
     -0.115 5.5210e-47     4.5364     76.994     37.687  37.197494     1.0801      7.112   189.2555 9.6427e+02     7.5303     -0.112     -0.163    24.3493 0.0000e+00
     -0.114 5.0230e-48     4.5287     76.888     37.702  37.210312     1.0823      7.110   189.6821 7.1332e+02     7.4413     -0.112     -0.162    24.3479 0.0000e+00
     -0.114 5.0033e-49     4.5185     76.773     37.707  37.212726     1.0795      7.110   189.8584 6.7100e+02     7.4047     -0.112     -0.162    24.3465 0.0000e+00
     -0.114 5.2619e-49     4.5116     76.622     37.722  37.226671     1.0807      7.110   189.4946 9.0598e+02     7.4153     -0.112     -0.163    24.3452 0.0000e+00
     -0.114 5.3356e-48     4.5058     76.451     37.749  37.251967     1.0882      7.111   188.8104 1.0732e+03     7.5367     -0.112     -0.162    24.3443 0.0000e+00
     -0.114 5.8651e-47     4.4993     76.306     37.762  37.264674     1.0828      7.113   188.7277 1.1010e+03     7.7254     -0.112     -0.162    24.3428 0.0000e+00
     -0.114 6.4515e-46     4.4942     76.192     37.751  37.253362     1.0766      7.115   189.2683 1.1066e+03     7.7966     -0.112     -0.162    24.3401 0.0000e+00
     -0.114 7.0967e-45     4.4853     76.126     37.739  37.242145     1.0827      7.118   189.8406 1.1119e+03     7.8076     -0.112     -0.162    24.3377 0.0000e+00
     -0.114 7.8064e-44     4.4734     76.106     37.753  37.255996     1.0697      7.122   190.1411 1.1175e+03     7.7590     -0.112     -0.162    24.3361 0.0000e+00
     -0.114 8.5870e-43     4.4658     76.067     37.792  37.293881     1.0322      7.130   189.9760 1.1212e+03     7.5703     -0.112     -0.162    24.3352 0.0000e+00
     -0.114 9.4457e-42     4.4586     75.985     37.818  37.319367     1.0103      7.142   189.3923 1.1224e+03     7.4272     -0.112     -0.162    24.3352 0.0000e+00
     -0.114 1.0390e-40     4.4537     75.879     37.809  37.310249     1.0132      7.154   189.0211 1.1224e+03     7.4052     -0.112     -0.162    24.3358 0.0000e+00
     -0.114 1.1429e-39     4.4553     75.781     37.809  37.310582     1.0152      7.167   189.1006 1.1221e+03     7.4021     -0.112     -0.162    24.3362 0.0000e+00
     -0.114 1.2572e-38     4.4530     75.741     37.823  37.323392     1.0174      7.179   189.5800 1.1224e+03     7.3237     -0.112     -0.162    24.3358 0.0000e+00
     -0.114 1.3829e-37     4.4478     75.797     37.838  37.338187     1.0225      7.190   190.1714 1.1226e+03     7.2108     -0.112     -0.162    24.3351 0.0000e+00
     -0.114 1.5212e-36     4.4412     75.937     37.864  37.362517     1.0164      7.197   190.3144 1.1223e+03     7.1847     -0.112     -0.162    24.3349 0.0000e+00
     -0.114 1.6734e-35     4.4343     76.132     37.866  37.363673     1.0217      7.202   190.2766 1.1223e+03     7.2045     -0.112     -0.162    24.3350 0.0000e+00
     -0.114 1.8407e-34     4.4309     76.376     37.855  37.352162     1.0342      7.206   190.3170 1.1223e+03     7.2531     -0.112     -0.162    24.3341 0.0000e+00
     -0.114 2.0248e-33     4.4345     76.619     37.854  37.350284     1.0296      7.209   190.1996 1.1215e+03     7.3462     -0.112     -0.162    24.3329 0.0000e+00
     -0.114 2.2272e-32     4.4443     76.805     37.846  37.340954     1.0258      7.209   190.0616 1.1207e+03     7.4128     -0.112     -0.162    24.3319 0.0000e+00
     -0.114 2.4500e-31     4.4546     76.913     37.873  37.366306     1.0231      7.208   190.4558 1.1205e+03     7.4363     -0.112     -0.162    24.3307 0.0000e+00
     -0.114 2.6950e-30     4.4707     76.946     37.975  37.466396     1.0230      7.207   191.0934 1.1209e+03     7.4987     -0.112     -0.162    24.3298 0.0000e+00
     -0.114 2.9645e-29     4.4863     77.033     38.044  37.535535     1.0249      7.206   191.2320 1.1211e+03     7.6100     -0.112     -0.162    24.3283 0.0000e+00
     -0.114 3.2609e-28     4.4976     77.681     37.999  37.504034     1.0202      7.205   190.9266 1.1206e+03     7.6683     -0.111     -0.161    24.3270 0.0000e+00
     -0.114 3.5870e-27     4.5041     79.682     37.936  37.466388     1.0186      7.204   190.4994 1.1202e+03     7.6790     -0.111     -0.160    24.3255 0.0000e+00
     -0.114 3.9457e-26     4.5053     83.287     37.905  37.461245     1.0221      7.202   190.7127 1.1204e+03     7.6415     -0.112     -0.162    24.3245 0.0000e+00
     -0.114 4.3403e-25     4.5015     87.747     37.868  37.441891     1.0276      7.199   191.6127 1.1208e+03     7.5423     -0.112     -0.163    24.3222 0.0000e+00
     -0.114 4.7743e-24     4.5162     92.017     37.839  37.422832     1.0248      7.195   192.2610 1.1215e+03     7.4623     -0.111     -0.161    24.3342 0.0000e+00
     -0.114 5.2517e-23     4.6207     95.519     37.833  37.421243     1.0148      7.191   192.4421 1.1227e+03     7.4278     -0.111     -0.161    24.3748 0.0000e+00
     -0.114 5.7769e-22     4.8491     98.011     37.832  37.422686     1.0022      7.187   192.4259 1.1244e+03     7.3880     -0.111     -0.161    24.4134 0.0000e+00
     -0.114 6.3546e-21     5.1343     99.336     37.848  37.440284     0.9851      7.183   192.4954 1.1263e+03     7.3090     -0.112     -0.162    24.4348 0.0000e+00
     -0.114 6.9901e-20     5.3913     99.446     37.851  37.443586     0.9723      7.177   192.7664 1.1276e+03     7.2585     -0.111     -0.161    24.4463 0.0000e+00
     -0.114 7.6891e-19     5.5988     98.503     37.807  37.399133     0.9681      7.172   193.2074 1.1276e+03     7.2368     -0.111     -0.161    24.4513 0.0000e+00
     -0.114 8.4580e-18     5.7480     96.951     37.757  37.347137     0.9687      7.167   193.6114 1.1261e+03     7.2107     -0.112     -0.162    24.4541 0.0000e+00
     -0.114 9.3038e-17     5.8262     95.318     37.736  37.322695     0.9804      7.161   193.8659 1.1236e+03     7.2701     -0.112     -0.162    24.4558 0.0000e+00
     -0.114 1.0234e-15     5.8304     93.861     37.711  37.294026     1.0056      7.155   194.0471 1.1206e+03     7.3985     -0.112     -0.162    24.4566 0.0000e+00
     -0.114 1.1258e-14     5.7656     92.560     37.673  37.254396     1.0218      7.149   193.9095 1.1176e+03     7.4850     -0.111     -0.161    24.4551 0.0000e+00
     -0.114 1.2383e-13     5.6618     91.369     37.645  37.224383     1.0206      7.143   193.5782 1.1139e+03     7.4965     -0.112     -0.162    24.4512 0.0000e+00
     -0.114 1.3622e-12     5.5621     90.322     37.607  37.185038     1.0167      7.136   193.5692 1.1098e+03     7.4387     -0.111     -0.161    24.4459 0.0000e+00
     -0.114 1.4984e-11     5.4799     89.514     37.582  37.159515     1.0178      7.129   193.7142 1.1069e+03     7.4088     -0.112     -0.162    24.4412 0.0000e+00
     -0.114 1.6482e-10     5.4054     89.033     37.593  37.169670     1.0168      7.123   193.9558 1.1049e+03     7.4300     -0.112     -0.162    24.4381 0.0000e+00
     -0.114 1.8130e-09     5.3351     88.783     37.606  37.180875     1.0131      7.116   194.3393 1.1033e+03     7.4331     -0.111     -0.161    24.4355 0.0000e+00
     -0.114 1.9943e-08     5.2723     88.493     37.595  37.168045     1.0338      7.108   193.9631 1.0999e+03     7.5445     -0.112     -0.162    24.4327 0.0000e+00
     -0.114 2.1938e-07     5.2223     88.050     37.571  37.141491     1.0682      7.098   193.0211 1.0723e+03     7.7607     -0.112     -0.162    24.4316 0.0000e+00
     -0.114      0.000     5.1953     87.529     37.544  37.113709     1.0735      7.088   192.8439 9.6610e+02     7.8845     -0.112     -0.162    24.4302 0.0000e+00
     -0.114      0.000     5.1897     86.911     37.516  37.086021     1.0712      7.078   193.3693 7.6160e+02     7.8940     -0.111     -0.161    24.4286 0.0000e+00
     -0.114      0.000     5.1755     86.131     37.490  37.060611     1.0665      7.067   193.9531 5.4276e+02     7.8103     -0.111     -0.161    24.4266 0.0000e+00
     -0.114      0.003     5.1451     85.194     37.490  37.060382     1.0434      7.055   193.9658 4.3945e+02     7.6920     -0.112     -0.162    24.4222 0.0000e+00
     -0.114      0.035     5.1169     84.157     37.515  37.083253     1.0258      7.041   193.3511 5.1060e+02     7.6433     -0.112     -0.162    24.4204 0.0000e+00
     -0.114      0.389     5.0827     83.106     37.520  37.083242     1.0182      7.027   192.9731 7.0010e+02     7.6471     -0.111     -0.161    24.4206 0.0000e+00
     -0.114      4.275     5.0361     82.046     37.506  37.060247     1.0213      7.015   193.0958 9.0112e+02     7.7055     -0.112     -0.162    24.4220 0.0000e+00
     -0.113      4.272     4.9810     80.973     37.517  37.059104     1.0280      7.003   193.3717 1.0382e+03     7.8245     -0.111     -0.161    24.4225 0.0000e+00
     -0.113      0.353     4.9173     79.950     37.538  37.069399     1.0296      6.989   193.5560 1.0981e+03     7.9072     -0.111     -0.161    24.4191 0.0000e+00
     -0.114 2.4204e-13     4.8571     78.990     37.534  37.057755     1.0324      6.973   193.8605 1.1135e+03     7.9195     -0.112     -0.162    24.4138 0.0000e+00
     -0.114 1.4125e-13     4.7974     78.089     37.529  37.045261     1.0354      6.957   194.2151 1.1155e+03     7.8088     -0.112     -0.162    24.4020 0.0000e+00
     -0.113 1.1878e-13     4.7333     77.299     37.536  37.045272     1.0312      6.940   194.2297 1.1158e+03     7.5835     -0.111     -0.161    24.3836 0.0000e+00
     -0.113 1.1762e-12     4.6749     76.640     37.557  37.057872     1.0163      6.923   194.0365 1.1167e+03     7.4241     -0.111     -0.161    24.3688 0.0000e+00
     -0.113 1.2926e-11     4.6210     76.050     37.579  37.070653     1.0024      6.908   193.9441 1.1171e+03     7.3900     -0.111     -0.161    24.3585 0.0000e+00
     -0.113 1.4218e-10     4.5662     75.448     37.590  37.072848     1.0019      6.896   194.6614 1.1176e+03     7.4325     -0.111     -0.160    24.3504 0.0000e+00
     -0.113 1.5640e-09     4.5207     74.812     37.609  37.084390     1.0191      6.886   196.0847 1.1196e+03     7.6760     -0.112     -0.162    24.3415 0.0000e+00
     -0.113 1.7204e-08     4.4847     74.169     37.613  37.083247     1.0464      6.879   196.6981 1.1218e+03     8.0733     -0.111     -0.161    24.3300 0.0000e+00
     -0.114 1.8925e-07     4.4530     73.499     37.593  37.059023     1.0632      6.874   196.3986 1.1226e+03     8.2709     -0.111     -0.160    24.3186 0.0000e+00
     -0.114 3.4695e-07     4.4198     72.808     37.584  37.045383     1.0661      6.869   195.9916 1.1231e+03     8.2627     -0.111     -0.161    24.3057 0.0000e+00
     -0.114 1.8925e-07     4.3812     72.159     37.589  37.045279     1.0728      6.866   195.6493 1.1231e+03     8.1704     -0.111     -0.160    24.2945 0.0000e+00
     -0.114 1.7205e-08     4.3458     71.564     37.608  37.057757     1.0826      6.864   196.1309 1.1236e+03     8.0069     -0.111     -0.161    24.2881 0.0000e+00
     -0.113 1.5640e-09     4.3071     71.002     37.625  37.069298     1.0816      6.861   197.3404 1.1241e+03     7.8920     -0.111     -0.161    24.2840 0.0000e+00
     -0.113 1.4219e-10     4.2643     70.474     37.618  37.057861     1.0772      6.859   198.1427 1.1238e+03     7.8617     -0.111     -0.161    24.2788 0.0000e+00
     -0.114 1.2926e-11     4.2273     69.989     37.611  37.046415     1.0813      6.856   198.5174 1.1236e+03     7.7725     -0.111     -0.161    24.2711 0.0000e+00
     -0.114 1.1751e-12     4.1938     69.552     37.627  37.057850     1.0888      6.852   198.4303 1.1226e+03     7.5667     -0.112     -0.162    24.2631 0.0000e+00
     -0.114 1.0683e-13     4.1610     69.145     37.643  37.069174     1.0901      6.847   198.0358 1.1222e+03     7.4384     -0.111     -0.161    24.2561 0.0000e+00
     -0.114 9.7115e-15     4.1305     68.743     37.635  37.056377     1.0791      6.838   198.2212 1.1230e+03     7.4334     -0.111     -0.161    24.2501 0.0000e+00
     -0.114 8.8285e-16     4.1021     68.331     37.613  37.030053     1.0686      6.827   198.7788 1.1221e+03     7.3762     -0.112     -0.162    24.2442 0.0000e+00
     -0.114 8.0260e-17     4.0775     67.923     37.592  37.004788     1.0751      6.814   199.0989 1.1215e+03     7.2709     -0.112     -0.162    24.2391 0.0000e+00
     -0.114 7.2965e-18     4.0546     67.543     37.596  37.004779     1.0887      6.797   199.2523 1.1220e+03     7.2093     -0.111     -0.161    24.2338 0.0000e+00
     -0.114 6.6330e-19     4.0319     67.163     37.625  37.029941     1.0941      6.779   199.3434 1.1215e+03     7.1888     -0.112     -0.162    24.2258 0.0000e+00
     -0.113 6.0305e-20     4.0083     66.751     37.654  37.055120     1.1061      6.760   198.9098 1.1219e+03     7.1859     -0.111     -0.161    24.2179 0.0000e+00
     -0.113 5.5389e-21     3.9834     66.322     37.657  37.055311     1.1304      6.739   198.1393 1.1239e+03     7.2077     -0.111     -0.161    24.2118 0.0000e+00
     -0.113 1.1248e-21     3.9627     65.898     37.637  37.032248     1.1449      6.719   198.0293 1.1257e+03     7.2550     -0.111     -0.161    24.2068 0.0000e+00
     -0.113 6.9359e-21     3.9418     65.483     37.639  37.030158     1.1513      6.702   198.5256 1.1262e+03     7.2338     -0.112     -0.162    24.2027 0.0000e+00
     -0.113 7.5801e-20     3.9169     65.084     37.642  37.030047     1.1558      6.687   199.1503 1.1267e+03     7.1802     -0.111     -0.161    24.1988 0.0000e+00
     -0.113 8.3377e-19     3.8918     64.695     37.646  37.030888     1.1559      6.674   199.6460 1.1272e+03     7.1962     -0.111     -0.161    24.1952 0.0000e+00
     -0.113 9.1714e-18     3.8671     64.307     37.659  37.040320     1.1527      6.663   199.2705 1.1276e+03     7.1987     -0.110     -0.160    24.1906 0.0000e+00
     -0.113 1.0089e-16     3.8430     63.929     37.639  37.017144     1.1425      6.653   198.1374 1.1275e+03     7.1778     -0.111     -0.161    24.1855 0.0000e+00
     -0.113 1.1097e-15     3.8199     63.579     37.630  37.004555     1.1365      6.644   197.8190 1.1255e+03     7.2067     -0.111     -0.161    24.1816 0.0000e+00
     -0.113 1.2207e-14     3.7980     63.266     37.644  37.015055     1.1402      6.635   198.3475 1.1236e+03     7.4491     -0.111     -0.161    24.1780 0.0000e+00
     -0.113 1.3428e-13     3.7749     62.957     37.649  37.017144     1.1445      6.625   198.6757 1.1240e+03     7.8804     -0.111     -0.161    24.1729 0.0000e+00
     -0.113 1.4771e-12     3.7530     62.608     37.665  37.029812     1.1550      6.615   198.6902 1.1251e+03     8.1281     -0.111     -0.161    24.1677 0.0000e+00
     -0.113 1.6248e-11     3.7323     62.258     37.681  37.041265     1.1624      6.606   198.4358 1.1251e+03     8.1496     -0.111     -0.160    24.1629 0.0000e+00
     -0.113 1.7873e-10     3.7144     61.939     37.672  37.028677     1.1383      6.598   198.1820 1.1237e+03     8.0092     -0.111     -0.161    24.1583 0.0000e+00
     -0.113 1.9660e-09     3.6992     61.648     37.652  37.004548     1.0982      6.589   198.2027 1.1229e+03     7.7745     -0.111     -0.161    24.1547 0.0000e+00
     -0.113 2.1626e-08     3.6765     61.367     37.653  37.003403     1.0851      6.580   198.3418 1.1231e+03     7.6711     -0.111     -0.160    24.1510 0.0000e+00
     -0.113 2.3788e-07     3.6558     61.070     37.668  37.014840     1.0925      6.571   198.5729 1.1233e+03     7.6760     -0.111     -0.161    24.1458 0.0000e+00
     -0.113 4.3612e-07     3.6380     60.778     37.672  37.015880     1.1099      6.564   199.1039 1.1239e+03     7.6380     -0.111     -0.160    24.1403 0.0000e+00
     -0.113 2.3789e-07     3.6211     60.521     37.675  37.015966     1.1396      6.559   199.6861 1.1249e+03     7.5392     -0.111     -0.161    24.1354 0.0000e+00
     -0.113 2.1626e-08     3.6064     60.300     37.679  37.015878     1.1478      6.556   199.9340 1.1250e+03     7.4639     -0.111     -0.161    24.1311 0.0000e+00
     -0.113 1.9660e-09     3.5880     60.085     37.680  37.014815     1.1402      6.555   199.8639 1.1244e+03     7.4159     -0.111     -0.161    24.1274 0.0000e+00
     -0.113 1.7873e-10     3.5707     59.870     37.671  37.003109     1.1598      6.554   199.6991 1.1233e+03     7.3202     -0.111     -0.161    24.1236 0.0000e+00
     -0.113 1.6248e-11     3.5553     59.648     37.671  37.001288     1.1940      6.553   200.2644 1.1219e+03     7.2239     -0.111     -0.160    24.1189 0.0000e+00
     -0.113 1.4771e-12     3.5441     59.401     37.666  36.992791     1.2062      6.554   201.4502 1.1200e+03     7.2021     -0.111     -0.161    24.1143 0.0000e+00
     -0.113 1.3428e-13     3.5313     59.153     37.640  36.963835     1.2032      6.554   202.0781 1.1152e+03     7.2203     -0.111     -0.161    24.1112 0.0000e+00
     -0.113 1.2207e-14     3.5188     58.921     37.647  36.968545     1.2013      6.553   202.2629 1.0997e+03     7.2477     -0.111     -0.161    24.1085 0.0000e+00
     -0.113 1.1097e-15     3.5074     58.712     37.667  36.986269     1.2011      6.551   202.2215 1.0622e+03     7.3688     -0.111     -0.161    24.1052 0.0000e+00
     -0.113 1.0089e-16     3.4915     58.513     37.671  36.987711     1.2008      6.548   201.9216 9.9619e+02     7.5709     -0.112     -0.162    24.1010 0.0000e+00
     -0.113 9.1715e-18     3.4775     58.316     37.672  36.985986     1.1978      6.544   202.0795 9.0373e+02     7.6599     -0.111     -0.161    24.0963 0.0000e+00
     -0.113 8.3375e-19     3.4634     58.128     37.653  36.965398     1.1991      6.539   202.7538 7.9649e+02     7.6572     -0.111     -0.160    24.0931 0.0000e+00
     -0.113 7.5800e-20     3.4518     57.958     37.618  36.929203     1.1904      6.532   203.1904 6.8766e+02     7.6702     -0.111     -0.161    24.0912 0.0000e+00
     -0.113 6.8905e-21     3.4408     57.820     37.620  36.929188     1.1622      6.524   203.2288 5.8845e+02     7.6857     -0.111     -0.160    24.0878 0.0000e+00
     -0.113 6.2645e-22     3.4288     57.714     37.659  36.965212     1.1441      6.515   203.2184 5.0699e+02     7.6810     -0.111     -0.161    24.0836 0.0000e+00
     -0.113 5.6950e-23     3.4182     57.624     37.679  36.983924     1.1357      6.507   203.0654 4.4301e+02     7.6460     -0.111     -0.160    24.0815 0.0000e+00
     -0.113 5.1770e-24     3.4075     57.553     37.661  36.965015     1.1308      6.500   202.7551 3.9929e+02     7.6223     -0.111     -0.161    24.0798 0.0000e+00
     -0.113 4.7064e-25     3.3999     57.513     37.624  36.926998     1.1366      6.493   202.8219 3.7612e+02     7.6239     -0.111     -0.161    24.0758 0.0000e+00
     -0.113 4.2785e-26     3.3941     57.474     37.603  36.905100     1.1364      6.487   203.2707 3.6797e+02     7.6332     -0.111     -0.160    24.0729 0.0000e+00
     -0.113 3.8867e-27     3.3892     57.413     37.590  36.890674     1.1293      6.482   203.7067 3.7375e+02     7.6357     -0.112     -0.162    24.0727 0.0000e+00
     -0.113 3.2146e-28     3.3840     57.353     37.580  36.879525     1.1283      6.478   203.8779 3.9052e+02     7.6219     -0.111     -0.161    24.0702 0.0000e+00
     -0.113 -3.214e-28     3.3831     57.282     37.600  36.897242     1.1325      6.474   203.3618 4.1246e+02     7.6302     -0.111     -0.161    24.0675 0.0000e+00
     -0.113 -3.887e-27     3.3820     57.176     37.619  36.914457     1.1370      6.471   202.6289 4.3783e+02     7.6710     -0.112     -0.162    24.0664 0.0000e+00
     -0.113 -4.278e-26     3.3767     57.039     37.604  36.897247     1.1386      6.468   202.5882 4.6455e+02     7.6889     -0.111     -0.161    24.0639 0.0000e+00
     -0.113 -4.706e-25     3.3743     56.878     37.589  36.879567     1.1518      6.464   202.7840 4.9180e+02     7.7805     -0.111     -0.160    24.0617 0.0000e+00
     -0.113 -5.177e-24     3.3710     56.700     37.603  36.891117     1.1838      6.459   203.0167 5.1877e+02     7.9922     -0.111     -0.161    24.0597 0.0000e+00
     -0.113 -5.695e-23     3.3644     56.518     37.625  36.909952     1.2049      6.454   203.0791 5.4207e+02     8.1178     -0.111     -0.161    24.0563 0.0000e+00
     -0.113 -6.264e-22     3.3566     56.339     37.635  36.916862     1.2079      6.447   202.5060 5.6168e+02     8.1194     -0.111     -0.161    24.0532 0.0000e+00
     -0.113 -6.890e-21     3.3470     56.171     37.633  36.911196     1.2033      6.439   202.1960 5.7615e+02     8.1103     -0.111     -0.160    24.0514 0.0000e+00
     -0.113 -7.579e-20     3.3363     56.028     37.629  36.904915     1.2010      6.430   202.3424 5.8540e+02     8.1066     -0.111     -0.161    24.0481 0.0000e+00
     -0.113 -8.337e-19     3.3259     55.904     37.631  36.904386     1.2148      6.420   202.5554 5.8961e+02     8.1069     -0.111     -0.160    24.0437 0.0000e+00
     -0.113 -9.171e-18     3.3155     55.793     37.634  36.904792     1.2232      6.411   202.8786 5.8403e+02     8.1145     -0.111     -0.160    24.0398 0.0000e+00
     -0.113 -1.009e-16     3.3054     55.702     37.642  36.909824     1.2152      6.401   203.0670 5.7188e+02     8.1330     -0.111     -0.161    24.0365 0.0000e+00
     -0.113 -1.110e-15     3.2972     55.627     37.636  36.901747     1.2053      6.391   203.1121 5.5780e+02     8.1341     -0.111     -0.161    24.0329 0.0000e+00
     -0.113 -1.221e-14     3.2909     55.570     37.607  36.870603     1.1983      6.381   203.1662 5.4005e+02     8.0951     -0.111     -0.160    24.0286 0.0000e+00
     -0.113 -1.343e-13     3.2836     55.533     37.589  36.850625     1.1998      6.372   203.2041 5.1995e+02     8.0873     -0.111     -0.161    24.0251 0.0000e+00
     -0.113 -1.477e-12     3.2791     55.494     37.590  36.850615     1.2065      6.363   203.2265 4.9922e+02     8.1049     -0.111     -0.161    24.0220 0.0000e+00
     -0.113 -1.625e-11     3.2749     55.448     37.612  36.870479     1.1929      6.357   203.7812 4.7802e+02     8.1447     -0.111     -0.160    24.0191 0.0000e+00
     -0.113 -1.787e-10     3.2709     55.393     37.645  36.900375     1.1569      6.352   204.7485 4.5716e+02     8.2407     -0.111     -0.161    24.0159 0.0000e+00
     -0.113 -1.966e-09     3.2704     55.354     37.641  36.894718     1.1349      6.347   205.1138 4.3894e+02     8.3155     -0.111     -0.161    24.0124 0.0000e+00
     -0.112 -2.163e-08     3.2677     55.349     37.613  36.865557     1.1348      6.342   204.8421 4.2297e+02     8.3602     -0.110     -0.160    24.0102 0.0000e+00
     -0.112 -2.379e-07     3.2656     55.334     37.614  36.865151     1.1209      6.336   204.4757 4.0747e+02     8.3879     -0.110     -0.160    24.0086 0.0000e+00
     -0.113 -4.361e-07     3.2618     55.298     37.641  36.889802     1.0889      6.328   204.4692 3.9426e+02     8.3889     -0.111     -0.160    24.0055 0.0000e+00
     -0.113 -2.379e-07     3.2588     55.333     37.662  36.909712     1.0773      6.320   205.1933 3.8387e+02     8.4047     -0.111     -0.161    24.0022 0.0000e+00
     -0.113 -2.162e-08     3.2599     55.450     37.667  36.915471     1.0849      6.312   206.2614 3.7599e+02     8.4150     -0.111     -0.160    24.0007 0.0000e+00
     -0.113 -1.920e-09     3.2608     55.585     37.647  36.895966     1.1025      6.303   206.8012 3.7018e+02     8.2840     -0.111     -0.161    23.9992 0.0000e+00
     -0.113 3.2655e-10     3.2548     55.716     37.616  36.864297     1.1247      6.296   206.7298 3.6603e+02     8.0332     -0.111     -0.160    23.9954 0.0000e+00
     -0.113 5.5420e-09     3.2567     55.827     37.604  36.849930     1.1284      6.289   206.5172 3.6442e+02     7.8729     -0.111     -0.160    23.9946 0.0000e+00
     -0.113 6.1140e-08     3.2666     55.946     37.604  36.849192     1.1296      6.282   206.4669 3.6508e+02     7.8529     -0.111     -0.160    23.9979 0.0000e+00
     -0.113 6.7255e-07     3.2731     56.093     37.611  36.855368     1.1398      6.277   206.6375 3.6762e+02     7.8901     -0.111     -0.160    23.9976 0.0000e+00
     -0.113      0.000     3.2831     56.229     37.617  36.861128     1.1468      6.273   206.9457 3.7209e+02     7.9304     -0.110     -0.160    23.9944 0.0000e+00
     -0.113      0.000     3.2880     56.318     37.611  36.855372     1.1458      6.270   207.2677 3.7741e+02     7.9463     -0.111     -0.161    23.9924 0.0000e+00
     -0.113      0.001     3.2945     56.390     37.605  36.849243     1.1357      6.278   207.0887 3.8251e+02     7.9179     -0.111     -0.161    23.9906 0.0000e+00
     -0.112      0.005     3.3044     56.473     37.606  36.850501     1.1290      6.325   206.3306 3.8781e+02     7.8825     -0.110     -0.160    23.9895 0.0000e+00
     -0.112      0.013     3.3138     56.655     37.625  36.870585     1.1175      6.406   205.5004 3.9393e+02     7.8795     -0.111     -0.161    23.9902 0.0000e+00
     -0.112      0.021     3.3179     57.250     37.648  36.901651     1.0911      6.487   205.0530 3.9987e+02     7.8808     -0.110     -0.160    23.9896 0.0000e+00
     -0.109      0.021     3.3210     58.570     37.644  36.908766     1.0791      6.581   205.3950 4.0355e+02     7.8653     -0.111     -0.161    23.9887 0.0000e+00
     -0.097      0.008     3.3274     60.873     37.623  36.893160     1.0842      6.692   206.1948 4.0024e+02     7.8565     -0.102     -0.149    23.9909 0.0000e+00
     -0.076     -0.017     3.3281     64.287     37.631  36.903389     1.0840      6.783   207.1508 3.9339e+02     7.7742     -0.070     -0.100    23.9876 0.0000e+00
     -0.067     -0.048     3.3566     68.416     37.691  36.968974     1.0769      6.840   207.9201 4.3379e+02     7.5581     -0.052     -0.075    23.9990 0.0000e+00
     -0.088     -0.082     3.4291     72.649     37.767  37.051414     1.0763      6.876   207.5811 5.9087e+02     7.4395     -0.078     -0.114    24.0249 0.0000e+00
     -0.133     -0.110     3.5561     76.620     37.914  37.201970     1.1201      6.904   206.7511 8.3843e+02     7.9463     -0.130     -0.190    24.0252 0.0000e+00
     -0.181     -0.124     3.7688     80.079     38.169  37.456379     1.4933      6.920   206.5753 1.0367e+03    13.8501     -0.181     -0.263    24.0228 0.0000e+00
     -0.224     -0.118     4.0277     82.921     38.420  37.715421     2.1559      6.925   206.9174 1.1033e+03    24.6821     -0.220     -0.320    24.0363 0.0000e+00
     -0.260     -0.094     4.2793     85.352     38.612  37.921989     2.5078      6.920   207.4459 1.1059e+03    30.7011     -0.260     -0.378    24.0500 0.0000e+00
     -0.280     -0.063     4.5189     87.647     38.731  38.049712     2.5138      6.910   207.7172 1.1125e+03    32.6163     -0.281     -0.408    24.0569 0.0000e+00
     -0.283     -0.033     4.7262     89.787     38.799  38.117147     2.2812      6.900   207.6165 1.1221e+03    47.9695     -0.279     -0.406    24.0556 0.0000e+00
     -0.279     -0.010     4.8861     91.491     38.853  38.166051     1.8448      6.893   207.6050 1.1275e+03    76.0702     -0.274     -0.397    24.0717 0.0000e+00
     -0.274      0.005     5.0176     92.614     38.886  38.196660     1.6068      6.889   208.0942 1.1303e+03    91.4238     -0.267     -0.388    24.1059 0.0000e+00
     -0.269      0.012     5.1514     93.331     38.859  38.169850     1.5879      6.886   208.7989 1.1343e+03    92.3272     -0.262     -0.381    24.1213 0.0000e+00
     -0.266      0.012     5.2869     94.028     38.784  38.095802     1.5737      6.886   209.0706 1.1417e+03    86.4686     -0.261     -0.379    24.1168 0.0000e+00
     -0.265      0.009     5.3908     94.871     38.752  38.063075     1.4442      6.886   209.1428 1.1492e+03    61.6846     -0.260     -0.377    24.1095 0.0000e+00
     -0.263      0.007     5.4537     95.590     38.782  38.091530     1.2184      6.886   209.3275 1.1500e+03    26.7899     -0.258     -0.374    24.1063 0.0000e+00
     -0.261      0.005     5.4851     96.008     38.814  38.122469     1.1064      6.885   209.4969 1.1470e+03     9.7833     -0.255     -0.370    24.1073 0.0000e+00
     -0.259      0.005     5.5200     96.357     38.811  38.119761     1.0964      6.882   209.6420 1.1338e+03     8.2207     -0.254     -0.368    24.1072 0.0000e+00
     -0.259      0.004     5.5798     96.822     38.814  38.122275     1.0712      6.878   209.8778 1.0114e+03     8.0268     -0.254     -0.368    24.1061 0.0000e+00
     -0.258      0.003     5.6288     97.297     38.846  38.152870     1.0433      6.872   210.1106 9.0122e+02     7.9314     -0.253     -0.367    24.1047 0.0000e+00
     -0.257      0.003     5.6439     97.594     38.868  38.172288     1.0288      6.864   210.2206 1.0110e+03     7.8861     -0.253     -0.367    24.1040 0.0000e+00
     -0.256      0.002     5.6593     97.600     38.864  38.166628     1.0257      6.855   210.3462 1.1319e+03     7.9055     -0.251     -0.365    24.1043 0.0000e+00
     -0.256      0.002     5.6914     97.357     38.847  38.147908     1.0399      6.849   210.5112 1.1461e+03     7.8705     -0.251     -0.364    24.1042 0.0000e+00
     -0.255      0.002     5.7232     97.012     38.837  38.136378     1.0627      6.844   210.8386 1.1524e+03     7.7254     -0.250     -0.363    24.1026 0.0000e+00
     -0.255      0.002     5.7440     96.637     38.858  38.154164     1.0750      6.840   211.0349 1.1589e+03     7.6251     -0.250     -0.362    24.0997 0.0000e+00
     -0.255      0.002     5.7437     96.226     38.879  38.172522     1.0848      6.837   210.7342 1.1644e+03     7.6413     -0.250     -0.363    24.0973 0.0000e+00
     -0.254      0.003     5.7251     95.810     38.876  38.167905     1.0952      6.837   210.4726 1.1680e+03     7.7912     -0.249     -0.362    24.0949 0.0000e+00
     -0.253      0.003     5.7037     95.447     38.871  38.161823     1.0869      6.836   210.5386 1.1695e+03     7.9949     -0.248     -0.360    24.0917 0.0000e+00
     -0.252      0.003     5.6837     95.185     38.874  38.162458     1.0714      6.832   210.7577 1.1640e+03     8.0724     -0.247     -0.359    24.0885 0.0000e+00
     -0.251      0.002     5.6582     95.023     38.889  38.175582     1.0727      6.827   210.9705 1.1535e+03     8.0732     -0.247     -0.358    24.0855 0.0000e+00
     -0.250     -0.001     5.6329     94.915     38.909  38.193538     1.0776      6.820   211.0474 1.1482e+03     7.8736     -0.245     -0.356    24.0835 0.0000e+00
     -0.250     -0.004     5.6105     94.835     38.906  38.189131     1.0786      6.811   210.9986 1.1480e+03     7.4605     -0.245     -0.355    24.0820 0.0000e+00
     -0.251     -0.006     5.5952     94.779     38.905  38.185774     1.0844      6.804   210.8974 1.1469e+03     7.2404     -0.245     -0.356    24.0796 0.0000e+00
     -0.255     -0.008     5.5879     94.739     38.938  38.216421     1.0862      6.800   210.7703 1.1410e+03     7.2123     -0.249     -0.362    24.0768 0.0000e+00
     -0.259     -0.009     5.5816     94.706     38.966  38.242292     1.1003      6.798   210.6663 1.1319e+03     7.2848     -0.254     -0.370    24.0751 0.0000e+00
     -0.261     -0.009     5.5774     94.679     38.969  38.244670     1.1347      6.798   211.1883 1.1060e+03     7.5276     -0.256     -0.371    24.0723 0.0000e+00
     -0.262     -0.008     5.5745     94.659     38.970  38.245171     1.1545      6.798   212.2638 9.2215e+02     7.6892     -0.257     -0.373    24.0693 0.0000e+00
     -0.264     -0.007     5.5726     94.652     38.974  38.248345     1.1495      6.797   212.8283 7.5601e+02     7.6649     -0.259     -0.376    24.0673 0.0000e+00
     -0.267     -0.005     5.5708     94.672     39.007  38.283047     1.1341      6.796   212.5933 9.1936e+02     7.6276     -0.261     -0.380    24.0654 0.0000e+00
     -0.268     -0.004     5.5694     94.718     39.069  38.347373     1.1242      6.794   212.1770 1.1123e+03     7.6981     -0.263     -0.382    24.0651 0.0000e+00
     -0.268     -0.003     5.5683     94.765     39.112  38.391327     1.1256      6.793   212.2686 1.0758e+03     7.8280     -0.263     -0.381    24.0631 0.0000e+00
     -0.268     -0.002     5.5675     94.805     39.087  38.370142     1.1336      6.792   213.0985 8.5334e+02     7.8542     -0.263     -0.381    24.0624 0.0000e+00
     -0.268     -0.001     5.5681     94.861     38.995  38.281674     1.1435      6.791   214.1233 5.6098e+02     7.8192     -0.263     -0.382    24.0671 0.0000e+00
     -0.268     -0.000     5.5711     94.920     38.922  38.210353     1.1668      6.789   214.5066 4.4215e+02     7.7649     -0.263     -0.381    24.0709 0.0000e+00
     -0.269      0.001     5.5742     94.971     38.918  38.206053     1.1978      6.786   214.5494 5.8849e+02     7.6892     -0.264     -0.382    24.0733 0.0000e+00
     -0.269      0.001     5.5748     95.027     38.943  38.229690     1.2065      6.783   214.4689 8.6149e+02     7.6576     -0.263     -0.382    24.0768 0.0000e+00
     -0.268      0.002     5.5787     95.073     38.956  38.242235     1.2026      6.779   214.3936 1.0612e+03     7.6447     -0.263     -0.381    24.0790 0.0000e+00
     -0.267      0.003     5.5827     95.104     38.945  38.230785     1.2029      6.774   214.9295 1.1287e+03     7.6315     -0.262     -0.380    24.0795 0.0000e+00
     -0.266      0.004     5.5845     95.141     38.934  38.218203     1.2105      6.770   215.5285 1.1379e+03     7.6293     -0.261     -0.378    24.0796 0.0000e+00
     -0.265      0.006     5.5889     95.173     38.934  38.217054     1.2165      6.766   215.6990 1.1409e+03     7.6514     -0.260     -0.377    24.0781 0.0000e+00
     -0.263      0.009     5.5921     95.191     38.935  38.216899     1.2064      6.762   215.5286 1.1438e+03     7.6688     -0.258     -0.375    24.0768 0.0000e+00
     -0.262      0.014     5.5927     95.209     38.936  38.216322     1.2089      6.753   215.1021 1.1467e+03     7.7734     -0.257     -0.372    24.0772 0.0000e+00
     -0.259      0.023     5.5955     95.252     38.931  38.210073     1.2390      6.728   214.2423 1.1490e+03     7.9995     -0.255     -0.370    24.0765 0.0000e+00
     -0.255      0.036     5.5981     95.340     38.927  38.204816     1.2666      6.681   213.1352 1.1497e+03     8.1412     -0.251     -0.364    24.0741 0.0000e+00
     -0.247      0.050     5.5988     95.472     38.940  38.216231     1.2831      6.634   212.6428 1.1489e+03     8.1755     -0.244     -0.353    24.0720 0.0000e+00
     -0.234      0.062     5.5998     95.639     38.878  38.157664     1.2996      6.606   212.6768 1.1462e+03     8.1851     -0.233     -0.338    24.0704 0.0000e+00
     -0.210      0.069     5.6016     95.829     38.640  37.941024     1.3182      6.591   212.5999 1.1468e+03     8.2249     -0.210     -0.304    24.0687 0.0000e+00
     -0.181      0.072     5.6072     96.015     38.347  37.691605     1.3261      6.575   211.8848 1.1546e+03     8.2954     -0.174     -0.253    24.0672 0.0000e+00
     -0.159      0.067     5.6155     96.158     38.157  37.554111     1.3259      6.560   211.0856 1.1626e+03     8.3499     -0.152     -0.222    24.0649 0.0000e+00
     -0.145      0.048     5.6256     96.110     38.044  37.484710     1.3240      6.568   211.1969 1.1691e+03     8.3597     -0.142     -0.208    24.0610 0.0000e+00
     -0.132      0.018     5.6361     95.583     37.952  37.423820     1.3033      6.595   212.0266 1.1741e+03     8.1515     -0.128     -0.186    24.0776 0.0000e+00
     -0.121     -0.015     5.6410     94.402     37.961  37.452691     1.2747      6.615   213.0287 1.1747e+03     7.7986     -0.116     -0.167    24.1348 0.0000e+00
     -0.124     -0.043     5.6438     92.740     38.073  37.579917     1.2644      6.620   213.5907 1.1698e+03     7.6325     -0.111     -0.160    24.2092 0.0000e+00
     -0.150     -0.063     5.6424     90.929     38.173  37.692622     1.2660      6.615   213.4875 1.1621e+03     7.6177     -0.141     -0.204    24.2668 0.0000e+00
     -0.188     -0.074     5.6135     89.164     38.210  37.736336     1.2677      6.606   213.0720 1.1572e+03     7.5532     -0.191     -0.277    24.3024 0.0000e+00
     -0.217     -0.076     5.5369     87.522     38.204  37.727617     1.2677      6.597   212.9541 1.1541e+03     7.4437     -0.217     -0.316    24.3278 0.0000e+00
     -0.233     -0.068     5.4280     86.009     38.199  37.714151     1.2660      6.592   213.1808 1.1517e+03     7.4079     -0.229     -0.332    24.3477 0.0000e+00
     -0.244     -0.052     5.3177     84.645     38.193  37.700451     1.2642      6.592   213.3175 1.1508e+03     7.4477     -0.240     -0.349    24.3676 0.0000e+00
     -0.252     -0.035     5.2110     83.458     38.188  37.688914     1.2641      6.593   213.6607 1.1495e+03     7.5648     -0.248     -0.359    24.3816 0.0000e+00
     -0.258     -0.022     5.1164     82.462     38.210  37.701601     1.2730      6.595   214.1463 1.1488e+03     7.7424     -0.254     -0.367    24.3744 0.0000e+00
     -0.263     -0.014     5.0293     81.890     38.249  37.726888     1.2849      6.596   214.1996 1.1494e+03     7.8252     -0.260     -0.377    24.3577 0.0000e+00
     -0.265     -0.008     4.9486     82.235     38.276  37.740730     1.2868      6.596   214.1332 1.1498e+03     7.8442     -0.262     -0.380    24.3480 0.0000e+00
     -0.265     -0.003     4.8816     83.786     38.287  37.741990     1.2698      6.595   214.2042 1.1500e+03     7.8744     -0.261     -0.379    24.3421 0.0000e+00
     -0.264      0.001     4.8205     86.269     38.296  37.742106     1.2360      6.593   214.5408 1.1516e+03     7.8950     -0.260     -0.376    24.3307 0.0000e+00
     -0.263      0.004     4.7754     89.100     38.303  37.742128     1.2156      6.587   215.1927 1.1553e+03     7.8966     -0.259     -0.375    24.3102 0.0000e+00
     -0.262      0.004     4.7885     91.759     38.309  37.742244     1.2141      6.578   215.4610 1.1585e+03     7.8616     -0.258     -0.373    24.2928 0.0000e+00
     -0.260      0.004     4.8888     93.947     38.314  37.743504     1.2176      6.568   215.3754 1.1579e+03     7.7667     -0.255     -0.369    24.2813 0.0000e+00
     -0.258      0.003     5.0487     95.533     38.330  37.757355     1.2240      6.559   215.3625 1.1537e+03     7.6668     -0.253     -0.367    24.2704 0.0000e+00
     -0.258      0.002     5.2271     96.452     38.358  37.782761     1.2214      6.553   215.3049 1.1497e+03     7.6365     -0.253     -0.367    24.2608 0.0000e+00
     -0.258      0.001     5.3891     96.709     38.375  37.796783     1.2122      6.551   215.3674 1.1482e+03     7.6303     -0.253     -0.367    24.2537 0.0000e+00
     -0.258      0.000     5.5195     96.454     38.381  37.799931     1.2086      6.553   215.6021 1.1464e+03     7.6247     -0.253     -0.367    24.2495 0.0000e+00
     -0.258     -0.001     5.6145     95.949     38.405  37.820825     1.1775      6.557   215.7329 1.1427e+03     7.6332     -0.253     -0.367    24.2469 0.0000e+00
     -0.258     -0.001     5.6690     95.434     38.448  37.858975     1.1138      6.561   215.6581 1.1371e+03     7.6352     -0.253     -0.367    24.2443 0.0000e+00
     -0.259     -0.001     5.6813     95.010     38.474  37.880333     1.0789      6.563   215.4721 1.1206e+03     7.6167     -0.254     -0.368    24.2412 0.0000e+00
     -0.259     -0.001     5.6605     94.694     38.487  37.888632     1.0765      6.565   215.3774 1.0222e+03     7.6390     -0.254     -0.369    24.2376 0.0000e+00
     -0.259     -0.001     5.6258     94.474     38.499  37.895834     1.0767      6.567   215.2870 7.7105e+02     7.7401     -0.254     -0.368    24.2330 0.0000e+00
     -0.259     -0.001     5.5945     94.308     38.511  37.903939     1.0814      6.568   215.1539 5.1836e+02     7.8563     -0.255     -0.369    24.2281 0.0000e+00
     -0.259      0.000     5.5706     94.195     38.535  37.923136     1.0898      6.569   215.0590 5.3263e+02     7.9299     -0.254     -0.369    24.2227 0.0000e+00
     -0.259 -4.320e-07     5.5521     94.150     38.553  37.937506     1.0911      6.569   214.9137 7.9764e+02     7.9417     -0.254     -0.369    24.2168 0.0000e+00
     -0.260     -0.000     5.5416     94.133     38.569  37.950733     1.0885      6.569   214.7740 1.0381e+03     7.9339     -0.255     -0.370    24.2112 0.0000e+00
     -0.260     -0.000     5.5323     94.120     38.578  37.956101     1.0937      6.568   215.0044 1.1240e+03     7.9342     -0.255     -0.369    24.2053 0.0000e+00
     -0.259     -0.001     5.5251     94.125     38.564  37.938926     1.1012      6.566   215.5484 1.1350e+03     7.9121     -0.254     -0.369    24.2001 0.0000e+00
     -0.259     -0.001     5.5245     94.140     38.563  37.933497     1.1020      6.563   215.7589 1.1363e+03     7.8640     -0.254     -0.368    24.1958 0.0000e+00
     -0.260     -0.002     5.5245     94.153     38.587  37.953937     1.0777      6.561   215.4848 1.1359e+03     7.7128     -0.254     -0.369    24.1919 0.0000e+00
     -0.261     -0.003     5.5232     94.178     38.632  37.995631     1.0417      6.558   215.0728 1.1368e+03     7.4932     -0.256     -0.372    24.1877 0.0000e+00
     -0.262     -0.004     5.5246     94.206     38.697  38.056748     1.0297      6.557   215.4238 1.1377e+03     7.4044     -0.257     -0.373    24.1829 0.0000e+00
     -0.263     -0.005     5.5263     94.221     38.767  38.121605     1.0287      6.557   216.5458 1.1370e+03     7.4244     -0.257     -0.373    24.1779 0.0000e+00
     -0.264     -0.005     5.5269     94.250     38.859  38.208519     1.0294      6.557   217.1084 1.1363e+03     7.5389     -0.259     -0.375    24.1737 0.0000e+00
     -0.266     -0.004     5.5287     94.299     39.004  38.345877     1.0293      6.556   217.0646 1.1353e+03     7.7408     -0.261     -0.378    24.1701 0.0000e+00
     -0.268     -0.004     5.5322     94.345     39.118  38.449348     1.0282      6.556   216.7911 1.1335e+03     7.8654     -0.263     -0.380    24.1663 0.0000e+00
     -0.268     -0.003     5.5318     94.386     39.057  38.380446     1.0324      6.556   216.2960 1.1313e+03     7.8986     -0.263     -0.381    24.1621 0.0000e+00
     -0.269     -0.001     5.5337     94.396     38.891  38.211026     1.0282      6.555   216.4992 1.1293e+03     7.8154     -0.263     -0.382    24.1586 0.0000e+00
     -0.269      0.000     5.5389     94.416     38.795  38.114792     1.0213      6.553   217.4411 1.1293e+03     7.6124     -0.263     -0.382    24.1527 0.0000e+00
     -0.269      0.002     5.5411     94.475     38.784  38.105573     1.0178      6.552   218.0473 1.1291e+03     7.4759     -0.264     -0.382    24.1398 0.0000e+00
     -0.268      0.002     5.5476     94.518     38.841  38.163044     1.0203      6.551   218.1512 1.1263e+03     7.4437     -0.263     -0.381    24.1260 0.0000e+00
     -0.267      0.002     5.5470     94.548     38.917  38.238378     1.0349      6.550   217.9232 1.1238e+03     7.4519     -0.262     -0.381    24.1182 0.0000e+00
     -0.266      0.002     5.5465     94.580     38.932  38.254705     1.0294      6.548   217.5266 1.1230e+03     7.5428     -0.261     -0.379    24.1166 0.0000e+00
     -0.265      0.001     5.5534     94.606     38.909  38.233499     0.9966      6.543   217.3136 1.1228e+03     7.6583     -0.260     -0.377    24.1191 0.0000e+00
     -0.265     -0.001     5.5540     94.640     38.912  38.235888     0.9767      6.539   217.4132 1.1223e+03     7.7332     -0.259     -0.376    24.1214 0.0000e+00
     -0.265     -0.003     5.5554     94.678     38.961  38.283591     0.9707      6.537   217.8710 1.1208e+03     8.2518     -0.259     -0.376    24.1231 0.0000e+00
     -0.267     -0.005     5.5578     94.700     39.045  38.365925     0.9935      6.534   218.3746 1.1114e+03    13.7983     -0.262     -0.380    24.1251 0.0000e+00
     -0.269     -0.007     5.5583     94.710     39.151  38.469649     1.0532      6.530   218.5982 1.0311e+03    23.9662     -0.264     -0.382    24.1261 0.0000e+00
     -0.271     -0.009     5.5607     94.725     39.269  38.585532     1.0853      6.528   218.0793 8.0002e+02    30.0554     -0.267     -0.386    24.1254 0.0000e+00
     -0.273     -0.010     5.5636     94.751     39.374  38.687927     1.1043      6.526   216.9185 5.3095e+02    36.9533     -0.269     -0.390    24.1248 0.0000e+00
     -0.275     -0.010     5.5648     94.773     39.445  38.755518     1.3786      6.524   216.6949 4.9146e+02   107.4667     -0.268     -0.389    24.1241 0.0000e+00
     -0.278     -0.010     5.5651     94.782     39.460  38.767981     1.8878      6.522   217.4405 7.3371e+02   236.6207     -0.272     -0.395    24.1234 0.0000e+00
     -0.283     -0.009     5.5657     94.793     39.405  38.711654     2.1630      6.519   217.8456 1.0036e+03   306.9232     -0.277     -0.403    24.1231 0.0000e+00
     -0.286     -0.008     5.5678     94.824     39.340  38.645780     2.1830      6.516   217.3770 1.1174e+03   312.1699     -0.281     -0.408    24.1228 0.0000e+00
     -0.287     -0.006     5.5698     94.873     39.301  38.606289     2.1818      6.514   216.5069 1.1356e+03   300.3532     -0.282     -0.409    24.1211 0.0000e+00
     -0.287     -0.003     5.5697     94.911     39.247  38.551565     2.1829      6.512   216.1013 1.1394e+03   277.7029     -0.281     -0.408    24.1180 0.0000e+00
     -0.287      0.002     5.5704     94.939     39.122  38.428465     2.1883      6.508   215.9149 1.1366e+03   265.1894     -0.282     -0.409    24.1154 0.0000e+00
     -0.287      0.012     5.5722     94.971     38.951  38.260493     2.1684      6.489   215.6299 1.0959e+03   261.9208     -0.282     -0.409    24.1132 0.0000e+00
     -0.286      0.029     5.5768     95.006     38.861  38.171048     1.9075      6.459   215.1499 9.0185e+02   238.2146     -0.281     -0.408    24.1103 0.0000e+00
     -0.284      0.052     5.5789     95.065     38.861  38.172205     1.4355      6.439   213.9828 6.2525e+02   194.9880     -0.280     -0.406    24.1086 0.0000e+00
     -0.274      0.079     5.5798     95.185     38.830  38.147526     1.1784      6.437   212.3590 6.2209e+02   171.3730     -0.275     -0.399    24.1077 0.0000e+00
     -0.250      0.108     5.5825     95.385     38.664  37.999613     1.1573      6.444   211.0900 8.8748e+02   168.8870     -0.251     -0.365    24.1072 0.0000e+00
     -0.212      0.134     5.5838     95.660     38.348  37.716835     1.1541      6.451   210.4278 1.0809e+03   165.0605     -0.208     -0.302    24.1059 0.0000e+00
     -0.167      0.150     5.5866     95.995     38.048  37.457994     1.1391      6.458   210.0306 1.1331e+03   125.1410     -0.164     -0.238    24.1056 0.0000e+00
     -0.121      0.155     5.5926     96.330     37.896  37.345593     1.1326      6.463   209.8148 1.1457e+03    51.9618     -0.120     -0.173    24.1107 0.0000e+00
     -0.072      0.148     5.6028     96.450     37.826  37.309982     1.1442      6.466   209.9689 1.1539e+03    12.0280     -0.068     -0.099    24.1272 0.0000e+00
     -0.031      0.133     5.6154     96.093     37.769  37.281369     1.1581      6.466   210.1737 1.1595e+03     8.4360     -0.024     -0.035    24.1672 0.0000e+00
     -0.002      0.114     5.6294     95.195     37.721  37.253582     1.1701      6.464   210.2263 1.1503e+03     8.0722      0.001      0.002    24.2184 0.0000e+00
      0.018      0.092     5.6491     93.977     37.681  37.227937     1.1852      6.460   210.3464 9.6408e+02     7.8266      0.016      0.024    24.2677 0.0000e+00
      0.037      0.065     5.6579     92.689     37.671  37.225208     1.2028      6.459   211.0229 7.2950e+02     7.6292      0.035      0.051    24.3156 0.0000e+00
      0.055      0.030     5.6351     91.370     37.661  37.220599     1.2098      6.462   212.2980 7.5439e+02     7.5853      0.056      0.081    24.3537 0.0000e+00
      0.070     -0.015     5.5742     90.055     37.610  37.172212     1.1918      6.466   213.5464 8.3751e+02     7.5585      0.072      0.104    24.3784 0.0000e+00
      0.074     -0.065     5.4933     88.836     37.585  37.147967     1.1586      6.468   214.6732 8.8529e+02     7.4690      0.079      0.114    24.3948 0.0000e+00
      0.055     -0.111     5.4193     87.697     37.617  37.181348     1.1379      6.468   215.5976 9.3188e+02     7.4214      0.067      0.096    24.4051 0.0000e+00
      0.006     -0.145     5.3409     86.536     37.630  37.194978     1.1412      6.468   216.2058 9.1522e+02     7.4409      0.013      0.019    24.4100 0.0000e+00
     -0.064     -0.164     5.2602     85.295     37.625  37.185821     1.1552      6.467   216.8647 9.0617e+02     7.5079     -0.067     -0.097    24.4127 0.0000e+00
     -0.127     -0.166     5.1901     84.130     37.643  37.197581     1.1587      6.466   217.6274 9.0255e+02     7.5766     -0.133     -0.193    24.4129 0.0000e+00
     -0.167     -0.151     5.1257     83.315     37.663  37.210214     1.1496      6.464   218.2002 9.0009e+02     7.5837     -0.171     -0.247    24.4143 0.0000e+00
     -0.192     -0.124     5.0601     82.910     37.669  37.211605     1.1404      6.464   218.4555 9.0286e+02     7.6271     -0.187     -0.272    24.4175 0.0000e+00
     -0.214     -0.094     4.9848     82.759     37.675  37.214394     1.1255      6.466   218.4772 9.0034e+02     7.6745     -0.209     -0.303    24.4124 0.0000e+00
     -0.236     -0.069     4.9089     82.695     37.710  37.243927     1.1077      6.466   218.5482 9.0173e+02     7.6000     -0.234     -0.341    24.4021 0.0000e+00
     -0.251     -0.050     4.8615     82.643     37.787  37.314782     1.0991      6.465   218.7979 9.0244e+02     7.4799     -0.248     -0.360    24.3939 0.0000e+00
     -0.261     -0.035     4.8431     82.562     37.914  37.436351     1.0899      6.464   219.0010 8.9428e+02     7.4019     -0.257     -0.373    24.3874 0.0000e+00
     -0.268     -0.021     4.8381     82.363     38.122  37.634718     1.0835      6.461   219.1118 7.8050e+02     7.3789     -0.264     -0.383    24.3831 0.0000e+00
     -0.270     -0.011     4.8367     82.003     38.375  37.872433     1.0743      6.461   219.2771 6.4812e+02     7.4954     -0.265     -0.385    24.3760 0.0000e+00
     -0.268     -0.004     4.8335     81.636     38.615  38.088875     1.0476      6.461   219.5365 7.2104e+02     7.7295     -0.262     -0.381    24.3693 0.0000e+00
     -0.266      0.000     4.8328     81.835     38.835  38.283891     1.0213      6.460   219.8393 8.5741e+02     7.8502     -0.260     -0.377    24.3646 0.0000e+00
     -0.265      0.003     4.8221     83.260     39.028  38.452958     1.0161      6.460   220.0129 8.9797e+02     7.8393     -0.260     -0.377    24.3576 0.0000e+00
     -0.265      0.003     4.8017     85.830     39.143  38.546082     1.0366      6.460   220.0868 9.0182e+02     7.8606     -0.260     -0.377    24.3424 0.0000e+00
     -0.265      0.003     4.7707     88.849     39.135  38.521119     1.0698      6.460   220.2170 9.0136e+02     7.8782     -0.260     -0.377    24.3147 0.0000e+00
     -0.264      0.003     4.7632     91.719     38.966  38.341544     1.0876      6.460   220.2960 9.0079e+02     7.8556     -0.259     -0.376    24.2849 0.0000e+00
     -0.263      0.004     4.8535     94.153     38.717  38.088732     1.0880      6.459   220.4405 9.0064e+02     7.8492     -0.259     -0.375    24.2564 0.0000e+00
     -0.262      0.005     5.0259     95.990     38.567  37.940002     1.0839      6.458   220.7587 9.0261e+02     7.8011     -0.257     -0.372    24.2308 0.0000e+00
     -0.260      0.007     5.2174     97.109     38.567  37.939753     1.0811      6.457   220.9606 9.0570e+02     7.7001     -0.255     -0.370    24.2084 0.0000e+00
     -0.258      0.010     5.3919     97.485     38.649  38.022240     1.0876      6.456   220.9886 9.0744e+02     7.6445     -0.254     -0.367    24.1907 0.0000e+00
     -0.257      0.014     5.5384     97.256     38.739  38.112159     1.0934      6.455   220.9248 9.0813e+02     7.6521     -0.252     -0.365    24.1812 0.0000e+00
     -0.253      0.016     5.6498     96.713     38.764  38.138273     1.1088      6.454   220.8773 9.0913e+02     7.7273     -0.250     -0.362    24.1791 0.0000e+00
     -0.248      0.018     5.7156     96.128     38.707  38.084078     1.1431      6.452   221.1031 9.1027e+02     7.8323     -0.244     -0.354    24.1811 0.0000e+00
     -0.240      0.019     5.7355     95.628     38.647  38.028195     1.1606      6.451   221.5898 9.1029e+02     7.8728     -0.236     -0.342    24.1824 0.0000e+00
     -0.234      0.020     5.7144     95.245     38.652  38.033886     1.1556      6.448   221.9435 9.1028e+02     7.8891     -0.228     -0.331    24.1840 0.0000e+00
     -0.230      0.020     5.6761     94.978     38.707  38.089414     1.1437      6.445   221.9394 9.1107e+02     7.8662     -0.225     -0.327    24.1861 0.0000e+00
     -0.227      0.020     5.6395     94.827     38.746  38.128293     1.1388      6.444   221.7977 9.0954e+02     7.7595     -0.224     -0.324    24.1894 0.0000e+00
     -0.222      0.019     5.6091     94.744     38.741  38.123106     1.1488      6.444   221.6930 9.0242e+02     7.6810     -0.219     -0.317    24.1934 0.0000e+00
     -0.216      0.019     5.5869     94.664     38.708  38.090175     1.1595      6.444   221.7054 8.9346e+02     7.6706     -0.212     -0.307    24.1959 0.0000e+00
     -0.210      0.020     5.5705     94.609     38.664  38.047502     1.1647      6.444   221.9479 8.8949e+02     7.6661     -0.206     -0.299    24.1967 0.0000e+00
     -0.205      0.020     5.5625     94.623     38.668  38.051495     1.1770      6.443   222.3018 8.8958e+02     7.6269     -0.201     -0.292    24.1970 0.0000e+00
     -0.201      0.019     5.5604     94.664     38.691  38.074983     1.2038      6.443   222.6287 8.9056e+02     7.5895     -0.197     -0.286    24.1967 0.0000e+00
     -0.196      0.018     5.5545     94.706     38.694  38.077584     1.2196      6.443   222.7166 8.9184e+02     7.6077     -0.192     -0.279    24.1962 0.0000e+00
     -0.191      0.018     5.5492     94.768     38.699  38.082940     1.2210      6.442   222.0742 8.9374e+02     7.6497     -0.187     -0.272    24.1967 0.0000e+00
     -0.187      0.018     5.5523     94.828     38.692  38.076271     1.2205      6.440   221.2289 8.9505e+02     7.7043     -0.183     -0.267    24.1973 0.0000e+00
     -0.183      0.018     5.5553     94.887     38.677  38.060423     1.2139      6.438   221.3581 8.9109e+02     7.7773     -0.180     -0.261    24.1976 0.0000e+00
     -0.178      0.016     5.5560     94.962     38.700  38.081756     1.2104      6.434   222.2598 8.8409e+02     7.8109     -0.175     -0.254    24.1984 0.0000e+00
     -0.173      0.010     5.5614     95.026     38.763  38.143775     1.2223      6.430   223.0110 8.8047e+02     7.8150     -0.170     -0.246    24.1985 0.0000e+00
     -0.168     -0.002     5.5646     95.061     38.795  38.175518     1.2445      6.429   222.7826 8.6638e+02     7.8275     -0.164     -0.237    24.1979 0.0000e+00
     -0.165     -0.017     5.5670     95.040     38.766  38.148164     1.2624      6.429   221.9079 7.4393e+02     7.7980     -0.160     -0.233    24.1966 0.0000e+00
     -0.168     -0.033     5.5732     94.950     38.747  38.130439     1.2729      6.430   221.6413 5.4979e+02     7.7199     -0.160     -0.233    24.1953 0.0000e+00
     -0.180     -0.046     5.5767     94.832     38.769  38.151631     1.2772      6.431   221.8823 5.6229e+02     7.6694     -0.172     -0.250    24.1944 0.0000e+00
     -0.202     -0.055     5.5795     94.710     38.833  38.213965     1.2793      6.430   222.3263 7.5630e+02     7.6142     -0.199     -0.287    24.1948 0.0000e+00
     -0.226     -0.058     5.5788     94.560     38.933  38.312823     1.2803      6.429   222.7081 8.5987e+02     7.5774     -0.224     -0.325    24.1979 0.0000e+00
     -0.243     -0.054     5.5717     94.392     39.015  38.394748     1.2724      6.429   222.4547 8.4424e+02     8.1745     -0.240     -0.348    24.1990 0.0000e+00
     -0.255     -0.045     5.5644     94.249     39.064  38.442787     1.2705      6.429   222.1013 7.3472e+02    15.3906     -0.251     -0.364    24.1972 0.0000e+00
     -0.262     -0.032     5.5586     94.129     39.074  38.449314     1.3274      6.429   222.1358 5.2893e+02    95.2192     -0.258     -0.374    24.1963 0.0000e+00
     -0.267     -0.021     5.5494     94.006     39.038  38.410184     1.4220      6.428   222.3556 3.5593e+02   241.5720     -0.262     -0.380    24.1976 0.0000e+00
     -0.272     -0.011     5.5375     93.874     38.979  38.350519     1.4615      6.428   222.6074 3.4218e+02   320.9939     -0.267     -0.388    24.2003 0.0000e+00
     -0.274     -0.003     5.5297     93.753     38.927  38.299214     1.4580      6.427   222.9437 4.7921e+02   323.6334     -0.269     -0.391    24.1997 0.0000e+00
     -0.273      0.004     5.5238     93.657     38.926  38.297686     1.4565      6.425   223.2383 6.6868e+02   273.3877     -0.268     -0.389    24.1944 0.0000e+00
     -0.270      0.012     5.5173     93.586     38.961  38.332048     1.4269      6.421   223.0716 8.0393e+02   153.7392     -0.266     -0.384    24.1900 0.0000e+00
     -0.266      0.022     5.5091     93.544     38.962  38.333806     1.3686      6.413   222.4770 8.5418e+02    47.6963     -0.261     -0.379    24.1881 0.0000e+00
     -0.261      0.034     5.5017     93.534     38.947  38.318936     1.3331      6.399   221.7272 8.6277e+02    11.6941     -0.257     -0.373    24.1872 0.0000e+00
     -0.253      0.047     5.4965     93.582     38.971  38.342697     1.3266      6.387   221.5773 8.6516e+02     8.4411     -0.251     -0.363    24.1871 0.0000e+00
     -0.241      0.061     5.4916     93.710     38.996  38.367189     1.3422      6.381   221.9561 8.6654e+02     8.2015     -0.237     -0.344    24.1874 0.0000e+00
     -0.223      0.072     5.4899     93.909     38.991  38.361159     1.3750      6.378   221.4883 8.6722e+02     8.2727     -0.220     -0.319    24.1880 0.0000e+00
     -0.200      0.079     5.4882     94.159     38.964  38.333262     1.3936      6.377   220.3090 8.6995e+02     8.3183     -0.197     -0.285    24.1883 0.0000e+00
     -0.174      0.082     5.4903     94.445     38.914  38.283790     1.3936      6.377   219.3986 8.7362e+02     8.3260     -0.171     -0.248    24.1878 0.0000e+00
     -0.148      0.079     5.4988     94.749     38.901  38.270822     1.3924      6.377   219.0844 8.7670e+02     8.3002     -0.144     -0.209    24.1872 0.0000e+00
     -0.127      0.071     5.5103     95.020     38.931  38.303425     1.3958      6.374   219.6935 8.7889e+02     8.2034     -0.122     -0.177    24.1865 0.0000e+00
     -0.110      0.059     5.5258     95.228     38.846  38.233649     1.4005      6.369   220.7414 8.7948e+02     8.1390     -0.107     -0.154    24.1857 0.0000e+00
     -0.098      0.046     5.5425     95.378     38.580  37.998473     1.4053      6.362   221.0858 8.7911e+02     8.1113     -0.095     -0.136    24.1847 0.0000e+00
     -0.089      0.035     5.5620     95.455     38.291  37.745136     1.4189      6.358   220.9318 8.7791e+02     8.0326     -0.087     -0.125    24.1840 0.0000e+00
     -0.083      0.026     5.5789     95.439     38.097  37.582722     1.4439      6.358   220.6865 8.7693e+02     7.9410     -0.081     -0.117    24.1838 0.0000e+00
     -0.079      0.021     5.5885     95.308     37.986  37.494736     1.4560      6.360   220.7011 8.7715e+02     7.9214     -0.077     -0.111    24.1981 0.0000e+00
     -0.076      0.018     5.5941     94.998     37.916  37.443041     1.4521      6.359   221.2798 8.7685e+02     7.9264     -0.074     -0.108    24.2384 0.0000e+00
     -0.073      0.017     5.5941     94.392     37.861  37.402030     1.4499      6.355   221.5744 8.7714e+02     7.7714     -0.072     -0.104    24.2843 0.0000e+00
     -0.068      0.014     5.5895     93.402     37.828  37.379739     1.4466      6.358   221.5104 8.7848e+02     7.5230     -0.068     -0.098    24.3209 0.0000e+00
     -0.061      0.012     5.5800     92.034     37.803  37.363967     1.4461      6.368   221.6240 8.7840e+02     7.4465     -0.059     -0.086    24.3496 0.0000e+00
     -0.056      0.011     5.5625     90.414     37.772  37.338288     1.4450      6.381   221.6577 8.8008e+02     7.4692     -0.052     -0.075    24.3719 0.0000e+00
     -0.056      0.009     5.5274     88.738     37.754  37.323163     1.4150      6.395   221.4014 8.8224e+02     7.4363     -0.053     -0.077    24.3894 0.0000e+00
     -0.058      0.006     5.4680     87.170     37.736  37.308044     1.3610      6.404   221.1915 8.8123e+02     7.4092     -0.060     -0.087    24.4038 0.0000e+00
     -0.056      0.003     5.3843     85.835     37.707  37.282435     1.3297      6.404   221.2720 8.8175e+02     7.4034     -0.056     -0.081    24.4146 0.0000e+00
     -0.052      0.001     5.2841     84.807     37.689  37.267431     1.3321      6.403   221.5135 8.8304e+02     7.3994     -0.049     -0.070    24.4207 0.0000e+00
     -0.052      0.001     5.1829     84.079     37.673  37.253580     1.3466      6.404   221.7030 8.8255e+02     7.4259     -0.050     -0.073    24.4246 0.0000e+00
     -0.053      0.000     5.0880     83.597     37.659  37.241924     1.3576      6.407   221.4122 8.8364e+02     7.5604     -0.052     -0.076    24.4280 0.0000e+00
     -0.054     -0.001     5.0085     83.382     37.669  37.253454     1.3519      6.412   220.7503 8.8584e+02     7.7813     -0.054     -0.078    24.4306 0.0000e+00
     -0.055     -0.002     4.9477     83.422     37.681  37.266033     1.3387      6.419   220.5834 8.8666e+02     7.9006     -0.055     -0.079    24.4342 0.0000e+00
     -0.054     -0.001     4.9077     83.546     37.682  37.267073     1.3366      6.425   220.9428 8.8448e+02     7.8881     -0.053     -0.077    24.4382 0.0000e+00
     -0.054      0.000     4.8778     83.580     37.680  37.266022     1.3265      6.428   221.3108 8.8009e+02     7.8604     -0.053     -0.077    24.4402 0.0000e+00
     -0.055      0.003     4.8636     83.394     37.666  37.253327     1.2938      6.431   221.5053 8.7718e+02     7.8607     -0.054     -0.079    24.4424 0.0000e+00
     -0.055      0.006     4.8720     82.947     37.653  37.240528     1.2711      6.435   221.3152 8.7523e+02     7.8582     -0.054     -0.078    24.4441 0.0000e+00
     -0.054      0.009     4.8814     82.342     37.651  37.238221     1.2689      6.438   220.9046 8.7372e+02     7.8637     -0.054     -0.078    24.4444 0.0000e+00
     -0.051      0.013     4.8869     81.742     37.640  37.225431     1.2419      6.440   220.9294 8.7302e+02     7.9589     -0.051     -0.075    24.4453 0.0000e+00
     -0.046      0.016     4.8770     81.203     37.629  37.212831     1.1869      6.441   221.2711 8.7310e+02     8.0584     -0.045     -0.066    24.4470 0.0000e+00
     -0.041      0.018     4.8483     80.689     37.629  37.212831     1.1582      6.442   221.4224 8.7460e+02     8.0512     -0.040     -0.058    24.4467 0.0000e+00
     -0.035      0.019     4.8086     80.186     37.642  37.225420     1.1556      6.444   221.4676 8.7536e+02     8.0364     -0.034     -0.049    24.4456 0.0000e+00
     -0.030      0.019     4.7726     79.697     37.656  37.238095     1.1985      6.445   221.4740 8.7555e+02     8.0109     -0.029     -0.042    24.4445 0.0000e+00
     -0.026      0.018     4.7436     79.246     37.658  37.239143     1.2870      6.446   221.4140 8.7565e+02     7.9387     -0.025     -0.036    24.4410 0.0000e+00
     -0.022      0.016     4.7130     78.880     37.659  37.238084     1.3328      6.449   221.4300 8.7433e+02     7.8850     -0.021     -0.030    24.4401 0.0000e+00
     -0.018      0.014     4.6840     78.685     37.647  37.225285     1.3358      6.450   221.5807 8.7281e+02     7.8204     -0.017     -0.025    24.4408 0.0000e+00
     -0.014      0.013     4.6548     78.780     37.633  37.211333     1.3661      6.451   221.6879 8.7020e+02     7.7149     -0.013     -0.019    24.4397 0.0000e+00
     -0.010      0.013     4.6279     79.210     37.617  37.196339     1.4225      6.452   221.6936 8.5940e+02     7.5927     -0.010     -0.015    24.4378 0.0000e+00
     -0.008      0.013     4.6053     79.917     37.592  37.170950     1.4543      6.452   221.8215 8.1586e+02     7.4900     -0.008     -0.012    24.4351 0.0000e+00
     -0.005      0.013     4.5905     80.789     37.579  37.158245     1.4551      6.453   222.0298 7.0871e+02     7.4231     -0.005     -0.007    24.4336 0.0000e+00
     -0.002      0.013     4.5951     81.724     37.590  37.169679     1.4498      6.454   222.1483 5.4494e+02     7.4058     -0.002     -0.003    24.4340 0.0000e+00
      0.001      0.013     4.6218     82.673     37.603  37.182251     1.4503      6.454   222.2218 3.8542e+02     7.5109      0.001      0.002    24.4342 0.0000e+00
      0.005      0.014     4.6654     83.566     37.604  37.183299     1.4613      6.453   222.1433 3.1866e+02     7.7431      0.005      0.007    24.4346 0.0000e+00
      0.009      0.015     4.7190     84.262     37.604  37.182353     1.4706      6.453   221.9738 3.9391e+02     7.9195      0.009      0.013    24.4352 0.0000e+00
      0.013      0.017     4.7740     84.686     37.591  37.170813     1.4668      6.452   221.9797 5.6580e+02     7.9390      0.012      0.018    24.4355 0.0000e+00
      0.016      0.018     4.8301     84.900     37.590  37.170718     1.4419      6.452   222.1281 7.3522e+02     7.9473      0.016      0.023    24.4358 0.0000e+00
      0.021      0.019     4.8866     84.980     37.601  37.181209     1.4030      6.452   222.3907 8.3412e+02     8.0192      0.021      0.030    24.4341 0.0000e+00
      0.027      0.020     4.9292     84.915     37.591  37.170709     1.3871      6.451   222.6599 8.6494e+02     8.0881      0.026      0.038    24.4334 0.0000e+00
      0.033      0.020     4.9516     84.647     37.592  37.170699     1.3883      6.450   222.4583 8.6988e+02     8.1244      0.032      0.047    24.4354 0.0000e+00
      0.038      0.021     4.9619     84.211     37.603  37.181096     1.3752      6.450   221.8463 8.7260e+02     8.0645      0.038      0.054    24.4368 0.0000e+00
      0.043      0.021     4.9668     83.715     37.592  37.169470     1.3578      6.449   221.4549 8.5327e+02     7.9545      0.044      0.062    24.4367 0.0000e+00
      0.048      0.021     4.9655     83.225     37.580  37.157078     1.3513      6.447   221.5969 8.1378e+02     7.9408      0.047      0.069    24.4354 0.0000e+00
      0.053      0.019     4.9492     82.719     37.581  37.158213     1.3483      6.445   222.0149 7.7845e+02     7.9327      0.052      0.075    24.4330 0.0000e+00
      0.059      0.013     4.9207     82.115     37.606  37.183194     1.3487      6.440   222.1206 7.4009e+02     7.8228      0.058      0.083    24.4319 0.0000e+00
      0.064     -0.003     4.8904     81.366     37.628  37.205226     1.3476      6.430   221.9287 7.1855e+02     7.6936      0.063      0.091    24.4322 0.0000e+00
      0.069     -0.030     4.8622     80.533     37.594  37.170698     1.3430      6.418   221.8454 7.2950e+02     7.6159      0.068      0.099    24.4319 0.0000e+00
      0.070     -0.064     4.8349     79.740     37.572  37.146568     1.3444      6.409   221.9740 7.9578e+02     7.6034      0.073      0.105    24.4315 0.0000e+00
      0.055     -0.097     4.8013     79.099     37.594  37.167370     1.3127      6.405   222.4520 8.7506e+02     7.5757      0.066      0.095    24.4321 0.0000e+00
      0.015     -0.125     4.7554     78.634     37.597  37.168315     1.2457      6.404   223.1504 8.8187e+02     7.4775      0.022      0.032    24.4335 0.0000e+00
     -0.040     -0.144     4.7044     78.303     37.589  37.157996     1.2111      6.407   223.7062 8.6351e+02     7.4321     -0.042     -0.061    24.4323 0.0000e+00
     -0.091     -0.149     4.6554     78.103     37.603  37.169545     1.2071      6.412   224.0099 8.6480e+02     7.4532     -0.094     -0.136    24.4275 0.0000e+00
     -0.131     -0.140     4.6176     78.029     37.617  37.181001     1.1965      6.416   224.1556 8.6877e+02     7.4704     -0.132     -0.191    24.4258 0.0000e+00
     -0.162     -0.120     4.5927     78.010     37.607  37.169566     1.1610      6.419   224.3491 8.6861e+02     7.5096     -0.160     -0.233    24.4257 0.0000e+00
     -0.186     -0.096     4.5728     77.915     37.597  37.158224     1.1159      6.424   224.4573 8.8085e+02     7.5661     -0.183     -0.266    24.4211 0.0000e+00
     -0.206     -0.075     4.5616     77.651     37.611  37.170814     1.0934      6.428   224.9469 8.8918e+02     7.5969     -0.203     -0.295    24.4168 0.0000e+00
     -0.222     -0.058     4.5588     77.254     37.636  37.194841     1.0802      6.430   225.9670 8.8002e+02     7.6198     -0.220     -0.318    24.4142 0.0000e+00
     -0.233     -0.044     4.5609     76.780     37.638  37.194832     1.0767      6.430   226.3801 8.7698e+02     7.6455     -0.230     -0.333    24.4126 0.0000e+00
     -0.242     -0.032     4.5585     76.245     37.614  37.170710     1.0857      6.429   226.3286 8.7509e+02     7.6450     -0.237     -0.345    24.4114 0.0000e+00
     -0.248     -0.021     4.5411     75.668     37.602  37.157070     1.0854      6.425   226.1190 8.6701e+02     7.6469     -0.245     -0.355    24.4095 0.0000e+00
     -0.253     -0.013     4.5168     75.078     37.603  37.156863     1.0814      6.421   225.6523 8.5753e+02     7.6687     -0.249     -0.362    24.4079 0.0000e+00
     -0.253     -0.008     4.4894     74.495     37.616  37.168194     1.0898      6.417   226.1928 8.5083e+02     7.7456     -0.249     -0.361    24.4064 0.0000e+00
     -0.253     -0.005     4.4575     73.903     37.616  37.167134     1.1011      6.414   227.6636 8.4755e+02     7.8549     -0.247     -0.357    24.4048 0.0000e+00
     -0.253     -0.003     4.4237     73.296     37.595  37.144043     1.0969      6.413   228.3789 8.4690e+02     7.8757     -0.247     -0.359    24.4030 0.0000e+00
     -0.254     -0.002     4.3883     72.697     37.596  37.142900     1.0820      6.414   228.1297 8.4720e+02     7.8335     -0.249     -0.362    24.4015 0.0000e+00
     -0.255     -0.002     4.3551     72.093     37.608  37.153306     1.0938      6.417   227.6626 8.4788e+02     7.8364     -0.249     -0.361    24.3993 0.0000e+00
     -0.256     -0.002     4.3214     71.475     37.598  37.142911     1.1263      6.420   227.2913 8.5135e+02     7.8781     -0.251     -0.364    24.3970 0.0000e+00
     -0.257     -0.001     4.2842     70.833     37.601  37.144159     1.1373      6.423   227.4254 8.5537e+02     7.8791     -0.253     -0.367    24.3950 0.0000e+00
     -0.257     -0.000     4.2509     70.168     37.627  37.168395     1.1408      6.424   228.2516 8.5436e+02     7.8481     -0.252     -0.365    24.3926 0.0000e+00
     -0.256      0.001     4.2154     69.526     37.642  37.182044     1.1333      6.423   228.9360 8.2754e+02     7.8643     -0.251     -0.363    24.3904 0.0000e+00
     -0.255      0.002     4.1795     68.920     37.642  37.182244     1.1070      6.420   229.1609 7.2553e+02     7.9105     -0.250     -0.363    24.3883 0.0000e+00
     -0.255      0.002     4.1432     68.370     37.631  37.170807     1.0925      6.419   229.1643 5.3725e+02     7.9151     -0.250     -0.363    24.3863 0.0000e+00
     -0.254      0.001     4.1017     67.883     37.632  37.170712     1.0957      6.419   228.7183 3.6655e+02     7.8867     -0.249     -0.361    24.3849 0.0000e+00
     -0.252     -0.000     4.0654     67.455     37.643  37.181100     1.1027      6.420   228.2424 3.6267e+02     7.8629     -0.247     -0.358    24.3840 0.0000e+00
     -0.252     -0.002     4.0289     67.112     37.632  37.169456     1.0997      6.423   228.4006 5.3882e+02     7.8566     -0.246     -0.357    24.3835 0.0000e+00
     -0.254     -0.003     3.9965     66.867     37.621  37.156867     1.0936      6.426   228.7386 7.3708e+02     7.8762     -0.249     -0.361    24.3829 0.0000e+00
     -0.256     -0.003     3.9691     66.725     37.621  37.155836     1.0978      6.429   228.9731 8.3554e+02     7.8700     -0.252     -0.365    24.3820 0.0000e+00
     -0.257     -0.002     3.9426     66.658     37.622  37.156991     1.0987      6.430   229.2570 8.5974e+02     7.8142     -0.252     -0.365    24.3804 0.0000e+00
     -0.258     -0.002     3.9230     66.599     37.637  37.170822     1.1044      6.430   228.9018 8.6489e+02     7.6932     -0.253     -0.367    24.3791 0.0000e+00
     -0.258     -0.002     3.9082     66.548     37.664  37.196121     1.1319      6.430   228.1201 8.6070e+02     7.5218     -0.254     -0.368    24.3778 0.0000e+00
     -0.256     -0.002     3.9004     66.573     37.679  37.208985     1.1546      6.430   228.0651 7.8747e+02     7.4463     -0.251     -0.364    24.3760 0.0000e+00
     -0.255     -0.003     3.8987     66.703     37.670  37.199406     1.1611      6.431   228.5808 6.2447e+02     7.4675     -0.249     -0.362    24.3751 0.0000e+00
     -0.257     -0.005     3.8956     66.917     37.679  37.207250     1.1586      6.432   229.0212 5.8791e+02     7.5165     -0.251     -0.365    24.3744 0.0000e+00
     -0.259     -0.007     3.8902     67.247     37.778  37.303820     1.1507      6.432   228.9158 7.4809e+02     7.5791     -0.254     -0.369    24.3729 0.0000e+00
     -0.262     -0.007     3.8915     67.899     38.018  37.541858     1.1447      6.433   228.3391 8.6096e+02     7.6353     -0.256     -0.371    24.3702 0.0000e+00
     -0.265     -0.004     3.9002     69.278     38.346  37.863720     1.1464      6.434   227.9855 8.7516e+02     7.7041     -0.260     -0.377    24.3682 0.0000e+00
     -0.268      0.003     3.9128     71.718     38.580  38.085116     1.1368      6.432   227.9957 8.7921e+02     7.7557     -0.264     -0.383    24.3675 0.0000e+00
     -0.268      0.012     3.9285     75.093     38.634  38.124011     1.1064      6.423   228.1175 8.7863e+02     7.8012     -0.265     -0.384    24.3671 0.0000e+00
     -0.265      0.023     3.9567     78.797     38.604  38.080069     1.0914      6.411   228.1682 8.7490e+02     7.8599     -0.261     -0.379    24.3696 0.0000e+00
     -0.257      0.033     4.0280     82.091     38.594  38.061609     1.0938      6.398   228.0917 8.7395e+02     7.9084     -0.254     -0.369    24.3692 0.0000e+00
     -0.246      0.043     4.1742     84.455     38.629  38.091227     1.0918      6.388   227.7952 8.7622e+02     8.0933     -0.242     -0.351    24.3555 0.0000e+00
     -0.231      0.050     4.3881     85.753     38.662  38.120797     1.0840      6.382   227.3375 8.8232e+02     8.3909     -0.226     -0.328    24.3324 0.0000e+00
     -0.216      0.054     4.6232     86.086     38.643  38.101744     1.0776      6.382   227.0315 8.9097e+02     8.5244     -0.211     -0.308    24.3136 0.0000e+00
     -0.200      0.055     4.8288     85.586     38.592  38.051285     1.0751      6.384   227.0198 8.9504e+02     8.5276     -0.196     -0.285    24.3028 0.0000e+00
     -0.185      0.054     4.9695     84.439     38.559  38.018517     1.0624      6.387   227.0241 8.9601e+02     8.4299     -0.180     -0.261    24.2969 0.0000e+00
     -0.172      0.052     5.0419     82.914     38.564  38.022928     1.0458      6.389   226.7394 8.9782e+02     8.2280     -0.168     -0.243    24.2943 0.0000e+00
     -0.160      0.051     5.0597     81.290     38.582  38.041146     1.0389      6.391   226.4173 8.9987e+02     8.1182     -0.157     -0.227    24.2933 0.0000e+00
     -0.148      0.049     5.0269     79.791     38.587  38.048358     1.0316      6.393   226.3992 8.9222e+02     8.0854     -0.145     -0.210    24.2930 0.0000e+00
     -0.137      0.048     4.9535     78.465     38.582  38.046655     1.0265      6.393   226.4341 7.8630e+02     8.0929     -0.134     -0.194    24.2930 0.0000e+00
     -0.124      0.049     4.8587     77.213     38.551  38.020551     1.0554      6.391   226.2373 6.5907e+02     8.1443     -0.121     -0.176    24.2931 0.0000e+00
     -0.111      0.050     4.7579     75.990     38.446  37.923177     1.1111      6.386   226.0847 7.2416e+02     8.1496     -0.108     -0.157    24.2942 0.0000e+00
     -0.099      0.052     4.6687     74.840     38.270  37.757987     1.1366      6.381   226.1371 8.6039e+02     8.1237     -0.098     -0.141    24.2964 0.0000e+00
     -0.086      0.054     4.5949     73.868     38.110  37.610164     1.1387      6.376   226.1828 9.0487e+02     8.1272     -0.085     -0.124    24.2983 0.0000e+00
     -0.071      0.057     4.5217     73.218     38.019  37.532350     1.1453      6.371   226.2070 9.0851e+02     8.0929     -0.070     -0.102    24.3035 0.0000e+00
     -0.056      0.059     4.4481     72.938     37.925  37.451917     1.1478      6.371   226.2578 9.1063e+02     7.9705     -0.054     -0.080    24.3134 0.0000e+00
     -0.041      0.061     4.3784     73.089     37.797  37.335901     1.1505      6.375   226.1955 9.1314e+02     7.8933     -0.041     -0.060    24.3236 0.0000e+00
     -0.025      0.063     4.3157     73.854     37.723  37.272171     1.1528      6.380   226.0550 9.1566e+02     7.8803     -0.025     -0.036    24.3375 0.0000e+00
     -0.008      0.063     4.2760     75.307     37.696  37.252642     1.1666      6.383   225.9360 9.2050e+02     7.8138     -0.007     -0.010    24.3557 0.0000e+00
      0.009      0.063     4.2592     77.364     37.664  37.226735     1.1956      6.385   225.5317 9.2712e+02     7.7116      0.008      0.012    24.3721 0.0000e+00
      0.025      0.063     4.2600     79.928     37.646  37.212838     1.2086      6.387   224.7801 9.5428e+02     7.6603      0.024      0.035    24.3859 0.0000e+00
      0.041      0.064     4.3027     82.875     37.641  37.211574     1.2115      6.389   224.1613 1.0030e+03     7.6524      0.041      0.059    24.3973 0.0000e+00
      0.057      0.068     4.3900     85.965     37.638  37.211458     1.2307      6.393   223.7288 9.4892e+02     7.7801      0.057      0.082    24.4069 0.0000e+00
      0.071      0.075     4.5108     88.802     37.635  37.211438     1.2589      6.405   223.2499 7.5355e+02     8.0905      0.070      0.101    24.4146 0.0000e+00
      0.087      0.084     4.6628     91.035     37.633  37.211332     1.2747      6.423   222.8457 5.7898e+02     8.2915      0.082      0.120    24.4199 0.0000e+00
      0.110      0.093     4.8381     92.429     37.630  37.210177     1.2741      6.442   222.7129 4.9583e+02     8.3096      0.105      0.153    24.4242 0.0000e+00
      0.140      0.100     5.0288     92.895     37.617  37.197472     1.2780      6.457   222.8491 4.7426e+02     8.3106      0.136      0.197    24.4278 0.0000e+00
      0.171      0.105     5.2009     92.560     37.603  37.184672     1.3303      6.465   223.4595 4.5320e+02     8.3022      0.168      0.243    24.4312 0.0000e+00
      0.201      0.108     5.3357     91.637     37.601  37.182365     1.4124      6.465   224.4155 4.0763e+02     8.3070      0.197      0.286    24.4347 0.0000e+00
      0.228      0.108     5.4201     90.339     37.588  37.169575     1.4557      6.465   225.1155 4.1077e+02     8.3351      0.225      0.327    24.4365 0.0000e+00
      0.252      0.110     5.4429     88.812     37.575  37.156975     1.4635      6.468   225.6413 4.4077e+02     8.3475      0.248      0.360    24.4363 0.0000e+00
      0.276      0.113     5.4193     87.127     37.575  37.156955     1.4550      6.472   226.2996 4.2326e+02     8.4239      0.268      0.389    24.4372 0.0000e+00
      0.303      0.117     5.3601     85.335     37.588  37.169335     1.4471      6.477   227.4822 3.8781e+02     8.5375      0.295      0.428    24.4380 0.0000e+00
      0.336      0.122     5.2818     83.567     37.598  37.179711     1.4555      6.481   229.0994 3.5926e+02     8.5738      0.329      0.477    24.4370 0.0000e+00
      0.372      0.127     5.1912     82.000     37.574  37.155466     1.4613      6.483   230.1938 3.2883e+02     8.5679      0.366      0.530    24.4368 0.0000e+00
      0.407      0.131     5.0924     80.695     37.549  37.130087     1.4573      6.483   230.4754 3.2112e+02     8.5003      0.400      0.580    24.4377 0.0000e+00
      0.439      0.135     4.9853     79.641     37.546  37.126748     1.4500      6.481   230.5258 3.2336e+02     8.4114      0.431      0.625    24.4380 0.0000e+00
      0.472      0.138     4.8764     78.790     37.535  37.115095     1.4517      6.476   230.8891 3.0752e+02     8.4100      0.463      0.672    24.4378 0.0000e+00
      0.507      0.142     4.7847     78.070     37.536  37.116125     1.4602      6.470   231.6850 2.9106e+02     8.4180      0.496      0.720    24.4373 0.0000e+00
      0.542      0.147     4.7090     77.511     37.561  37.139205     1.4748      6.466   232.6632 2.8309e+02     8.3450      0.531      0.769    24.4366 0.0000e+00
      0.581      0.151     4.6479     77.193     37.564  37.140255     1.4976      6.464   233.3375 2.7304e+02     8.2148      0.569      0.825    24.4358 0.0000e+00
      0.622      0.152     4.6014     77.043     37.554  37.128819     1.5111      6.463   233.6438 2.5400e+02     8.1224      0.610      0.884    24.4346 0.0000e+00
      0.664      0.152     4.5582     76.969     37.554  37.127873     1.5160      6.462   233.6131 2.3485e+02     8.1119      0.652      0.945    24.4344 0.0000e+00
      0.705      0.150     4.5221     77.061     37.556  37.128817     1.5045      6.461   233.3966 2.2067e+02     8.0556      0.693      1.005    24.4343 0.0000e+00
      0.742      0.146     4.5061     77.346     37.570  37.140234     1.4760      6.462   233.5215 2.0891e+02     7.9326      0.729      1.058    24.4310 0.0000e+00
      0.776      0.141     4.5020     77.657     37.570  37.138966     1.4575      6.465   233.7469 1.9866e+02     7.8709      0.760      1.103    24.4285 0.0000e+00
      0.811      0.136     4.4933     77.888     37.545  37.113482     1.4553      6.470   233.5409 1.8860e+02     7.8673      0.794      1.153    24.4279 0.0000e+00
      0.845      0.131     4.4968     78.025     37.519  37.085994     1.4924      6.474   233.1808 1.7985e+02     7.9542      0.829      1.202    24.4248 0.0000e+00
      0.879      0.126     4.5207     78.073     37.494  37.060500     1.5591      6.479   232.9207 1.7091e+02     8.1020      0.862      1.250    24.4215 0.0000e+00
      0.912      0.121     4.5397     78.028     37.494  37.059138     1.5857      6.485   232.2896 1.6134e+02     8.1462      0.895      1.297    24.4203 0.0000e+00
      0.942      0.120     4.5536     77.917     37.506  37.069523     1.5709      6.491   231.8306 1.5190e+02     8.1287      0.925      1.341    24.4193 0.0000e+00
      0.970      0.129     4.5614     77.817     37.497  37.059117     1.5705      6.497   232.2747 1.4348e+02     8.1530      0.952      1.381    24.4171 0.0000e+00
      0.996      0.149     4.5648     77.769     37.503  37.060252     1.6594      6.503   233.0997 1.3642e+02     8.4730      0.976      1.416    24.4147 0.0000e+00
      1.025      0.176     4.5622     77.748     37.535  37.083238     1.8047      6.511   234.0619 1.2917e+02     9.0805      1.000      1.452    24.4141 0.0000e+00
      1.065      0.200     4.5529     77.662     37.543  37.083136     1.8705      6.518   234.7879 1.1949e+02     9.4023      1.036      1.503    24.4129 0.0000e+00
      1.129      0.215     4.5470     77.405     37.523  37.058996     1.8830      6.524   234.4794 1.0706e+02     9.4152      1.099      1.594    24.4108 0.0000e+00
      1.211      0.219     4.5448     77.066     37.518  37.045253     2.0422      6.529   233.6868 9.4826e+01     9.4986      1.190      1.725    24.4059 0.0000e+00
      1.286      0.212     4.5465     76.888     37.540  37.043905     2.3393      6.531   233.7221 8.6293e+01     9.6241      1.273      1.845    24.3921 0.0000e+00
      1.338      0.194     4.5465     76.914     37.569  37.042660     2.5015      6.529   234.3904 8.1652e+01     9.6543      1.320      1.914    24.3786 0.0000e+00
      1.370      0.169     4.5304     77.064     37.575  37.030156     2.5037      6.525   235.0555 7.8212e+01     9.6348      1.344      1.950    24.3760 0.0000e+00
      1.399      0.146     4.5020     77.430     37.571  37.019646     2.5484      6.520   235.3111 7.4175e+01     9.5845      1.370      1.988    24.3731 0.0000e+00
      1.431      0.132     4.4949     78.104     37.596  37.042518     2.6681      6.515   235.1585 6.9829e+01     9.5045      1.404      2.036    24.3368 0.0000e+00
      1.465      0.128     4.5053     78.917     37.609  37.052800     2.7369      6.511   235.2748 6.5646e+01     9.4549      1.436      2.083    24.2842 0.0000e+00
      1.497      0.129     4.5121     79.553     37.575  37.017013     2.7394      6.507   235.6851 6.1601e+01     9.4105      1.468      2.128    24.2638 0.0000e+00
      1.531      0.131     4.5298     79.793     37.556  36.990664     2.7413      6.503   236.1617 5.7678e+01     9.3606      1.500      2.176    24.2606 0.0000e+00
      1.566      0.132     4.5745     79.585     37.576  36.988103     2.7509      6.496   236.5637 5.4109e+01     9.3101      1.537      2.230    24.2570 0.0000e+00
      1.600      0.134     4.6302     78.969     37.609  36.986004     2.7605      6.487   236.8449 5.0994e+01     9.2594      1.570      2.276    24.2551 0.0000e+00
      1.631      0.138     4.6723     78.026     37.624  36.965231     2.7625      6.480   237.0664 4.7940e+01     9.2383      1.599      2.317    24.2543 0.0000e+00
      1.664      0.140     4.6871     76.847     37.616  36.927311     2.7577      6.475   237.2632 4.4706e+01     9.1864      1.631      2.365    24.2494 0.0000e+00
      1.702      0.141     4.6768     75.560     37.626  36.908310     2.7454      6.473   237.5901 4.1466e+01     9.0909      1.669      2.420    24.2193 0.0000e+00
      1.742      0.141     4.6432     74.328     37.673  36.925873     2.7354      6.472   238.0073 3.8400e+01     9.0331      1.709      2.478    24.1655 0.0000e+00
      1.781      0.139     4.5904     73.249     37.723  36.949197     2.7404      6.470   238.6087 3.5730e+01     9.0125      1.748      2.535    24.1153 0.0000e+00
      1.817      0.136     4.5222     72.376     37.733  36.936382     2.7456      6.467   239.2685 3.3570e+01     8.9735      1.784      2.586    24.0780 0.0000e+00
      1.849      0.133     4.4448     71.753     37.715  36.897845     2.7291      6.465   239.5316 3.1719e+01     8.4620      1.814      2.630    24.0416 0.0000e+00
      1.879      0.130     4.3744     71.387     37.702  36.864070     2.7055      6.462   239.6386 2.9974e+01     7.5154      1.842      2.672    24.0010 0.0000e+00
      1.909      0.128     4.3128     71.251     37.707  36.845340     2.6945      6.460   239.8733 2.8206e+01     6.9987      1.871      2.713    23.9653 0.0000e+00
      1.944      0.128     4.2621     71.302     37.684  36.798295     2.6912      6.459   240.1324 2.6452e+01     6.9013      1.906      2.764    23.9383 0.0000e+00
      1.979      0.128     4.2277     71.532     37.587  36.676049     2.7003      6.456   240.3629 2.4900e+01     6.5017      1.943      2.818    23.9115 0.0000e+00
      2.013      0.130     4.2086     71.986     37.452  36.509739     2.7182      6.452   240.5954 2.3575e+01     5.7730      1.975      2.865    23.8846 0.0000e+00
      2.044      0.133     4.2041     72.663     37.354  36.374215     2.7249      6.448   240.7927 2.2398e+01     5.3658      2.004      2.907    23.8536 0.0000e+00
      2.074      0.135     4.2105     73.433     37.334  36.306822     2.7118      6.443   240.9410 2.1261e+01     5.3472      2.032      2.948    23.8200 0.0000e+00
      2.107      0.137     4.2250     74.168     37.350  36.266069     2.5343      6.438   241.1846 2.0030e+01     4.9902      2.063      2.993    23.7868 0.0000e+00
      2.146      0.138     4.2548     74.894     37.415  36.262221     2.2002      6.434   241.3289 1.8726e+01     4.2288      2.103      3.050    23.7399 0.0000e+00
      2.186      0.138     4.3028     75.728     37.560  36.323679     2.0179      6.431   241.2221 1.7580e+01     3.8101      2.146      3.112    23.6844 0.0000e+00
      2.224      0.137     4.3577     76.808     37.771  36.437798     2.0129      6.426   241.0986 1.6670e+01     3.7619      2.183      3.167    23.6233 0.0000e+00
      2.256      0.135     4.4055     78.244     38.064  36.626340     2.0094      6.421   241.2124 1.5890e+01     3.5798      2.213      3.211    23.5486 0.0000e+00
      2.287      0.130     4.4538     80.058     38.436  36.889434     1.9755      6.416   241.5657 1.5160e+01     3.2794      2.242      3.251    23.4612 0.0000e+00
      2.319      0.125     4.5095     82.241     38.861  37.206739     1.9505      6.411   241.9295 1.4440e+01     3.1129      2.274      3.297    23.3542 0.0000e+00
      2.352      0.123     4.5811     84.698     39.371  37.606387     1.9495      6.405   242.2553 1.3765e+01     3.0746      2.307      3.346    23.2315 0.0000e+00
      2.383      0.124     4.6788     87.113     39.985  38.103327     1.9545      6.400   242.4072 1.3180e+01     2.9796      2.339      3.392    23.1061 0.0000e+00
      2.413      0.126     4.7987     89.218     40.716  38.708230     1.9509      6.395   242.5615 1.2665e+01     2.7840      2.367      3.434    22.9824 0.0000e+00
      2.443      0.128     4.9409     91.067     41.607  39.460933     1.9404      6.388   243.2607 1.2162e+01     2.6425      2.395      3.473    22.8644 0.0000e+00
      2.476      0.130     5.1074     92.732     42.515  40.221184     1.9394      6.379   244.0634 1.1632e+01     2.6455      2.426      3.518    22.7545 0.0000e+00
      2.511      0.131     5.2739     94.166     43.301  40.853650     1.9655      6.370   244.3510 1.1092e+01     2.6893      2.462      3.571    22.6430 0.0000e+00
      2.547      0.127     5.4069     95.232     43.931  41.330747     2.3003      6.363   244.0715 1.0592e+01     2.7134      2.498      3.623    22.5293 0.0000e+00
      2.583      0.119     5.5291     95.547     44.289  41.545497     2.9262      6.358   243.0930 1.0153e+01     2.7074      2.533      3.674    22.4192 0.0000e+00
      2.617      0.109     5.6455     94.759     44.421  41.545373     3.2728      6.354   241.7262 9.8122e+00     2.6495      2.569      3.726    22.3034 0.0000e+00
      2.644      0.101     5.7465     92.633     44.516  41.519538     3.3961      6.349   240.5371 9.6034e+00     2.6363      2.596      3.766    22.1717 0.0000e+00
      2.661      0.097     5.8372     88.547     44.654  41.550413     4.4868      6.343   240.3306 9.4547e+00     2.7434      2.610      3.786    22.0362 0.0000e+00
      2.676      0.099     5.8828     81.880     44.806  41.601104     6.4897      6.337   240.8653 9.2697e+00     2.8637      2.622      3.803    21.9018 0.0000e+00
      2.698      0.106     5.8473     72.522     44.936  41.624414     7.6029      6.331   240.6349 8.9934e+00     2.9110      2.642      3.833    21.7534 0.0000e+00
      2.728      0.117     5.7504     60.824     45.059  41.641648     7.9156      6.325   239.8683 8.6187e+00     2.9220      2.673      3.877    21.6185 0.0000e+00
      2.763      0.131     5.5277     47.883     45.206  41.682363    10.1840      6.318   238.9958 8.2205e+00     3.0291      2.708      3.928    21.5184 0.0000e+00
      2.801      0.143     5.1213     35.015     45.382  41.735637    14.3080      6.312   237.8288 7.8550e+00     3.2557      2.747      3.984    21.4239 0.0000e+00
      2.840      0.149     4.5532     23.207     45.566  41.777717    16.5447      6.307   237.7177 7.5225e+00     3.3672      2.785      4.039    21.3100 0.0000e+00
      2.879      0.150     3.8065     13.461     45.750  41.810038    16.6462      6.304   238.6854 7.1852e+00     3.3951      2.822      4.093    21.1997 0.0000e+00
      2.920      0.148     2.9742      6.564     45.967  41.872280    15.5345      6.301   238.6873 6.8299e+00     3.8879      2.864      4.153    21.1058 0.0000e+00
      2.960      0.143     2.1637      2.490     46.276  42.022177    13.4635      6.298   237.7403 6.5191e+00     4.8024      2.904      4.214    20.9860 0.0000e+00
      2.995      0.138     1.4077      0.729     46.702  42.288963    12.3365      6.293   237.0451 6.2597e+00     5.3419      2.938      4.262    20.8407 0.0000e+00
      3.027      0.134     0.7754      0.574     47.190  42.621676    12.2163      6.286   236.9064 5.9979e+00     5.4629      2.968      4.305    20.6896 0.0000e+00
      3.058      0.131     0.3504      1.268     47.724  42.997236    11.9576      6.278   237.1816 5.7090e+00     5.8720      2.999      4.349    20.5388 0.0000e+00
      3.090      0.131     0.1063      2.345     48.505  43.591558    11.5062      6.271   237.2746 5.3880e+00     6.5841      3.030      4.395    20.3955 0.0000e+00
      3.124      0.131     0.0087      3.439     49.611  44.473855    11.2579      6.266   236.9984 5.0558e+00     6.9621      3.062      4.441    20.2652 0.0000e+00
      3.159      0.128     0.0220      4.185     50.790  45.410288    11.2096      6.261   236.5960 4.7293e+00     7.0667      3.096      4.490    20.1558 0.0000e+00
      3.195      0.121     0.0715      4.514     51.906  46.277838    10.9315      6.254   236.2808 4.4206e+00     7.9152      3.134      4.546    20.0458 0.0000e+00
      3.229      0.108     0.1484      4.666     52.745  46.898350    10.4184      6.249   236.1123 4.1771e+00     9.4540      3.170      4.596    19.9306 0.0000e+00
      3.258      0.095     0.2293      4.841     53.058  47.070287    10.1379      6.246   235.8498 4.0107e+00    10.2684      3.198      4.638    19.8215 0.0000e+00
      3.280      0.088     0.2795      5.011     53.375  47.277001    10.1061      6.242   235.5153 3.9049e+00    10.3229      3.220      4.670    19.7047 0.0000e+00
      3.293      0.088     0.2929      5.064     54.332  48.063939    10.0864      6.237   235.1663 3.8592e+00    10.3092      3.232      4.688    19.5754 0.0000e+00
      3.301      0.097     0.2976      4.983     55.872  49.344994    10.0126      6.231   234.5547 3.8017e+00    10.2997      3.234      4.692    19.4457 0.0000e+00
      3.319      0.111     0.3121      4.840     57.767  50.889324     9.8813      6.225   233.5417 3.6323e+00    10.3386      3.246      4.708    19.3390 0.0000e+00
      3.355      0.127     0.3265      4.680     59.746  52.444996     9.7912      6.218   232.2099 3.3588e+00    10.3865      3.286      4.766    19.2770 0.0000e+00
      3.403      0.142     0.3311      4.499     61.410  53.671562     9.6853      6.210   230.7551 3.0826e+00    10.4534      3.339      4.843    19.2365 0.0000e+00
      3.448      0.151     0.3231      4.276     62.559  54.411952     8.6784      6.202   229.5466 2.8518e+00    11.1796      3.384      4.909    19.1689 0.0000e+00
      3.488      0.153     0.3138      4.024     63.397  54.853307     6.8337      6.194   228.7827 2.6346e+00    12.5471      3.421      4.962    19.0639 0.0000e+00
      3.525      0.150     0.3049      3.813     64.056  55.132242     5.8307      6.184   227.9724 2.4444e+00    13.2901      3.459      5.016    18.9026 0.0000e+00
      3.559      0.148     0.2946      3.679     64.355  55.115840     5.7151      6.173   226.7188 2.2865e+00    13.2467      3.491      5.064    18.7020 0.0000e+00
      3.593      0.148     0.2817      3.580     64.492  54.972300     5.3668      6.164   225.3265 2.1003e+00    12.3828      3.521      5.107    18.4946 0.0000e+00
      3.630      0.149     0.2637      3.479     65.041  55.175269     4.7403      6.157   224.0437 1.8708e+00    10.8422      3.557      5.159    18.2596 0.0000e+00
      3.671      0.150     0.2501      3.386     66.015  55.727142     4.4001      6.150   222.9965 1.6542e+00     9.9889      3.599      5.220    18.0231 0.0000e+00
      3.714      0.149     0.2438      3.326     66.958  56.244301     4.3834      6.147   222.3868 1.4847e+00     9.8984      3.643      5.283    17.8135 0.0000e+00
      3.755      0.147     0.2395      3.294     67.789  56.662765     4.4082      6.144   222.0068 1.3468e+00     9.5849      3.684      5.343    17.6173 0.0000e+00
      3.791      0.143     0.2329      3.264     68.574  57.037762     4.4314      6.137   221.4998 1.2215e+00     8.9506      3.720      5.396    17.4158 0.0000e+00
      3.823      0.139     0.2272      3.243     69.212  57.283449     4.4387      6.132   220.8164 1.1039e+00     8.5867      3.749      5.439    17.2062 0.0000e+00
      3.854      0.137     0.2241      3.266     69.935  57.599775     4.4267      6.129   219.9388 9.7903e-01     8.4948      3.779      5.480    16.9973 0.0000e+00
      3.888      0.136     0.2239      3.303     70.996  58.193404     4.3292      6.124   218.6315 8.4577e-01     7.5446      3.812      5.528    16.7910 0.0000e+00
      3.925      0.137     0.2231      3.323     72.178  58.868993     4.1450      6.119   217.0555 7.2650e-01     5.7827      3.849      5.582    16.5871 0.0000e+00
      3.962      0.138     0.2200      3.323     73.219  59.413625     4.0370      6.115   215.6834 6.2384e-01     4.8557      3.887      5.637    16.3779 0.0000e+00
      3.997      0.140     0.2247      3.300     73.695  59.503912     4.0292      6.110   214.5160 5.4682e-01     4.7593      3.920      5.686    16.1749 0.0000e+00
      4.032      0.141     0.2289      3.265     73.196  58.816452     4.0252      6.105   213.0070 4.9012e-01     4.6496      3.953      5.733    15.9868 0.0000e+00
      4.067      0.141     0.2308      3.221     72.081  57.646313     4.0148      6.100   211.2060 4.2892e-01     4.2180      3.988      5.785    15.7818 0.0000e+00
      4.104      0.140     0.2326      3.187     70.938  56.475408     4.0157      6.096   210.2058 3.6709e-01     3.5381      4.024      5.837    15.5663 0.0000e+00
      4.140      0.137     0.2307      3.164     69.878  55.396905     4.0192      6.093   209.6035 3.2506e-01     3.1477      4.060      5.888    15.3665 0.0000e+00
      4.177      0.134     0.2303      3.140     68.962  54.453885     4.0043      6.092   207.7952 3.0189e-01     3.0376      4.097      5.943    15.1708 0.0000e+00
      4.212      0.130     0.2267      3.127     68.440  53.840618     3.8103      6.092   205.3774 2.7526e-01     2.8293      4.132      5.994    14.9773 0.0000e+00
      4.243      0.125     0.2255      3.135     68.250  53.508842     3.4502      6.092   204.0312 2.4904e-01     2.4647      4.162      6.037    14.7962 0.0000e+00
      4.272      0.120     0.2254      3.153     68.190  53.300967     3.2572      6.092   203.4776 2.3840e-01     2.2665      4.191      6.077    14.6288 0.0000e+00
      4.301      0.115     0.2235      3.140     68.031  53.042262     3.2369      6.092   202.3839 2.3548e-01     2.2675      4.218      6.118    14.4732 0.0000e+00
      4.331      0.112     0.2234      3.083     67.196  52.286489     3.1874      6.092   200.6150 2.2082e-01     2.2155      4.247      6.160    14.3265 0.0000e+00
      4.360      0.112     0.2244      3.012     65.783  51.086951     3.1010      6.092   199.1269 2.0138e-01     2.0967      4.276      6.202    14.1924 0.0000e+00
      4.387      0.113     0.2280      2.939     64.498  49.972569     3.0503      6.092   198.2429 1.9979e-01     2.0108      4.302      6.239    14.0735 0.0000e+00
      4.414      0.114     0.2281      2.860     63.294  48.911955     3.0425      6.092   197.5844 1.9713e-01     1.9958      4.327      6.276    13.9707 0.0000e+00
      4.444      0.115     0.2229      2.785     61.759  47.599644     2.9638      6.094   197.0149 1.7604e-01     1.9154      4.358      6.321    13.8999 0.0000e+00
      4.474      0.117     0.2178      2.714     60.065  46.172403     2.8005      6.096   196.3480 1.5657e-01     1.7270      4.389      6.366    13.8344 0.0000e+00
      4.503      0.118     0.2135      2.627     58.595  44.928138     2.6980      6.097   195.4587 1.4617e-01     1.6186      4.415      6.404    13.7388 0.0000e+00
      4.533      0.118     0.2079      2.544     57.418  43.922264     2.6696      6.099   194.7793 1.3752e-01     1.5889      4.445      6.447    13.6332 0.0000e+00
      4.566      0.118     0.2022      2.481     56.452  43.090763     2.5528      6.102   194.5865 1.3070e-01     1.5314      4.478      6.495    13.5315 0.0000e+00
      4.596      0.118     0.1993      2.414     55.532  42.303512     2.3338      6.104   194.9343 1.2992e-01     1.4470      4.508      6.539    13.4289 0.0000e+00
      4.625      0.119     0.1922      2.332     54.520  41.451379     2.2075      6.106   195.2852 1.3142e-01     1.3876      4.535      6.578    13.3298 0.0000e+00
      4.653      0.120     0.1853      2.247     53.415  40.533514     2.1880      6.108   194.9570 1.2800e-01     1.3715      4.563      6.618    13.2408 0.0000e+00
      4.683      0.121     0.1829      2.175     52.429  39.713027     2.1140      6.111   194.5799 1.2428e-01     1.3180      4.592      6.661    13.1599 0.0000e+00
      4.715      0.122     0.1779      2.123     52.024  39.339630     1.9812      6.113   194.5978 1.2366e-01     1.2315      4.623      6.706    13.0844 0.0000e+00
      4.748      0.123     0.1719      2.086     54.266  40.970489     1.9090      6.116   195.0015 1.2360e-01     1.1772      4.657      6.754    13.0095 0.0000e+00
      4.781      0.123     0.1654      2.048     61.894  46.669347     1.9000      6.120   195.7610 1.2364e-01     1.1530      4.689      6.800    12.9356 0.0000e+00
      4.812      0.122     0.1603      2.009     72.778  54.836834     1.8894      6.124   196.2960 1.2369e-01     1.1682      4.719      6.844    12.8669 0.0000e+00
      4.843      0.119     0.1564      1.980     81.760  61.594425     1.8586      6.126   196.3075 1.2371e-01     1.4592      4.749      6.888    12.8043 0.0000e+00
      4.873      0.118     0.1549      1.954     87.069  65.599308     1.8056      6.124   196.1573 1.2374e-01     1.9846      4.778      6.932    12.7469 0.0000e+00
      4.902      0.118     0.1522      1.929     89.477  67.413707     1.7680      6.117   196.0296 1.2374e-01     2.2773      4.808      6.973    12.6949 0.0000e+00
      4.930      0.119     0.1485      1.910     90.139  67.894883     1.7600      6.107   195.7957 1.2371e-01     2.3440      4.835      7.012    12.6643 0.0000e+00
      4.959      0.120     0.1474      1.908     90.303  67.984311     1.7004      6.094   195.9103 1.2372e-01     2.6926      4.863      7.052    12.6613 0.0000e+00
      4.991      0.121     0.1451      1.897     90.533  68.113492     1.5842      6.081   196.8130 1.2378e-01     3.3466      4.894      7.098    12.6694 0.0000e+00
      5.024      0.122     0.1433      1.864     90.775  68.248857     1.5259      6.070   198.1920 1.2377e-01     3.7295      4.926      7.146    12.6724 0.0000e+00
      5.056      0.125     0.1409      1.850     90.635  68.095158     1.5330      6.060   199.5062 1.2371e-01     3.8154      4.959      7.193    12.6621 0.0000e+00
      5.087      0.128     0.1420      1.829     89.859  67.462928     1.6099      6.051   200.6566 1.2371e-01     4.1239      4.989      7.236    12.6406 0.0000e+00
      5.117      0.131     0.1427      1.759     89.261  66.961798     1.7444      6.044   201.6901 1.2371e-01     4.6412      5.017      7.276    12.6154 0.0000e+00
      5.150      0.135     0.1369      1.675     89.368  66.994595     1.8152      6.039   202.1946 1.2371e-01     4.8917      5.048      7.322    12.5891 0.0000e+00
      5.186      0.139     0.1379      1.611     89.215  66.842298     1.8246      6.034   202.1109 1.2371e-01     4.8580      5.085      7.376    12.5627 0.0000e+00
      5.224      0.141     0.1385      1.556     87.895  65.819578     1.8843      6.030   201.9685 1.2370e-01     4.4634      5.122      7.429    12.5362 0.0000e+00
      5.262      0.142     0.1312      1.499     86.247  64.545338     1.9995      6.027   201.7626 1.2373e-01     3.7574      5.161      7.485    12.5049 0.0000e+00
      5.299      0.139     0.1239      1.446     84.927  63.512960     2.0728      6.026   200.9983 1.2373e-01     3.4011      5.198      7.539    12.4764 0.0000e+00
      5.335      0.134     0.1201      1.395     83.448  62.362788     2.0858      6.028   199.9550 1.2369e-01     3.3675      5.232      7.589    12.4582 0.0000e+00
      5.368      0.129     0.1164      1.354     81.932  61.189176     2.0955      6.029   199.6447 1.2370e-01     3.1548      5.266      7.637    12.4407 0.0000e+00
      5.399      0.124     0.1115      1.338     79.880  59.618743     2.1205      6.027   200.0002 1.2372e-01     2.7954      5.296      7.681    12.4167 0.0000e+00
      5.429      0.121     0.1082      1.333     77.407  57.736562     2.1371      6.027   199.8647 1.2374e-01     2.6265      5.324      7.722    12.3891 0.0000e+00
      5.458      0.121     0.1041      1.320     76.364  56.923304     2.1315      6.030   199.2110 1.2375e-01     2.6535      5.352      7.764    12.3621 0.0000e+00
      5.487      0.121     0.1005      1.306     76.891  57.283732     2.1130      6.033   199.0657 1.2379e-01     2.6631      5.380      7.804    12.3375 0.0000e+00
      5.519      0.122     0.0996      1.316     76.988  57.328973     2.0865      6.035   199.4846 1.2383e-01     2.6112      5.412      7.849    12.3139 0.0000e+00
      5.552      0.123     0.1003      1.343     75.330  56.072394     2.0633      6.036   199.3718 1.2381e-01     2.5499      5.446      7.898    12.2902 0.0000e+00
      5.585      0.124     0.0991      1.351     73.052  54.352944     2.0576      6.038   198.5622 1.2376e-01     2.5126      5.477      7.944    12.2676 0.0000e+00
      5.616      0.127     0.0970      1.331     71.693  53.312221     2.0616      6.040   197.9561 1.2373e-01     2.4873      5.507      7.987    12.2462 0.0000e+00
      5.646      0.131     0.0979      1.308     71.339  53.018694     2.0766      6.043   197.7212 1.2376e-01     2.5061      5.537      8.031    12.2274 0.0000e+00
      5.677      0.136     0.1014      1.293     71.554  53.154369     2.1089      6.045   197.4437 1.2381e-01     2.5763      5.567      8.074    12.2147 0.0000e+00
      5.712      0.142     0.1027      1.282     71.264  52.919791     2.1312      6.047   196.9241 1.2383e-01     2.6153      5.599      8.121    12.2013 0.0000e+00
      5.751      0.149     0.0996      1.280     70.431  52.278733     2.1296      6.049   196.2566 1.2382e-01     2.6167      5.638      8.177    12.1782 0.0000e+00
      5.793      0.154     0.0980      1.273     70.275  52.137043     2.0632      6.051   195.7396 1.2382e-01     2.6914      5.681      8.240    12.1547 0.0000e+00
      5.835      0.158     0.0974      1.257     70.591  52.350088     1.9440      6.052   195.5779 1.2382e-01     2.8312      5.723      8.300    12.1390 0.0000e+00
      5.875      0.159     0.0956      1.252     70.734  52.440708     1.8845      6.053   195.6778 1.2377e-01     2.8978      5.760      8.354    12.1279 0.0000e+00
      5.915      0.158     0.0966      1.256     70.536  52.279840     1.8823      6.054   195.2266 1.2372e-01     2.9065      5.800      8.412    12.1123 0.0000e+00
      5.956      0.155     0.0964      1.241     69.996  51.866065     1.8653      6.054   194.2526 1.2370e-01     3.0022      5.842      8.473    12.0905 0.0000e+00
      5.996      0.153     0.0942      1.223     69.786  51.693830     1.8350      6.055   193.9667 1.2371e-01     3.2030      5.881      8.529    12.0754 0.0000e+00
      6.035      0.151     0.0937      1.239     70.192  51.976016     1.8285      6.055   194.3522 1.2371e-01     3.3347      5.918      8.582    12.0661 0.0000e+00
      6.072      0.149     0.0953      1.249     71.068  52.609972     1.8375      6.055   194.7828 1.2363e-01     3.3487      5.954      8.636    12.0562 0.0000e+00
      6.109      0.147     0.0943      1.236     72.561  53.705216     1.8312      6.055   194.4417 1.2361e-01     3.2749      5.990      8.689    12.0473 0.0000e+00
      6.145      0.145     0.0899      1.236     74.390  55.054069     1.8222      6.055   193.3250 1.2366e-01     3.1627      6.026      8.740    12.0347 0.0000e+00
      6.183      0.142     0.0940      1.234     76.387  56.530370     1.8243      6.054   192.8961 1.2371e-01     3.1393      6.064      8.794    12.0203 0.0000e+00
      6.221      0.140     0.0956      1.214     79.777  59.038604     1.8298      6.052   193.2140 1.2379e-01     3.1554      6.102      8.850    12.0096 0.0000e+00
      6.256      0.139     0.0917      1.198     84.879  62.822521     1.8459      6.048   193.0391 1.2377e-01     3.0956      6.136      8.899    12.0023 0.0000e+00
      6.289      0.139     0.0936      1.193     89.047  65.929332     1.8709      6.043   192.3296 1.2372e-01     2.9736      6.168      8.945    12.0001 0.0000e+00
      6.322      0.141     0.0937      1.169     90.347  66.920672     1.8818      6.036   192.2073 1.2373e-01     2.8923      6.200      8.992    12.0000 0.0000e+00
      6.357      0.144     0.0915      1.140     89.641  66.418233     1.8819      6.028   192.9372 1.2374e-01     2.8668      6.233      9.040    11.9980 0.0000e+00
      6.393      0.145     0.0892      1.131     88.496  65.575570     1.9151      6.021   193.4976 1.2372e-01     2.7959      6.266      9.089    12.0005 0.0000e+00
      6.434      0.143     0.0910      1.128     87.893  65.123034     2.0061      6.016   193.5619 1.2367e-01     2.6587      6.309      9.150    12.0144 0.0000e+00
      6.476      0.136     0.0884      1.127     87.844  65.078475     2.0978      6.012   193.5426 1.2364e-01     2.5511      6.353      9.214    12.0338 0.0000e+00
      6.515      0.127     0.0843      1.123     87.972  65.163931     2.1307      6.008   193.4361 1.2371e-01     2.5110      6.390      9.268    12.0477 0.0000e+00
      6.547      0.122     0.0858      1.113     87.698  64.948527     2.1260      6.003   193.3069 1.2377e-01     2.5017      6.425      9.317    12.0503 0.0000e+00
      6.569      0.126     0.0845      1.100     86.950  64.380891     2.1802      5.999   192.9273 1.2376e-01     2.3408      6.446      9.350    12.0437 0.0000e+00
      6.584      0.134     0.0853      1.092     86.565  64.084914     2.3007      5.999   192.0296 1.2374e-01     2.0069      6.453      9.360    12.0388 0.0000e+00
      6.611      0.144     0.0846      1.087     86.439  63.975987     2.3684      6.000   190.9711 1.2372e-01     1.8404      6.472      9.387    12.0349 0.0000e+00
      6.660      0.155     0.0842      1.072     85.846  63.508766     2.3750      6.001   190.1090 1.2367e-01     1.8346      6.528      9.469    12.0268 0.0000e+00
      6.719      0.166     0.0827      1.058     84.877  62.757800     2.3885      6.002   189.5214 1.2365e-01     1.6743      6.595      9.566    12.0181 0.0000e+00
      6.768      0.172     0.0819      1.059     84.255  62.268829     2.4105      6.003   189.0291 1.2368e-01     1.4424      6.642      9.633    12.0133 0.0000e+00
      6.806      0.171     0.0826      1.071     84.155  62.172739     2.4255      6.003   188.4581 1.2373e-01     1.3911      6.674      9.681    12.0081 0.0000e+00
      6.843      0.163     0.0807      1.082     83.745  61.850186     2.4391      6.005   187.8663 1.2373e-01     1.4144      6.709      9.730    11.9879 0.0000e+00
      6.883      0.156     0.0792      1.089     82.933  61.228764     2.4789      6.007   187.3803 1.2373e-01     1.3304      6.750      9.790    11.9642 0.0000e+00
      6.925      0.151     0.0796      1.090     82.504  60.887386     2.5427      6.007   186.7115 1.2374e-01     1.1953      6.792      9.851    11.9489 0.0000e+00
      6.965      0.147     0.0811      1.104     82.555  60.900223     2.5701      6.008   185.8032 1.2367e-01     1.1245      6.831      9.908    11.9355 0.0000e+00
      7.003      0.141     0.0815      1.120     82.722  61.002641     2.5581      6.009   185.1735 1.2361e-01     1.0971      6.868      9.962    11.9251 0.0000e+00
      7.038      0.135     0.0828      1.104     82.887  61.108867     2.5703      6.010   184.9488 1.2367e-01     1.0935      6.904     10.013    11.9132 0.0000e+00
      7.070      0.130     0.0818      1.086     83.069  61.231293     2.6052      6.010   184.8074 1.2376e-01     1.1131      6.934     10.057    11.8969 0.0000e+00
      7.100      0.128     0.0826      1.091     83.311  61.402483     2.6166      6.011   184.3241 1.2376e-01     1.1047      6.963     10.099    11.8812 0.0000e+00
      7.130      0.129     0.0867      1.093     83.826  61.780544     2.6131      6.011   183.4931 1.2372e-01     1.0904      6.992     10.141    11.8678 0.0000e+00
      7.162      0.131     0.0835      1.085     84.713  62.434026     2.6148      6.011   182.7616 1.2374e-01     1.0389      7.022     10.185    11.8588 0.0000e+00
      7.196      0.136     0.0804      1.063     85.766  63.202362     2.6189      6.010   182.6211 1.2376e-01     0.9084      7.056     10.233    11.8522 0.0000e+00
      7.233      0.140     0.0838      1.048     86.887  64.015547     2.6274      6.010   182.6542 1.2372e-01     0.8233      7.093     10.287    11.8464 0.0000e+00
      7.272      0.142     0.0821      1.059     88.096  64.893212     2.6316      6.009   181.8716 1.2370e-01     0.8621      7.132     10.344    11.8474 0.0000e+00
      7.309      0.143     0.0832      1.065     89.437  65.868802     2.6266      6.006   180.8160 1.2374e-01     0.9186      7.167     10.395    11.8498 0.0000e+00
      7.345      0.144     0.0802      1.054     91.302  67.229968     2.6616      6.004   180.9045 1.2379e-01     0.9171      7.203     10.447    11.8440 0.0000e+00
      7.381      0.146     0.0778      1.042     94.860  69.844823     2.7438      6.001   181.5640 1.2374e-01     0.8760      7.239     10.500    11.8350 0.0000e+00
      7.416      0.150     0.0808      1.047     99.660  73.388372     2.7958      5.996   181.1334 1.2372e-01     0.8473      7.272     10.547    11.8282 0.0000e+00
      7.451      0.155     0.0809      1.055    103.254  76.056770     2.8050      5.991   180.4303 1.2376e-01     0.8650      7.305     10.595    11.8211 0.0000e+00
      7.492      0.158     0.0802      1.056    105.357  77.625512     2.8040      5.986   180.6340 1.2376e-01     0.9915      7.344     10.651    11.8133 0.0000e+00
      7.537      0.160     0.0777      1.036    107.127  78.936097     2.8088      5.980   180.6715 1.2373e-01     1.1976      7.391     10.720    11.8084 0.0000e+00
      7.583      0.160     0.0797      1.000    108.501  79.944981     2.8198      5.974   180.0226 1.2369e-01     1.2925      7.438     10.787    11.8129 0.0000e+00
      7.625      0.159     0.0797      0.988    108.971  80.282479     2.8160      5.969   179.4991 1.2368e-01     1.2868      7.479     10.846    11.8279 0.0000e+00
      7.662      0.157     0.0805      1.000    108.729  80.090679     2.7714      5.965   179.1601 1.2374e-01     1.1286      7.515     10.899    11.8395 0.0000e+00
      7.697      0.156     0.0795      0.996    108.436  79.852331     2.7054      5.962   178.4191 1.2377e-01     0.8221      7.548     10.948    11.8410 0.0000e+00
      7.735      0.157     0.0744      0.979    108.776  80.072291     2.6853      5.959   177.4228 1.2376e-01     0.6605      7.583     10.999    11.8381 0.0000e+00
      7.775      0.161     0.0738      0.977    110.037  80.969002     2.7013      5.957   176.5780 1.2379e-01     0.6501      7.624     11.059    11.8348 0.0000e+00
      7.818      0.165     0.0767      0.992    111.872  82.297346     2.7258      5.955   175.5190 1.2375e-01     0.6961      7.667     11.120    11.8289 0.0000e+00
      7.862      0.167     0.0761      1.007    113.746  83.664257     2.7652      5.953   173.9104 1.2365e-01     0.7905      7.708     11.179    11.8188 0.0000e+00
      7.907      0.167     0.0733      1.004    115.351  84.835721     2.7867      5.951   172.1862 1.2360e-01     0.8411      7.753     11.244    11.8038 0.0000e+00
      7.953      0.163     0.0736      0.991    117.159  86.154281     2.7871      5.950   170.3305 1.2362e-01     0.8496      7.800     11.314    11.7869 0.0000e+00
      7.995      0.158     0.0750      0.986    119.455  87.835345     2.7359      5.949   168.2501 1.2367e-01     0.9255      7.843     11.375    11.7770 0.0000e+00
      8.032      0.153     0.0772      0.989    121.032  88.998315     2.6264      5.947   166.9086 1.2373e-01     1.0377      7.878     11.426    11.7735 0.0000e+00
      8.067      0.149     0.0765      0.993    121.392  89.270223     2.5634      5.944   166.2421 1.2373e-01     1.0927      7.910     11.474    11.7705 0.0000e+00
      8.103      0.148     0.0745      0.995    121.580  89.404761     2.5640      5.941   165.3533 1.2366e-01     1.1313      7.945     11.523    11.7650 0.0000e+00
      8.140      0.151     0.0745      0.986    122.137  89.797679     2.5824      5.939   164.2503 1.2363e-01     1.1441      7.982     11.576    11.7600 0.0000e+00
      8.178      0.157     0.0751      0.976    123.322  90.647909     2.6037      5.938   163.1441 1.2372e-01     1.1158      8.019     11.632    11.7627 0.0000e+00
      8.218      0.163     0.0749      0.976    125.074  91.920171     2.6142      5.936   162.0448 1.2379e-01     1.0839      8.058     11.687    11.7691 0.0000e+00
      8.261      0.168     0.0760      0.981    126.758  93.151181     2.6224      5.935   160.9393 1.2377e-01     1.1191      8.099     11.747    11.7675 0.0000e+00
      8.306      0.171     0.0749      0.991    128.189  94.202179     2.6159      5.932   160.0160 1.2376e-01     1.2470      8.145     11.813    11.7585 0.0000e+00
      8.353      0.171     0.0731      0.989    129.729  95.334188     2.5793      5.930   159.0550 1.2376e-01     1.3194      8.191     11.881    11.7488 0.0000e+00
      8.399      0.170     0.0745      0.978    132.049  97.034853     2.5520      5.930   157.5800 1.2370e-01     1.3055      8.238     11.948    11.7422 0.0000e+00
      8.441      0.168     0.0737      0.969    137.035 100.695243     2.5547      5.930   155.8619 1.2368e-01     1.3087      8.279     12.008    11.7400 0.0000e+00
      8.481      0.163     0.0759      0.969    147.581 108.454565     2.5605      5.929   154.3705 1.2371e-01     1.3257      8.317     12.063    11.7408 0.0000e+00
      8.522      0.159     0.0753      0.974    161.100 118.428315     2.5608      5.926   152.9708 1.2370e-01     1.3141      8.358     12.122    11.7415 0.0000e+00
      8.563      0.156     0.0738      0.964    169.974 125.012806     2.5583      5.921   151.4993 1.2370e-01     1.2993      8.398     12.181    11.7398 0.0000e+00
      8.602      0.154     0.0735      0.950    172.540 126.948063     2.5475      5.915   150.1730 1.2375e-01     1.3109      8.436     12.235    11.7366 0.0000e+00
      8.641      0.153     0.0727      0.938    171.443 126.144694     2.5430      5.908   149.0666 1.2382e-01     1.3233      8.475     12.291    11.7369 0.0000e+00
      8.680      0.151     0.0751      0.917    168.648 124.033555     2.6077      5.901   148.2746 1.2384e-01     1.3184      8.512     12.345    11.7492 0.0000e+00
      8.718      0.151     0.0728      0.902    166.737 122.524515     2.7321      5.896   147.6521 1.2382e-01     1.3166      8.549     12.399    11.7728 0.0000e+00
      8.756      0.152     0.0716      0.908    166.692 122.370203     2.7991      5.894   147.2186 1.2381e-01     1.3349      8.586     12.454    11.7900 0.0000e+00
      8.794      0.155     0.0717      0.926    168.308 123.442562     2.8018      5.895   146.9056 1.2376e-01     1.3750      8.624     12.509    11.7922 0.0000e+00
      8.834      0.158     0.0692      0.936    171.664 125.800500     2.8002      5.895   146.3623 1.2370e-01     1.5065      8.662     12.564    11.7762 0.0000e+00
      8.874      0.162     0.0677      0.938    175.563 128.566048     2.7966      5.895   145.9837 1.2370e-01     1.7130      8.701     12.620    11.7401 0.0000e+00
      8.916      0.166     0.0685      0.947    178.283 130.484265     2.8014      5.896   145.5119 1.2373e-01     1.8403      8.743     12.681    11.7013 0.0000e+00
      8.959      0.168     0.0706      0.970    180.036 131.713216     2.8054      5.896   144.8735 1.2375e-01     1.8655      8.786     12.743    11.6682 0.0000e+00
      9.004      0.168     0.0715      0.990    182.671 133.604307     2.7846      5.896   144.2008 1.2374e-01     2.0496      8.829     12.806    11.6379 0.0000e+00
      9.048      0.166     0.0711      0.987    187.110 136.830417     2.7579      5.897   143.2292 1.2374e-01     2.4286      8.873     12.869    11.6112 0.0000e+00
      9.091      0.163     0.0713      0.968    191.590 140.102234     2.7430      5.898   141.9882 1.2376e-01     2.6135      8.915     12.930    11.5897 0.0000e+00
      9.131      0.159     0.0739      0.946    194.054 141.904853     2.7340      5.898   140.8971 1.2373e-01     2.6130      8.955     12.988    11.5752 0.0000e+00
      9.171      0.158     0.0763      0.936    194.687 142.356771     2.7110      5.898   140.0179 1.2371e-01     2.6851      8.994     13.045    11.5654 0.0000e+00
      9.209      0.159     0.0755      0.943    194.753 142.376049     2.6810      5.899   138.7570 1.2373e-01     2.7973      9.031     13.099    11.5597 0.0000e+00
      9.246      0.163     0.0737      0.953    195.792 143.095012     2.6748      5.901   137.6975 1.2375e-01     2.8551      9.066     13.149    11.5594 0.0000e+00
      9.286      0.168     0.0718      0.959    198.429 144.987611     2.6793      5.901   136.8438 1.2375e-01     2.9253      9.105     13.206    11.5618 0.0000e+00
      9.331      0.171     0.0705      0.964    203.049 148.348797     2.6751      5.901   136.0065 1.2372e-01     3.0565      9.150     13.270    11.5596 0.0000e+00
      9.380      0.171     0.0720      0.962    208.826 152.588472     2.6591      5.903   134.9734 1.2368e-01     3.1626      9.198     13.341    11.5516 0.0000e+00
      9.428      0.164     0.0727      0.972    212.420 155.268721     2.6420      5.906   133.6439 1.2369e-01     3.1927      9.247     13.411    11.5394 0.0000e+00
      9.473      0.149     0.0727      0.979    213.403 156.050339     2.6330      5.909   133.2680 1.2374e-01     3.1587      9.291     13.475    11.5291 0.0000e+00
      9.513      0.128     0.0743      0.961    213.766 156.356583     2.6367      5.913   133.0960 1.2373e-01     3.0791      9.331     13.534    11.5248 0.0000e+00
      9.545      0.105     0.0724      0.938    214.267 156.736762     2.6611      5.916   132.1667 1.2367e-01     2.9838      9.365     13.583    11.5281 0.0000e+00
      9.566      0.082     0.0740      0.918    216.198 158.156857     2.6849      5.918   131.4102 1.2367e-01     2.9235      9.384     13.610    11.5440 0.0000e+00
      9.577      0.062     0.0759      0.903    219.178 160.371967     2.6989      5.921   130.6601 1.2373e-01     2.9077      9.393     13.622    11.5624 0.0000e+00
      9.586      0.047     0.0729      0.900    221.895 162.445873     2.7424      5.925   129.6363 1.2376e-01     2.9557      9.400     13.635    11.5716 0.0000e+00
      9.596      0.037     0.0715      0.905    226.067 165.605363     2.8219      5.928   128.0653 1.2373e-01     3.0783      9.410     13.649    11.5734 0.0000e+00
      9.605      0.030     0.0697      0.907    233.621 171.233668     2.8705      5.930   124.9156 1.2377e-01     3.1457      9.420     13.664    11.5719 0.0000e+00
      9.613      0.026     0.0685      0.895    245.050 179.702743     2.8708      5.934   121.6667 1.2382e-01     3.1138      9.428     13.674    11.5762 0.0000e+00
      9.619      0.023     0.0680      0.868    257.952 189.260974     2.8080      5.938   119.6718 1.2375e-01     3.1518      9.433     13.682    11.6002 0.0000e+00
      9.623      0.019     0.0689      0.850    268.297 196.969123     2.6930      5.941   118.0894 1.2364e-01     3.2447      9.438     13.689    11.6268 0.0000e+00
      9.627      0.016     0.0691      0.850    275.624 202.480005     2.6329      5.944   117.2474 1.2364e-01     3.2869      9.440     13.692    11.6439 0.0000e+00
      9.630      0.014     0.0689      0.854    275.459 202.463462     2.6274      5.948   116.3740 1.2366e-01     3.3349      9.442     13.696    11.6637 0.0000e+00
      9.634      0.012     0.0653      0.858    264.140 194.202152     2.6267      5.950   114.9280 1.2369e-01     3.4317      9.448     13.703    11.6805 0.0000e+00
      9.638      0.010     0.0636      0.865    252.560 185.698719     2.6243      5.953   114.3909 1.2369e-01     3.5396      9.452     13.708    11.7020 0.0000e+00
      9.640      0.008     0.0648      0.904    247.626 182.039803     2.6162      5.956   114.1822 1.2369e-01     3.5905      9.454     13.711    11.7307 0.0000e+00
      9.642      0.006     0.0641      0.937    243.726 179.120787     2.6242      5.960   113.3508 1.2373e-01     3.5882      9.455     13.713    11.7503 0.0000e+00
      9.642      0.004     0.0660      0.920    239.174 175.718267     2.6766      5.963   111.7380 1.2372e-01     3.5120      9.455     13.714    11.7620 0.0000e+00
      9.643      0.003     0.0635      0.898    236.924 174.009477     2.7551      5.965   110.0833 1.2367e-01     3.3895      9.456     13.715    11.7641 0.0000e+00
      9.643      0.003     0.0683      0.881    239.312 175.716523     2.7935      5.968   109.1743 1.2368e-01     3.3530      9.457     13.716    11.7553 0.0000e+00
      9.644      0.003     0.0742      0.860    243.258 178.587721     2.7940      5.972   108.3189 1.2378e-01     3.3659      9.458     13.717    11.7434 0.0000e+00
      9.645      0.003     0.0686      0.837    245.564 180.282111     2.7707      5.975   107.2265 1.2384e-01     3.1847      9.458     13.717    11.7312 0.0000e+00
      9.646      0.002     0.0683      0.819    249.374 183.099691     2.7201      5.977   105.7751 1.2379e-01     2.8333      9.460     13.719    11.7192 0.0000e+00
      9.647      0.002     0.0672      0.827    251.279 184.525325     2.6941      5.980   104.6217 1.2374e-01     2.6571      9.461     13.721    11.7087 0.0000e+00
      9.647      0.001     0.0650      0.854    248.397 182.432775     2.6990      5.985   104.2944 1.2374e-01     2.6594      9.461     13.722    11.7025 0.0000e+00
      9.647      0.001     0.0641      0.866    243.734 179.025516     2.6838      5.989   104.8284 1.2367e-01     2.5659      9.461     13.720    11.7035 0.0000e+00
      9.647      0.000     0.0609      0.862    238.119 174.907583     2.6480      5.992   105.4001 1.2359e-01     2.3793      9.460     13.721    11.7089 0.0000e+00
      9.647 1.8627e-08     0.0620      0.860    232.279 170.608806     2.6308      5.995   105.0986 1.2365e-01     2.3037      9.461     13.722    11.7146 0.0000e+00
      9.647 2.0490e-07     0.0655      0.851    227.382 166.988115     2.6318      5.999   104.7958 1.2375e-01     2.3077      9.460     13.721    11.7198 0.0000e+00
      9.647 1.8783e-07     0.0665      0.851    225.396 165.503180     2.6601      6.002   104.6641 1.2374e-01     2.2634      9.461     13.722    11.7234 0.0000e+00
      9.647      0.000     0.0646      0.859    225.402 165.496596     2.6876      6.003   104.5394 1.2372e-01     2.2272      9.461     13.721    11.7256 0.0000e+00
      9.647 -9.990e-29     0.0661 -9.990e-29 -9.990e-29 -9.990e-29 -9.990e-29 -9.990e-29 -9.990e-29 1.2373e-01 -9.990e-29      9.461     13.721    11.7236 0.0000e+00
      9.647 -9.990e-29     0.0643 -9.990e-29 -9.990e-29 -9.990e-29 -9.990e-29 -9.990e-29 -9.990e-29 1.2373e-01 -9.990e-29      9.461     13.722    11.7169 0.0000e+00
      9.647 -9.990e-29     0.0634 -9.990e-29 -9.990e-29 -9.990e-29 -9.990e-29 -9.990e-29 -9.990e-29 1.2372e-01 -9.990e-29      9.461     13.722    11.7099 0.0000e+00
      9.647 -9.990e-29     0.0669 -9.990e-29 -9.990e-29 -9.990e-29 -9.990e-29 -9.990e-29 -9.990e-29 1.2372e-01 -9.990e-29      9.461     13.722    11.7065 0.0000e+00
