* Sea-Bird SBE19plus  Data File:
* FileName = C:\R\Reservoirs\Data\DataNotYetUploadedToEDI\Raw_CTD\RawDownloads\090224_fcr50_S7809_0003.hex
* Software version 2.8.0.119
* Temperature SN = 7809
* Conductivity SN = 7809
* System UpLoad Time = Sep 02 2024 17:17:29
* <ApplicationData>
* <Seaterm232>
* <SoftwareVersion>2.8.0.119</SoftwareVersion>
* <BuildDate>07-Nov-2018</BuildDate>
* </Seaterm232>
* </ApplicationData>
* <InstrumentState>
* <HardwareData DeviceType='SBE19plus' SerialNumber='01907809'>
*
*    <Manufacturer>Sea-Bird Electronics, Inc.</Manufacturer>
*
*    <FirmwareVersion>3.1.8</FirmwareVersion>
*
*    <FirmwareDate>Mar  9 2016 16:22:29</FirmwareDate>
*
*    <CommandSetVersion>1.4</CommandSetVersion>
*
*    <PCBAssembly PCBSerialNum='120721' AssemblyNum='41054J'/>
*
*    <PCBAssembly PCBSerialNum='120715' AssemblyNum='41967A'/>
*
*    <PCBAssembly PCBSerialNum='116699' AssemblyNum='41606'/>
*
*    <PCBAssembly PCBSerialNum='120719' AssemblyNum='41059D'/>
*
*    <MfgDate>28-Apr-2017</MfgDate>
*
*    <InternalSensors>
*
*       <Sensor id='Main Temperature'>
*
*          <type>temperature0</type>
*
*          <SerialNumber>01907809</SerialNumber>
*
*       </Sensor>
*
*       <Sensor id='Main Conductivity'>
*
*          <type>conductivity-0</type>
*
*          <SerialNumber>01907809</SerialNumber>
*
*       </Sensor>
*
*       <Sensor id='Main Pressure'>
*
*          <type>strain-0</type>
*
*          <SerialNumber>10586018</SerialNumber>
*
*       </Sensor>
*
*    </InternalSensors>
*
*    <ExternalSensors>
*
*       <Sensor id='volt 0'>
*
*          <type>pH</type>
*
*          <SerialNumber>27-0363</SerialNumber>
*
*       </Sensor>
*
*       <Sensor id='volt 1'>
*
*          <type>ORP</type>
*
*          <SerialNumber>27-0363</SerialNumber>
*
*       </Sensor>
*
*       <Sensor id='volt 2'>
*
*          <type>OXY</type>
*
*          <SerialNumber>43-0434</SerialNumber>
*
*       </Sensor>
*
*       <Sensor id='volt 3'>
*
*          <type>PAR</type>
*
*          <SerialNumber>1122</SerialNumber>
*
*       </Sensor>
*
*       <Sensor id='volt 4'>
*
*          <type>ECO AFL/FL</type>
*
*          <SerialNumber>FLNTURT-2496</SerialNumber>
*
*       </Sensor>
*
*       <Sensor id='volt 5'>
*
*          <type>ECO-NTU</type>
*
*          <SerialNumber>FLNTURT-2496</SerialNumber>
*
*       </Sensor>
*
*       <Sensor id='serial'>
*
*          <type>not assigned</type>
*
*          <SerialNumber>not assigned</SerialNumber>
*
*       </Sensor>
*
*    </ExternalSensors>
*
* </HardwareData>
* <StatusData DeviceType='SBE19plus' SerialNumber='01907809'>
*
*    <DateTime>2024-09-02T17:15:33</DateTime>
*
*    <LoggingState>not logging</LoggingState>
*
*    <EventSummary numEvents='0'/>
*
*    <Power>
*
*       <vMain>12.2</vMain>
*
*       <vLith>8.5</vLith>
*
*       <iMain>63.1</iMain>
*
*       <iPump>54.8</iPump>
*
*       <iExt01>20.8</iExt01>
*
*       <iExt2345>37.6</iExt2345>
*
*    </Power>
*
*    <MemorySummary>
*
*       <Bytes>135631</Bytes>
*
*       <Samples>5897</Samples>
*
*       <SamplesFree>2854891</SamplesFree>
*
*       <SampleLength>23</SampleLength>
*
*       <Profiles>5</Profiles>
*
*    </MemorySummary>
*
* </StatusData>
* <ConfigurationData DeviceType='SBE19plus' SerialNumber='01907809'>
*
*    <ProfileMode>
*
*       <ScansToAverage>1</ScansToAverage>
*
*       <MinimumCondFreq>0</MinimumCondFreq>
*
*       <PumpDelay>45</PumpDelay>
*
*       <AutoRun>no</AutoRun>
*
*       <IgnoreSwitch>no</IgnoreSwitch>
*
*    </ProfileMode>
*
*    <Battery>
*
*       <Type>alkaline</Type>
*
*       <CutOff>7.5</CutOff>
*
*    </Battery>
*
*    <DataChannels>
*
*       <ExtVolt0>yes</ExtVolt0>
*
*       <ExtVolt1>yes</ExtVolt1>
*
*       <ExtVolt2>yes</ExtVolt2>
*
*       <ExtVolt3>yes</ExtVolt3>
*
*       <ExtVolt4>yes</ExtVolt4>
*
*       <ExtVolt5>yes</ExtVolt5>
*
*       <SBE38>no</SBE38>
*
*       <WETLABS>no</WETLABS>
*
*       <OPTODE>no</OPTODE>
*
*       <SBE63>no</SBE63>
*
*       <SeaFET>no</SeaFET>
*
*       <GTD>no</GTD>
*
*    </DataChannels>
*
*    <EchoCharacters>yes</EchoCharacters>
*
*    <OutputExecutedTag>yes</OutputExecutedTag>
*
*    <OutputFormat>raw HEX</OutputFormat>
*
* </ConfigurationData>
* <CalibrationCoefficients DeviceType='SBE19plus' SerialNumber='01907809'>
*
*    <Calibration format='TEMP1' id='Main Temperature'>
*
*       <SerialNum>01907809</SerialNum>
*
*       <CalDate>31-Jan-23</CalDate>
*
*       <TA0>1.218232e-03</TA0>
*
*       <TA1>2.815090e-04</TA1>
*
*       <TA2>-1.578887e-06</TA2>
*
*       <TA3>1.972343e-07</TA3>
*
*       <TOFFSET>0.000000e+00</TOFFSET>
*
*    </Calibration>
*
*    <Calibration format='WBCOND0' id='Main Conductivity'>
*
*       <SerialNum>01907809</SerialNum>
*
*       <CalDate>31-Jan-23</CalDate>
*
*       <G>-1.005652e+00</G>
*
*       <H>1.267963e-01</H>
*
*       <I>-1.561708e-04</I>
*
*       <J>2.645944e-05</J>
*
*       <CPCOR>-9.570000e-08</CPCOR>
*
*       <CTCOR>3.250000e-06</CTCOR>
*
*       <CSLOPE>1.000000e+00</CSLOPE>
*
*    </Calibration>
*
*    <Calibration format='STRAIN0' id='Main Pressure'>
*
*       <SerialNum>10586018</SerialNum>
*
*       <CalDate>20-Jan-23</CalDate>
*
*       <PA0>4.416439e-02</PA0>
*
*       <PA1>4.850502e-04</PA1>
*
*       <PA2>-3.090426e-12</PA2>
*
*       <PTCA0>5.254757e+05</PTCA0>
*
*       <PTCA1>1.050255e+01</PTCA1>
*
*       <PTCA2>-2.922435e-01</PTCA2>
*
*       <PTCB0>2.516687e+01</PTCB0>
*
*       <PTCB1>3.750000e-04</PTCB1>
*
*       <PTCB2>0.000000e+00</PTCB2>
*
*       <PTEMPA0>-5.470820e+01</PTEMPA0>
*
*       <PTEMPA1>5.485421e+01</PTEMPA1>
*
*       <PTEMPA2>-3.446578e-01</PTEMPA2>
*
*       <POFFSET>8.500000e-01</POFFSET>
*
*       <PRANGE>1.600000e+02</PRANGE>
*
*    </Calibration>
*
*    <Calibration format='VOLT0' id='Volt 0'>
*
*       <OFFSET>-4.920000e-02</OFFSET>
*
*       <SLOPE>1.248122e+00</SLOPE>
*
*    </Calibration>
*
*    <Calibration format='VOLT0' id='Volt 1'>
*
*       <OFFSET>-4.784000e-02</OFFSET>
*
*       <SLOPE>1.248871e+00</SLOPE>
*
*    </Calibration>
*
*    <Calibration format='VOLT0' id='Volt 2'>
*
*       <OFFSET>-4.864632e-02</OFFSET>
*
*       <SLOPE>1.248714e+00</SLOPE>
*
*    </Calibration>
*
*    <Calibration format='VOLT0' id='Volt 3'>
*
*       <OFFSET>-4.743790e-02</OFFSET>
*
*       <SLOPE>1.248571e+00</SLOPE>
*
*    </Calibration>
*
*    <Calibration format='VOLT0' id='Volt 4'>
*
*       <OFFSET>-4.671263e-02</OFFSET>
*
*       <SLOPE>1.248951e+00</SLOPE>
*
*    </Calibration>
*
*    <Calibration format='VOLT0' id='Volt 5'>
*
*       <OFFSET>-4.871053e-02</OFFSET>
*
*       <SLOPE>1.249136e+00</SLOPE>
*
*    </Calibration>
*
*    <Calibration format='FREQ0' id='external frequency channel'>
*
*       <EXTFREQSF>1.000014e+00</EXTFREQSF>
*
*    </Calibration>
*
* </CalibrationCoefficients>
* <EventCounters DeviceType='SBE19plus' SerialNumber='01907809'>
*
*    <EventSummary numEvents='0'/>
*
* </EventCounters></InstrumentState>
* <Headers>
*
* cast   3 02 Sep 2024 12:38:33 samples 2529 to 3242, avg = 1, stop = mag switch
*
# nquan = 15
# nvalues = 714                         
# units = specified
# name 0 = depFM: Depth [fresh water, m]
# name 1 = dz/dtM: Descent Rate [m/s]
# name 2 = sbeox0Mg/L: Oxygen, SBE 43 [mg/l]
# name 3 = sbeox0PS: Oxygen, SBE 43 [% saturation]
# name 4 = specc: Specific Conductance [uS/cm]
# name 5 = c0uS/cm: Conductivity [uS/cm]
# name 6 = flECO-AFL: Fluorescence, WET Labs ECO-AFL/FL [mg/m^3]
# name 7 = ph: pH
# name 8 = orp: Oxidation Reduction Potential [mV]
# name 9 = par/sat/log: PAR/Logarithmic, Satlantic
# name 10 = turbWETntu0: Turbidity, WET Labs ECO [NTU]
# name 11 = prdM: Pressure, Strain Gauge [db]
# name 12 = prdE: Pressure, Strain Gauge [psi]
# name 13 = tv290C: Temperature [ITS-90, deg C]
# name 14 = flag:  0.000e+00
# span 0 =     -0.633,      3.020       
# span 1 =     -0.384,      0.227       
# span 2 =     0.0049,     8.5046       
# span 3 =      0.148,    103.170       
# span 4 =      4.959,     63.307       
# span 5 =   4.960780,  56.907884       
# span 6 =    -0.8912,    18.3356       
# span 7 =      7.897,      8.259       
# span 8 =   195.6814,   273.3806       
# span 9 = 4.5343e+01, 2.3466e+03       
# span 10 =    -5.8046,    77.4658      
# span 11 =     -0.623,      2.962      
# span 12 =     -0.902,      4.296      
# span 13 =    19.9060,    25.7903      
# span 14 = 0.0000e+00, 0.0000e+00      
# interval = seconds: 0.25
# start_time = Sep 02 2024 12:38:33 [Instrument's time stamp, header]
# bad_flag = -9.990e-29
# <Sensors count="9" >
#   <sensor Channel="1" >
#     <!-- Count, Temperature -->
#     <TemperatureSensor SensorID="58" >
#       <SerialNumber>7809</SerialNumber>
#       <CalibrationDate>31-Jan-23</CalibrationDate>
#       <A0>1.21823180e-003</A0>
#       <A1>2.81508993e-004</A1>
#       <A2>-1.57888696e-006</A2>
#       <A3>1.97234302e-007</A3>
#       <Slope>1.00000000</Slope>
#       <Offset>0.0000</Offset>
#     </TemperatureSensor>
#   </sensor>
#   <sensor Channel="2" >
#     <!-- Frequency 0, Conductivity -->
#     <ConductivitySensor SensorID="3" >
#       <SerialNumber>7809</SerialNumber>
#       <CalibrationDate>31-Jan-23</CalibrationDate>
#       <UseG_J>1</UseG_J>
#       <!-- Cell const and series R are applicable only for wide range sensors. -->
#       <SeriesR>0.0000</SeriesR>
#       <CellConst>2000.0000</CellConst>
#       <ConductivityType>0</ConductivityType>
#       <Coefficients equation="0" >
#         <A>0.00000000e+000</A>
#         <B>0.00000000e+000</B>
#         <C>0.00000000e+000</C>
#         <D>0.00000000e+000</D>
#         <M>0.0</M>
#         <CPcor>-9.57000000e-008</CPcor>
#       </Coefficients>
#       <Coefficients equation="1" >
#         <G>-1.00565232e+000</G>
#         <H>1.26796307e-001</H>
#         <I>-1.56170788e-004</I>
#         <J>2.64594368e-005</J>
#         <CPcor>-9.57000000e-008</CPcor>
#         <CTcor>3.2500e-006</CTcor>
#         <!-- WBOTC not applicable unless ConductivityType = 1. -->
#         <WBOTC>0.00000000e+000</WBOTC>
#       </Coefficients>
#       <Slope>1.00000000</Slope>
#       <Offset>0.00000</Offset>
#     </ConductivitySensor>
#   </sensor>
#   <sensor Channel="3" >
#     <!-- Count, Pressure, Strain Gauge -->
#     <PressureSensor SensorID="46" >
#       <SerialNumber>7809</SerialNumber>
#       <CalibrationDate>20-Jan-23</CalibrationDate>
#       <PA0>4.41643944e-002</PA0>
#       <PA1>4.85050239e-004</PA1>
#       <PA2>-3.09042623e-012</PA2>
#       <PTEMPA0>-5.47081996e+001</PTEMPA0>
#       <PTEMPA1>5.48542136e+001</PTEMPA1>
#       <PTEMPA2>-3.44657813e-001</PTEMPA2>
#       <PTCA0>5.25475731e+005</PTCA0>
#       <PTCA1>1.05025484e+001</PTCA1>
#       <PTCA2>-2.92243463e-001</PTCA2>
#       <PTCB0>2.51668750e+001</PTCB0>
#       <PTCB1>3.75000000e-004</PTCB1>
#       <PTCB2>0.00000000e+000</PTCB2>
#       <Offset>0.000000</Offset>
#     </PressureSensor>
#   </sensor>
#   <sensor Channel="4" >
#     <!-- A/D voltage 0, Oxygen, SBE 43 -->
#     <OxygenSensor SensorID="38" >
#       <SerialNumber>0434</SerialNumber>
#       <CalibrationDate>18-Feb-23</CalibrationDate>
#       <Use2007Equation>1</Use2007Equation>
#       <CalibrationCoefficients equation="0" >
#         <!-- Coefficients for Owens-Millard equation. -->
#         <Boc>0.0000</Boc>
#         <Soc>0.0000e+000</Soc>
#         <offset>0.0000</offset>
#         <Pcor>0.00e+000</Pcor>
#         <Tcor>0.0000</Tcor>
#         <Tau>0.0</Tau>
#       </CalibrationCoefficients>
#       <CalibrationCoefficients equation="1" >
#         <!-- Coefficients for Sea-Bird equation - SBE calibration in 2007 and later. -->
#         <Soc>5.1878e-001</Soc>
#         <offset>-0.5046</offset>
#         <A>-4.2788e-003</A>
#         <B> 1.5372e-004</B>
#         <C>-2.1853e-006</C>
#         <D0> 2.5826e+000</D0>
#         <D1> 1.92634e-004</D1>
#         <D2>-4.64803e-002</D2>
#         <E> 3.6000e-002</E>
#         <Tau20> 0.9900</Tau20>
#         <H1>-3.3000e-002</H1>
#         <H2> 5.0000e+003</H2>
#         <H3> 1.4500e+003</H3>
#       </CalibrationCoefficients>
#     </OxygenSensor>
#   </sensor>
#   <sensor Channel="5" >
#     <!-- A/D voltage 1, PAR/Logarithmic, Satlantic -->
#     <PARLog_SatlanticSensor SensorID="76" >
#       <SerialNumber>1122</SerialNumber>
#       <CalibrationDate>08-Sep-2021</CalibrationDate>
#       <a0>9.6751e-001</a0>
#       <a1>8.0992e-001</a1>
#       <Im>1.3589e+000</Im>
#       <Multiplier>1.0000e+000</Multiplier>
#     </PARLog_SatlanticSensor>
#   </sensor>
#   <sensor Channel="6" >
#     <!-- A/D voltage 2, pH -->
#     <pH_Sensor SensorID="43" >
#       <SerialNumber>0363</SerialNumber>
#       <CalibrationDate>28-Feb-23</CalibrationDate>
#       <Slope>4.7364</Slope>
#       <Offset>2.5433</Offset>
#     </pH_Sensor>
#   </sensor>
#   <sensor Channel="7" >
#     <!-- A/D voltage 3, Oxidation Reduction Potential -->
#     <OxidationReductionPotentialSensor SensorID="41" >
#       <SerialNumber>0363</SerialNumber>
#       <CalibrationDate>28-Feb-23</CalibrationDate>
#       <B>2.499480</B>
#       <M>-0.496195</M>
#       <Offset>0.0</Offset>
#     </OxidationReductionPotentialSensor>
#   </sensor>
#   <sensor Channel="8" >
#     <!-- A/D voltage 4, Fluorometer, WET Labs ECO-AFL/FL -->
#     <FluoroWetlabECO_AFL_FL_Sensor SensorID="20" >
#       <SerialNumber>FLNTURT-2496</SerialNumber>
#       <CalibrationDate>02-Sep-2021</CalibrationDate>
#       <ScaleFactor>4.80000000e+001</ScaleFactor>
#       <!-- Dark output -->
#       <Vblank>0.0550</Vblank>
#     </FluoroWetlabECO_AFL_FL_Sensor>
#   </sensor>
#   <sensor Channel="9" >
#     <!-- A/D voltage 5, Turbidity Meter, WET Labs, ECO-NTU -->
#     <TurbidityMeter SensorID="67" >
#       <SerialNumber>FLNTURT--2496</SerialNumber>
#       <CalibrationDate>02-Sep-2021</CalibrationDate>
#       <ScaleFactor>197.000000</ScaleFactor>
#       <!-- Dark output -->
#       <DarkVoltage>0.070000</DarkVoltage>
#     </TurbidityMeter>
#   </sensor>
# </Sensors>
# datcnv_date = Sep 02 2024 17:22:27, 7.26.7.129 [datcnv_vars = 14]
# datcnv_in = C:\R\Reservoirs\Data\DataNotYetUploadedToEDI\Raw_CTD\RawDownloads\090224_fcr20_S7809003.hex C:\R\Reservoirs\Data\DataNotYetUploadedToEDI\Raw_CTD\RawDownloads\SBE19plusV2_7809_start20230701.xmlcon
# datcnv_skipover = 0
# datcnv_ox_hysteresis_correction = yes
# datcnv_ox_tau_correction = yes
# filter_date = Sep 02 2024 17:23:00, 7.26.7.129
# filter_in = C:\R\Reservoirs\Data\DataNotYetUploadedToEDI\Raw_CTD\RawDownloads\090224_fcr20_S7809003.cnv
# filter_low_pass_tc_A = 0.030
# filter_low_pass_tc_B = 0.150
# filter_low_pass_A_vars = sbeox0Mg/L prdM prdE tv290C
# filter_low_pass_B_vars = depFM dz/dtM sbeox0PS specc c0uS/cm flECO-AFL ph orp par/sat/log turbWETntu0
# alignctd_date = Sep 02 2024 17:23:33, 7.26.7.129
# alignctd_in = C:\R\Reservoirs\Data\DataNotYetUploadedToEDI\Raw_CTD\RawDownloads\090224_fcr20_S7809003.cnv
# alignctd_adv = dz/dtM 1.000, sbeox0PS 1.000, specc 1.000, c0uS/cm 1.000, flECO-AFL 1.000, ph 1.000, orp 1.000, turbWETntu0 1.000                                                                                                   
# file_type = ascii
*END*
     -0.627 1.1796e-09     7.5902     92.106      6.200   6.202780    -0.0629      8.074   209.0251 7.4086e+02     1.1647     -0.615     -0.892    24.9894 0.0000e+00
     -0.628 1.2976e-08     7.5986     92.186      5.543   5.547003    -0.0448      8.069   206.5236 7.4862e+02     1.2599     -0.616     -0.894    24.9448 0.0000e+00
     -0.628 1.4273e-07     7.6025     92.269      5.211   5.213736    -0.0550      8.059   203.9844 7.6568e+02     1.3298     -0.616     -0.893    24.9493 0.0000e+00
     -0.628      0.000     7.6041     92.360      4.959   4.960780    -0.1366      8.035   202.8445 7.7326e+02     1.7364     -0.616     -0.893    24.9974 0.0000e+00
     -0.628      0.000     7.6063     92.370      6.543   6.543045    -0.2489      8.005   201.0880 8.3002e+02     2.5207     -0.616     -0.894    25.0276 0.0000e+00
     -0.628      0.000     7.6132     92.304      9.583   9.581062    -0.2892      7.980   197.2008 9.5614e+02     2.9221     -0.616     -0.893    25.0346 0.0000e+00
     -0.628      0.002     7.6179     92.333     10.521  10.519405    -0.2578      7.970   195.6814 1.1378e+03     2.9007     -0.616     -0.893    25.0273 0.0000e+00
     -0.628      0.008     7.6323     92.416      9.016   9.018863     0.0807      7.969   209.8187 1.3859e+03     3.0142     -0.616     -0.892    25.0132 0.0000e+00
     -0.628      0.018     7.6381     92.453      7.647   7.659686     0.7166      7.964   242.8604 1.6374e+03     3.3368     -0.617     -0.894    25.0003 0.0000e+00
     -0.626      0.031     7.6217     92.487     11.716  11.763789     1.0722      7.958   268.7539 1.8360e+03     3.5563     -0.616     -0.894    24.9839 0.0000e+00
     -0.619      0.051     7.6303     92.544     24.078  24.220830     1.1171      7.955   273.3806 1.9441e+03     3.5503     -0.610     -0.886    24.9812 0.0000e+00
     -0.604      0.077     7.6389     92.607     36.520  36.798065     1.2842      7.952   268.7732 1.9060e+03     3.3669     -0.595     -0.862    25.0050 0.0000e+00
     -0.584      0.105     7.6292     92.649     41.668  42.063896     1.6030      7.944   253.3990 1.8179e+03     3.0809     -0.574     -0.831    25.0611 0.0000e+00
     -0.555      0.130     7.6190     92.702     42.365  42.844332     1.7844      7.932   229.0276 1.8709e+03     2.9281     -0.551     -0.799    25.1566 0.0000e+00
     -0.514      0.153     7.6126     92.924     42.394  42.933978     1.8125      7.918   216.0430 2.0592e+03     2.9201     -0.507     -0.735    25.2412 0.0000e+00
     -0.465      0.175     7.6018     93.305     42.372  42.957465     1.8594      7.905   214.0177 2.2334e+03     2.8808     -0.456     -0.661    25.3506 0.0000e+00
     -0.416      0.199     7.5908     93.727     42.319  42.937969     1.9267      7.898   212.1974 2.3185e+03     2.8285     -0.408     -0.592    25.4763 0.0000e+00
     -0.368      0.219     7.5727     94.254     42.244  42.888708     1.9686      7.897   222.1698 2.3437e+03     2.8687     -0.360     -0.523    25.5649 0.0000e+00
     -0.318      0.227     7.5816     94.905     42.208  42.869658     1.9922      7.900   241.7563 2.2892e+03     2.9576     -0.319     -0.463    25.6362 0.0000e+00
     -0.251      0.227     7.6148     95.582     42.229  42.898085     2.0703      7.904   240.4565 1.9144e+03     2.9803     -0.253     -0.366    25.6911 0.0000e+00
     -0.173      0.220     7.6360     96.212     42.250  42.915066     2.1969      7.909   220.8235 1.5416e+03     2.9046     -0.163     -0.236    25.7278 0.0000e+00
     -0.108      0.206     7.6754     96.775     42.234  42.884560     2.2574      7.915   210.6971 1.3125e+03     2.7931     -0.095     -0.138    25.7597 0.0000e+00
     -0.065      0.181     7.7289     97.249     42.218  42.846574     2.2694      7.920   210.2531 7.4993e+02     2.7936     -0.062     -0.090    25.7830 0.0000e+00
     -0.029      0.146     7.7856     97.649     42.233  42.836568     2.3337      7.924   210.1202 3.1083e+02     2.8423     -0.032     -0.047    25.7903 0.0000e+00
      0.008      0.106     7.8365     97.951     42.246  42.827013     2.4271      7.928   209.6927 2.4645e+02     2.7670      0.014      0.019    25.7852 0.0000e+00
      0.037      0.071     7.8876     98.096     42.231  42.794474     2.4591      7.934   209.3859 2.3115e+02     2.6692      0.043      0.062    25.7661 0.0000e+00
      0.050      0.043     7.9282     98.100     42.210  42.760474     2.4374      7.939   208.9929 2.5836e+02     2.6162      0.052      0.074    25.7384 0.0000e+00
      0.050      0.021     7.9657     98.025     42.194  42.733255     2.4299      7.944   208.4676 4.0014e+02     2.6049      0.053      0.077    25.7080 0.0000e+00
      0.043      0.007     7.9981     97.905     42.189  42.719243     2.3934      7.951   208.1110 5.7702e+02     2.7036      0.043      0.062    25.6797 0.0000e+00
      0.035      0.005     8.0116     97.753     42.195  42.717981     2.2961      7.957   208.0367 6.3057e+02     2.8183      0.032      0.046    25.6585 0.0000e+00
      0.031      0.012     8.0119     97.617     42.200  42.717986     2.2276      7.960   207.9998 8.0897e+02     2.8302      0.028      0.041    25.6449 0.0000e+00
      0.035      0.022     8.0057     97.540     42.204  42.719286     2.2137      7.963   207.9235 9.7343e+02     2.8134      0.031      0.044    25.6341 0.0000e+00
      0.049      0.030     7.9989     97.509     42.218  42.733705     2.2857      7.968   207.8875 7.4601e+02     2.8546      0.045      0.065    25.6222 0.0000e+00
      0.068      0.033     7.9853     97.494     42.245  42.765388     2.4333      7.972   207.9091 5.1435e+02     2.9188      0.069      0.100    25.6125 0.0000e+00
      0.082      0.030     7.9737     97.509     42.259  42.785005     2.5083      7.976   208.0132 4.9345e+02     2.9401      0.086      0.124    25.6077 0.0000e+00
      0.087      0.023     7.9684     97.496     42.249  42.780488     2.5018      7.978   208.1134 4.9431e+02     2.9067      0.086      0.125    25.6024 0.0000e+00
      0.086      0.015     7.9678     97.056     42.236  42.774255     2.4881      7.979   208.0879 4.7584e+02     2.8915      0.083      0.121    25.6022 0.0000e+00
      0.085      0.008     7.9650     95.619     42.227  42.773120     2.4761      7.982   208.0484 4.5246e+02     2.9275      0.082      0.119    25.6093 0.0000e+00
      0.085      0.006     7.9631     93.025     42.212  42.766783     2.4643      7.986   207.9808 4.9326e+02     2.9317      0.083      0.121    25.6161 0.0000e+00
      0.086      0.007     7.9730     89.637     42.197  42.761121     2.4539      7.990   207.8729 5.6513e+02     2.9080      0.085      0.123    25.6228 0.0000e+00
      0.090      0.007     7.9590     85.988     42.197  42.768142     2.4421      7.995   207.8623 6.0593e+02     2.8803      0.088      0.127    25.6307 0.0000e+00
      0.094      0.007     7.8447     82.516     42.211  42.788210     2.4378      7.998   207.8518 6.2656e+02     2.8698      0.093      0.135    25.6403 0.0000e+00
      0.096      0.006     7.6177     79.581     42.233  42.813358     2.4518      8.000   207.8325 5.8924e+02     2.9182      0.096      0.139    25.6514 0.0000e+00
      0.096      0.006     7.3225     77.537     42.238  42.818332     2.4618      8.003   207.9733 5.5454e+02     2.9523      0.095      0.138    25.6623 0.0000e+00
      0.096      0.008     7.0117     76.577     42.205  42.784882     2.4672      8.005   208.1773 6.2456e+02     2.9411      0.093      0.135    25.6713 0.0000e+00
      0.097      0.011     6.7185     76.546     42.148  42.726263     2.4835      8.006   208.3199 6.9015e+02     2.8848      0.094      0.137    25.6782 0.0000e+00
      0.098      0.015     6.4675     77.094     42.103  42.680805     2.5009      8.006   208.4069 6.3421e+02     2.8527      0.096      0.140    25.6818 0.0000e+00
      0.103      0.018     6.2926     77.865     42.101  42.679547     2.5112      8.006   208.4552 5.5935e+02     2.9280      0.099      0.145    25.6802 0.0000e+00
      0.112      0.018     6.2208     78.534     42.131  42.711052     2.5081      8.008   208.5602 5.4507e+02     2.9759      0.110      0.160    25.6803 0.0000e+00
      0.122      0.016     6.2304     78.914     42.164  42.744388     2.4883      8.010   208.6428 5.5785e+02     2.9191      0.122      0.177    25.6809 0.0000e+00
      0.126      0.012     6.2836     78.966     42.184  42.765258     2.4636      8.013   208.5942 5.9039e+02     2.8564      0.125      0.182    25.6789 0.0000e+00
      0.126      0.007     6.3580     78.648     42.192  42.772978     2.4505      8.016   208.4885 6.7009e+02     2.8665      0.124      0.179    25.6807 0.0000e+00
      0.124      0.003     6.4171     77.918     42.194  42.774247     2.4553      8.019   208.3984 7.7945e+02     2.9400      0.121      0.176    25.6827 0.0000e+00
      0.123      0.002     6.4477     76.843     42.199  42.780603     2.4796      8.022   208.4504 7.6954e+02     2.9930      0.120      0.174    25.6824 0.0000e+00
      0.123      0.004     6.4529     75.603     42.204  42.786370     2.5027      8.024   208.6013 6.1794e+02     2.9601      0.120      0.174    25.6821 0.0000e+00
      0.124      0.006     6.4303     74.438     42.199  42.780502     2.5022      8.027   208.6734 5.2210e+02     2.8837      0.121      0.175    25.6819 0.0000e+00
      0.128      0.007     6.3676     73.558     42.193  42.773115     2.5061      8.029   208.8067 5.2526e+02     2.8896      0.124      0.181    25.6824 0.0000e+00
      0.132      0.007     6.2748     73.097     42.182  42.760525     2.5663      8.031   208.9226 5.4215e+02     2.9291      0.130      0.189    25.6834 0.0000e+00
      0.135      0.006     6.1664     73.180     42.178  42.755228     2.6563      8.032   208.8701 5.8115e+02     2.9170      0.133      0.193    25.6835 0.0000e+00
      0.135      0.005     6.0641     73.825     42.197  42.772533     2.6875      8.035   208.8593 8.2462e+02     2.8798      0.133      0.193    25.6829 0.0000e+00
      0.134      0.005     5.9908     74.860     42.205  42.779348     2.6684      8.038   208.9652 1.1706e+03     2.8208      0.133      0.193    25.6823 0.0000e+00
      0.133      0.007     5.9481     76.022     42.201  42.774146     2.6662      8.038   209.1176 1.1678e+03     2.8185      0.130      0.189    25.6809 0.0000e+00
      0.132      0.010     5.9536     77.082     42.202  42.773106     2.6857      8.038   209.2391 9.0235e+02     2.8866      0.128      0.185    25.6784 0.0000e+00
      0.136      0.012     6.0129     77.937     42.198  42.766769     2.6975      8.039   209.3164 7.2065e+02     2.9269      0.132      0.192    25.6761 0.0000e+00
      0.143      0.012     6.1054     78.570     42.194  42.760995     2.6919      8.040   209.3636 6.5980e+02     2.8957      0.140      0.203    25.6740 0.0000e+00
      0.150      0.011     6.2081     78.933     42.202  42.766759     2.6929      8.042   209.3800 6.4257e+02     2.8168      0.149      0.216    25.6724 0.0000e+00
      0.154      0.009     6.2972     78.987     42.212  42.772991     2.7179      8.044   209.3420 6.1155e+02     2.7578      0.153      0.222    25.6714 0.0000e+00
      0.154      0.006     6.3663     78.755     42.218  42.772867     2.7447      8.046   209.3347 5.8026e+02     2.7292      0.152      0.220    25.6681 0.0000e+00
      0.152      0.004     6.4203     78.229     42.218  42.765253     2.7589      8.047   209.3777 5.6326e+02     2.7097      0.149      0.216    25.6645 0.0000e+00
      0.151      0.003     6.4525     77.406     42.205  42.744393     2.7564      8.049   209.4320 5.5910e+02     2.6933      0.147      0.213    25.6631 0.0000e+00
      0.152      0.004     6.4546     76.403     42.178  42.711043     2.7218      8.052   209.5601 5.7786e+02     2.7361      0.150      0.216    25.6595 0.0000e+00
      0.154      0.007     6.4378     75.421     42.152  42.679370     2.6905      8.053   209.6361 6.4159e+02     2.8861      0.152      0.220    25.6519 0.0000e+00
      0.156      0.010     6.3974     74.646     42.154  42.678788     2.7028      8.054   209.5767 7.3177e+02     2.9695      0.153      0.222    25.6421 0.0000e+00
      0.159      0.010     6.3270     74.143     42.180  42.704000     2.7206      8.056   209.4438 7.3144e+02     2.9588      0.155      0.225    25.6318 0.0000e+00
      0.164      0.007     6.2401     73.903     42.207  42.730316     2.7311      8.060   209.3198 6.1128e+02     2.8928      0.160      0.232    25.6240 0.0000e+00
      0.169      0.004     6.1538     73.963     42.222  42.743094     2.7550      8.062   209.3685 4.9990e+02     2.7531      0.167      0.242    25.6195 0.0000e+00
      0.170      0.002     6.0896     74.357     42.217  42.731554     2.7755      8.063   209.6033 4.5478e+02     2.7039      0.168      0.243    25.6171 0.0000e+00
      0.165      0.001     6.0500     74.911     42.212  42.717718     2.7960      8.063   209.7492 4.7210e+02     2.7077      0.162      0.234    25.6150 0.0000e+00
      0.161      0.001     6.0299     75.301     42.207  42.702728     2.8116      8.064   209.7558 5.0156e+02     2.6963      0.155      0.225    25.6134 0.0000e+00
      0.161      0.001     6.0310     75.367     42.190  42.677237     2.8062      8.066   209.7692 4.5641e+02     2.7369      0.156      0.227    25.6117 0.0000e+00
      0.165      0.001     6.0693     75.206     42.182  42.663381     2.7896      8.068   209.8250 4.0533e+02     2.8232      0.163      0.236    25.6050 0.0000e+00
      0.169      0.001     6.1284     74.992     42.185  42.662121     2.7857      8.070   209.9137 4.6651e+02     2.9196      0.167      0.242    25.5935 0.0000e+00
      0.169      0.001     6.1669     74.857     42.189  42.662006     2.8009      8.071   209.9820 6.2911e+02     2.8776      0.167      0.243    25.5807 0.0000e+00
      0.166      0.000     6.1685     74.810     42.193  42.661981     2.8151      8.072   209.9629 7.3958e+02     2.6919      0.163      0.237    25.5702 0.0000e+00
      0.164     -0.001     6.1506     74.702     42.196  42.661809     2.8242      8.073   209.9405 6.5692e+02     2.5874      0.160      0.232    25.5643 0.0000e+00
      0.164      0.000     6.1300     74.383     42.197  42.659926     2.8107      8.075   210.0554 4.8133e+02     2.6045      0.161      0.233    25.5589 0.0000e+00
      0.165      0.001     6.1177     73.834     42.180  42.639207     2.8099      8.077   210.1474 3.9107e+02     2.6598      0.162      0.235    25.5533 0.0000e+00
      0.165      0.003     6.1207     73.135     42.146  42.601697     2.8478      8.079   210.1058 3.7505e+02     2.6747      0.162      0.235    25.5501 0.0000e+00
      0.166      0.005     6.1174     72.365     42.135  42.587219     2.8616      8.082   210.0691 3.6118e+02     2.6137      0.163      0.236    25.5469 0.0000e+00
      0.168      0.006     6.0917     71.592     42.142  42.591092     2.8514      8.084   210.0478 3.4320e+02     2.5717      0.165      0.240    25.5429 0.0000e+00
      0.170      0.009     6.0443     70.910     42.140  42.585052     2.8570      8.084   210.0202 3.3060e+02     2.6786      0.167      0.242    25.5387 0.0000e+00
      0.171      0.011     5.9850     70.388     42.136  42.577649     2.8712      8.085   210.0799 3.3715e+02     2.8820      0.167      0.242    25.5347 0.0000e+00
      0.174      0.013     5.9217     70.019     42.127  42.565050     2.8657      8.088   210.1678 3.4983e+02     2.9470      0.170      0.246    25.5311 0.0000e+00
      0.179      0.013     5.8550     69.737     42.124  42.559648     2.8484      8.090   210.2217 3.4404e+02     2.8841      0.176      0.255    25.5272 0.0000e+00
      0.184      0.013     5.7976     69.462     42.143  42.575799     2.8452      8.090   210.3019 3.2968e+02     2.8382      0.181      0.261    25.5225 0.0000e+00
      0.188      0.013     5.7557     69.166     42.138  42.569919     2.8683      8.091   210.3626 3.1528e+02     2.8703      0.184      0.267    25.5176 0.0000e+00
      0.190      0.014     5.7281     68.865     42.122  42.552032     2.9122      8.092   210.4391 3.0179e+02     2.9654      0.187      0.271    25.5136 0.0000e+00
      0.191      0.016     5.7084     68.608     42.122  42.549933     2.9339      8.093   210.6247 2.9686e+02     2.9634      0.188      0.272    25.5102 0.0000e+00
      0.193      0.021     5.6863     68.427     42.118  42.544530     2.9307      8.092   210.8865 3.0073e+02     2.8798      0.189      0.273    25.5077 0.0000e+00
      0.198      0.027     5.6624     68.336     42.125  42.550172     2.9658      8.090   211.1954 3.0453e+02     2.8769      0.193      0.279    25.5058 0.0000e+00
      0.206      0.033     5.6354     68.272     42.131  42.554678     3.0426      8.089   211.4338 2.9997e+02     2.9288      0.202      0.293    25.5040 0.0000e+00
      0.217      0.037     5.6147     68.157     42.116  42.535543     3.0935      8.089   211.4460 2.9182e+02     2.9609      0.213      0.309    25.5021 0.0000e+00
      0.230      0.037     5.5986     67.976     42.092  42.509210     3.1062      8.090   211.3431 2.8548e+02     2.9574      0.226      0.328    25.5002 0.0000e+00
      0.243      0.032     5.5927     67.629     42.074  42.490167     3.1212      8.091   211.3942 2.7810e+02     2.9199      0.240      0.349    25.4988 0.0000e+00
      0.253      0.024     5.5932     67.049     42.079  42.495706     3.1421      8.093   211.5478 2.6927e+02     2.8829      0.250      0.362    25.4965 0.0000e+00
      0.258      0.014     5.5801     66.303     42.096  42.512706     3.1419      8.095   211.6510 2.6277e+02     2.8864      0.254      0.367    25.4924 0.0000e+00
      0.259      0.005     5.5712     65.460     42.090  42.505307     3.1364      8.096   211.6962 2.5967e+02     2.9280      0.255      0.370    25.4886 0.0000e+00
      0.257     -0.001     5.5461     64.597     42.059  42.469724     3.1245      8.098   211.6638 2.5894e+02     2.8737      0.253      0.367    25.4876 0.0000e+00
      0.252     -0.003     5.4935     63.769     42.057  42.463282     3.0984      8.098   211.6897 2.6059e+02     2.7078      0.247      0.358    25.4885 0.0000e+00
      0.248     -0.002     5.4325     63.021     42.089  42.490880     3.0876      8.099   211.7514 2.6329e+02     2.6304      0.243      0.352    25.4896 0.0000e+00
      0.248      0.001     5.3600     62.412     42.087  42.486045     3.0851      8.101   211.7209 2.6567e+02     2.6895      0.243      0.352    25.4883 0.0000e+00
      0.252      0.004     5.2888     61.950     42.071  42.468291     3.1097      8.103   211.6656 2.6757e+02     2.8072      0.247      0.358    25.4827 0.0000e+00
      0.255      0.007     5.2211     61.577     42.071  42.466624     3.1605      8.104   211.5987 2.6912e+02     2.8582      0.251      0.364    25.4758 0.0000e+00
      0.257      0.008     5.1573     61.258     42.070  42.465895     3.1826      8.106   211.6004 2.6886e+02     2.7936      0.252      0.366    25.4710 0.0000e+00
      0.258      0.007     5.1075     60.989     42.065  42.459473     3.1857      8.108   211.6855 2.6316e+02     2.7441      0.253      0.367    25.4679 0.0000e+00
      0.261      0.006     5.0726     60.714     42.059  42.452444     3.1907      8.111   211.7677 2.5538e+02     2.7721      0.256      0.372    25.4655 0.0000e+00
      0.263      0.003     5.0434     60.420     42.052  42.444370     3.1847      8.113   211.9066 2.5068e+02     2.8580      0.258      0.375    25.4644 0.0000e+00
      0.263      0.001     5.0157     60.145     42.034  42.425329     3.1622      8.114   211.9881 2.4651e+02     2.8941      0.259      0.376    25.4636 0.0000e+00
      0.263      0.001     4.9970     59.831     42.022  42.412626     3.1349      8.114   211.9786 2.4302e+02     2.8331      0.259      0.376    25.4626 0.0000e+00
      0.262      0.000     4.9755     59.436     42.028  42.417715     3.1217      8.115   211.9631 2.4331e+02     2.8037      0.257      0.372    25.4618 0.0000e+00
      0.261 1.8980e-08     4.9478     59.048     42.035  42.423386     3.1440      8.117   211.8877 2.4617e+02     2.7773      0.255      0.370    25.4608 0.0000e+00
      0.262 2.0878e-07     4.9284     58.708     42.030  42.417725     3.1883      8.118   211.8411 2.4985e+02     2.7191      0.256      0.371    25.4599 0.0000e+00
      0.263 2.0878e-07     4.9062     58.368     42.025  42.412739     3.2074      8.118   211.9166 2.5451e+02     2.6809      0.259      0.375    25.4591 0.0000e+00
      0.264 1.8965e-08     4.8681     58.008     42.040  42.426577     3.1997      8.118   212.1117 2.5908e+02     2.6237      0.259      0.376    25.4578 0.0000e+00
      0.263 1.5559e-09     4.8353     57.641     42.071  42.458093     3.1783      8.118   212.3071 2.6019e+02     2.6425      0.258      0.375    25.4565 0.0000e+00
      0.262 -1.399e-10     4.8109     57.293     42.091  42.476447     3.1575      8.118   212.3866 2.5751e+02     2.8056      0.257      0.372    25.4555 0.0000e+00
      0.261 -1.539e-09     4.7826     56.976     42.075  42.458083     3.1560      8.119   212.4706 2.5350e+02     2.9563      0.255      0.370    25.4551 0.0000e+00
      0.261 -1.693e-08     4.7534     56.671     42.045  42.426463     3.1600      8.120   212.5479 2.4952e+02     2.9618      0.256      0.371    25.4541 0.0000e+00
      0.262 -1.863e-07     4.7221     56.367     42.031  42.411483     3.1557      8.121   212.5474 2.4792e+02     2.9057      0.257      0.372    25.4528 0.0000e+00
      0.263 -1.860e-07     4.6931     56.077     42.024  42.403888     3.1452      8.121   212.6358 2.4866e+02     2.8918      0.258      0.374    25.4514 0.0000e+00
      0.263 -1.354e-08     4.6685     55.793     42.018  42.398103     3.1417      8.121   212.8429 2.4781e+02     2.8969      0.259      0.375    25.4496 0.0000e+00
      0.262 3.5856e-08     4.6441     55.517     42.025  42.405011     3.1547      8.121   213.0724 2.4536e+02     2.9333      0.258      0.374    25.4481 0.0000e+00
      0.261 4.0981e-07     4.6183     55.273     42.045  42.423936     3.1618      8.121   213.2595 2.4566e+02     2.9564      0.256      0.370    25.4470 0.0000e+00
      0.261      0.000     4.5951     55.050     42.059  42.436516     3.1447      8.120   213.2983 2.5048e+02     2.9029      0.255      0.369    25.4461 0.0000e+00
      0.261      0.000     4.5723     54.814     42.053  42.430179     3.1312      8.120   213.2828 2.5731e+02     2.8326      0.256      0.371    25.4457 0.0000e+00
      0.262      0.001     4.5481     54.566     42.035  42.410776     3.1312      8.120   213.4166 2.6181e+02     2.8245      0.257      0.372    25.4450 0.0000e+00
      0.263      0.001     4.5285     54.318     42.018  42.392327     3.1287      8.121   213.5397 2.6171e+02     2.8393      0.258      0.373    25.4439 0.0000e+00
      0.263      0.001     4.5124     54.087     42.024  42.397521     3.1419      8.122   213.4814 2.5803e+02     2.7713      0.258      0.374    25.4429 0.0000e+00
      0.262      0.001     4.4924     53.886     42.038  42.410101     3.1741      8.123   213.3998 2.5280e+02     2.6518      0.257      0.373    25.4422 0.0000e+00
      0.262      0.001     4.4717     53.683     42.047  42.417486     3.1938      8.124   213.4996 2.4780e+02     2.5895      0.257      0.372    25.4415 0.0000e+00
      0.262      0.002     4.4516     53.472     42.054  42.423346     3.1966      8.125   213.8268 2.4515e+02     2.6326      0.257      0.373    25.4403 0.0000e+00
      0.263      0.002     4.4309     53.282     42.050  42.417476     3.1911      8.125   214.0866 2.4609e+02     2.6951      0.258      0.374    25.4386 0.0000e+00
      0.264      0.002     4.4171     53.105     42.044  42.409986     3.1695      8.125   214.1454 2.4848e+02     2.6626      0.258      0.374    25.4367 0.0000e+00
      0.265      0.001     4.4010     52.949     42.032  42.396252     3.1431      8.125   214.1937 2.4955e+02     2.6150      0.260      0.377    25.4347 0.0000e+00
      0.266      0.000     4.3810     52.802     42.016  42.378357     3.1377      8.125   214.3262 2.4976e+02     2.6325      0.262      0.379    25.4328 0.0000e+00
      0.265      0.000     4.3681     52.647     42.024  42.384017     3.1716      8.125   214.4575 2.5160e+02     2.6681      0.261      0.379    25.4311 0.0000e+00
      0.264      0.001     4.3519     52.501     42.043  42.401227     3.2281      8.126   214.4048 2.5506e+02     2.7037      0.259      0.376    25.4293 0.0000e+00
      0.263      0.001     4.3399     52.354     42.040  42.396026     3.2554      8.126   214.2909 2.5841e+02     2.6877      0.257      0.373    25.4271 0.0000e+00
      0.263      0.002     4.3300     52.208     42.031  42.384591     3.2514      8.126   214.2844 2.6150e+02     2.6114      0.257      0.373    25.4247 0.0000e+00
      0.265      0.002     4.3148     52.086     42.038  42.389907     3.2462      8.127   214.4127 2.6422e+02     2.6345      0.260      0.377    25.4220 0.0000e+00
      0.268      0.002     4.3048     51.985     42.047  42.396837     3.2503      8.128   214.6377 2.6625e+02     2.7629      0.264      0.382    25.4193 0.0000e+00
      0.269      0.002     4.2930     51.905     42.057  42.404901     3.2688      8.128   214.7685 2.6537e+02     2.8659      0.264      0.383    25.4170 0.0000e+00
      0.268      0.001     4.2792     51.841     42.077  42.423931     3.2861      8.128   214.7890 2.6106e+02     2.8887      0.263      0.381    25.4151 0.0000e+00
      0.267     -0.001     4.2709     51.782     42.092  42.436521     3.2764      8.129   214.8852 2.5907e+02     2.8332      0.262      0.379    25.4131 0.0000e+00
      0.267     -0.003     4.2619     51.747     42.088  42.430185     3.2518      8.129   215.0717 2.6329e+02     2.8102      0.262      0.379    25.4105 0.0000e+00
      0.267     -0.004     4.2556     51.755     42.071  42.410782     3.2472      8.129   215.1509 2.7047e+02     2.8504      0.263      0.382    25.4081 0.0000e+00
      0.266     -0.003     4.2518     51.788     42.055  42.392333     3.2615      8.129   215.2400 2.7728e+02     2.9091      0.262      0.380    25.4057 0.0000e+00
      0.263     -0.001     4.2457     51.798     42.062  42.397525     3.2669      8.130   215.4614 2.8475e+02     2.9047      0.258      0.374    25.4032 0.0000e+00
      0.262      0.000     4.2425     51.756     42.077  42.410095     3.2714      8.131   215.5909 2.9317e+02     2.8319      0.255      0.370    25.4004 0.0000e+00
      0.263      0.000     4.2437     51.679     42.086  42.417369     3.2909      8.131   215.6005 2.9915e+02     2.8140      0.257      0.372    25.3970 0.0000e+00
      0.266      0.001     4.2489     51.601     42.092  42.421989     3.3028      8.131   215.5776 2.9890e+02     2.8595      0.261      0.378    25.3942 0.0000e+00
      0.267      0.001     4.2507     51.526     42.074  42.402489     3.3145      8.132   215.5724 2.9327e+02     2.9375      0.263      0.381    25.3917 0.0000e+00
      0.267      0.000     4.2468     51.447     42.045  42.372004     3.3411      8.133   215.6243 2.8696e+02     2.9381      0.262      0.380    25.3895 0.0000e+00
      0.266     -0.001     4.2390     51.356     42.045  42.370745     3.3586      8.134   215.6024 2.8382e+02     2.8324      0.261      0.378    25.3877 0.0000e+00
      0.264     -0.001     4.2331     51.232     42.063  42.387270     3.3595      8.135   215.4795 2.8409e+02     2.7859      0.259      0.375    25.3860 0.0000e+00
      0.263     -0.001     4.2274     51.103     42.058  42.381391     3.3602      8.136   215.4294 2.8606e+02     2.8554      0.257      0.373    25.3845 0.0000e+00
      0.263      0.000     4.2204     51.003     42.041  42.363131     3.3592      8.138   215.5126 2.8968e+02     2.9548      0.258      0.374    25.3827 0.0000e+00
      0.264      0.002     4.2152     50.926     42.036  42.356887     3.3392      8.139   215.6254 2.9654e+02     2.9636      0.259      0.376    25.3809 0.0000e+00
      0.265      0.002     4.2035     50.849     42.050  42.369373     3.3089      8.140   215.7612 3.0292e+02     2.8925      0.260      0.377    25.3794 0.0000e+00
      0.266      0.002     4.1915     50.765     42.069  42.387156     3.2923      8.142   215.8638 3.0378e+02     2.8465      0.260      0.377    25.3778 0.0000e+00
      0.267      0.001     4.1843     50.736     42.064  42.381496     3.2969      8.143   215.8329 3.0356e+02     2.8170      0.262      0.381    25.3763 0.0000e+00
      0.268      0.001     4.1781     50.742     42.049  42.364400     3.3139      8.143   215.8178 3.0376e+02     2.7759      0.264      0.383    25.3749 0.0000e+00
      0.267      0.001     4.1740     50.687     42.056  42.370853     3.3239      8.144   215.8538 3.0087e+02     2.6905      0.263      0.380    25.3735 0.0000e+00
      0.265      0.002     4.1632     50.584     42.082  42.396046     3.3262      8.144   215.8376 2.9789e+02     2.5708      0.260      0.375    25.3721 0.0000e+00
      0.265      0.002     4.1606     50.454     42.102  42.415134     3.3331      8.145   215.7935 2.9727e+02     2.5234      0.259      0.375    25.3706 0.0000e+00
      0.267      0.002     4.1682     50.313     42.099  42.411229     3.3489      8.146   215.8375 2.9760e+02     2.5620      0.262      0.380    25.3691 0.0000e+00
      0.270      0.003     4.1598     50.238     42.100  42.412297     3.3758      8.147   215.9386 3.0039e+02     2.6271      0.265      0.385    25.3679 0.0000e+00
      0.271      0.003     4.1518     50.447     42.174  42.491512     3.3926      8.147   215.9842 3.0419e+02     2.6281      0.267      0.387    25.3668 0.0000e+00
      0.271      0.002     4.1422     52.157     42.273  42.607377     3.3776      8.147   216.0444 3.0499e+02     2.5745      0.266      0.386    25.3659 0.0000e+00
      0.270      0.001     4.1262     57.592     42.309  42.670782     3.3516      8.148   216.2358 3.0509e+02     2.5593      0.265      0.384    25.3653 0.0000e+00
      0.270      0.001     4.1198     66.948     42.303  42.686938     3.3522      8.151   216.4913 3.0883e+02     2.6147      0.265      0.384    25.3644 0.0000e+00
      0.270      0.002     4.1162     77.494     42.280  42.675816     3.3768      8.153   216.5531 3.1767e+02     2.6983      0.264      0.383    25.3641 0.0000e+00
      0.271      0.003     4.1552     86.863     42.263  42.663265     3.3922      8.153   216.4676 3.2345e+02     2.6821      0.265      0.385    25.3827 0.0000e+00
      0.272      0.003     4.5748     94.240     42.258  42.662133     3.3877      8.154   216.4888 3.1970e+02     2.6571      0.267      0.388    25.4244 0.0000e+00
      0.275      0.002     5.4662     99.422     42.256  42.662133     3.3731      8.155   216.5519 3.1312e+02     2.7385      0.270      0.391    25.4545 0.0000e+00
      0.276      0.000     6.3941    102.382     42.256  42.663269     3.3654      8.155   216.5420 3.0728e+02     2.8456      0.271      0.393    25.4636 0.0000e+00
      0.275     -0.001     7.1729    103.170     42.270  42.675866     3.3780      8.156   216.5414 3.0192e+02     2.9273      0.271      0.392    25.4680 0.0000e+00
      0.274     -0.003     7.7832    102.159     42.284  42.687511     3.4007      8.157   216.5440 2.9823e+02     2.8726      0.269      0.389    25.4722 0.0000e+00
      0.272     -0.004     8.2043    100.187     42.276  42.677116     3.4146      8.159   216.4870 2.9719e+02     2.6969      0.266      0.386    25.4751 0.0000e+00
      0.270     -0.004     8.4497     98.184     42.277  42.677117     3.4127      8.161   216.5405 2.9879e+02     2.5793      0.265      0.384    25.4757 0.0000e+00
      0.270     -0.003     8.5046     96.632     42.287  42.687523     3.4116      8.163   216.6753 3.0148e+02     2.5768      0.265      0.384    25.4743 0.0000e+00
      0.269     -0.003     8.3966     95.558     42.275  42.675992     3.4266      8.164   216.6550 3.0873e+02     2.6332      0.264      0.383    25.4706 0.0000e+00
      0.268     -0.004     8.2027     94.839     42.264  42.664642     3.4350      8.164   216.5532 3.1916e+02     2.6468      0.263      0.381    25.4676 0.0000e+00
      0.268     -0.006     8.0266     94.341     42.276  42.677230     3.4220      8.164   216.4763 3.2060e+02     2.6047      0.262      0.380    25.4675 0.0000e+00
      0.268     -0.008     7.9015     93.968     42.299  42.701255     3.4109      8.165   216.4139 3.1367e+02     2.5685      0.264      0.383    25.4673 0.0000e+00
      0.266     -0.009     7.8174     93.672     42.298  42.701246     3.4094      8.167   216.4005 3.0980e+02     2.5848      0.263      0.382    25.4673 0.0000e+00
      0.261     -0.008     7.7626     93.432     42.275  42.677125     3.4031      8.167   216.4863 3.1050e+02     2.6310      0.257      0.372    25.4680 0.0000e+00
      0.256     -0.007     7.7244     93.232     42.262  42.663495     3.3850      8.167   216.5917 3.1380e+02     2.6142      0.249      0.361    25.4686 0.0000e+00
      0.253     -0.006     7.6948     93.071     42.262  42.663376     3.3651      8.168   216.6417 3.1910e+02     2.5525      0.246      0.357    25.4702 0.0000e+00
      0.254     -0.003     7.6709     92.961     42.274  42.675681     3.3880      8.169   216.6605 3.2282e+02     2.5345      0.248      0.360    25.4712 0.0000e+00
      0.256      0.001     7.6516     92.906     42.285  42.685338     3.4534      8.170   216.6472 3.2237e+02     2.6007      0.252      0.366    25.4700 0.0000e+00
      0.257      0.003     7.6363     92.894     42.255  42.653197     3.4982      8.170   216.5669 3.1818e+02     2.6697      0.253      0.367    25.4681 0.0000e+00
      0.257      0.003     7.6217     92.896     42.208  42.604413     3.5127      8.170   216.4640 3.1079e+02     2.6174      0.252      0.366    25.4684 0.0000e+00
      0.258      0.003     7.6129     92.894     42.210  42.603253     3.5123      8.170   216.5213 3.0334e+02     2.5497      0.253      0.367    25.4701 0.0000e+00
      0.258      0.003     7.6087     92.904     42.250  42.639173     3.4946      8.170   216.6573 2.9943e+02     2.6022      0.253      0.367    25.4688 0.0000e+00
      0.258      0.005     7.6091     92.944     42.276  42.657892     3.4893      8.169   216.8179 2.9686e+02     2.7402      0.253      0.367    25.4653 0.0000e+00
      0.259      0.009     7.6108     93.009     42.266  42.639154     3.5067      8.168   217.0865 2.9321e+02     2.8857      0.253      0.367    25.4632 0.0000e+00
      0.261      0.012     7.6098     93.058     42.237  42.603012     3.5129      8.167   217.3237 2.9071e+02     2.9257      0.255      0.369    25.4609 0.0000e+00
      0.266      0.012     7.6109     93.036     42.239  42.601713     3.4901      8.167   217.4488 2.8997e+02     2.8835      0.259      0.375    25.4556 0.0000e+00
      0.273      0.011     7.6151     92.938     42.260  42.623445     3.4556      8.167   217.3945 2.9036e+02     2.8532      0.268      0.388    25.4462 0.0000e+00
      0.278      0.009     7.6238     92.816     42.249  42.611891     3.4451      8.167   217.3553 2.9146e+02     2.8665      0.275      0.397    25.4340 0.0000e+00
      0.279      0.006     7.6310     92.750     42.226  42.588952     3.4553      8.166   217.4918 2.8893e+02     2.9421      0.275      0.398    25.4256 0.0000e+00
      0.277      0.003     7.6296     92.760     42.236  42.599979     3.4626      8.165   217.5823 2.8153e+02     2.9471      0.271      0.394    25.4228 0.0000e+00
      0.274      0.001     7.6201     92.785     42.255  42.618279     3.4660      8.166   217.6744 2.7601e+02     2.8593      0.268      0.390    25.4230 0.0000e+00
      0.274      0.000     7.6069     92.823     42.259  42.619801     3.4710      8.167   217.7457 2.7765e+02     2.8363      0.267      0.388    25.4235 0.0000e+00
      0.276      0.001     7.6000     92.885     42.260  42.618379     3.4738      8.166   217.6697 2.8333e+02     2.9093      0.270      0.392    25.4246 0.0000e+00
      0.278      0.002     7.6049     92.929     42.245  42.601074     3.4660      8.166   217.6162 2.8789e+02     2.9214      0.273      0.396    25.4256 0.0000e+00
      0.279      0.002     7.6064     92.965     42.246  42.600986     3.4441      8.167   217.7002 2.9083e+02     2.7777      0.274      0.397    25.4240 0.0000e+00
      0.278      0.001     7.6079     93.014     42.262  42.617307     3.4166      8.168   217.9123 2.9245e+02     2.6411      0.273      0.396    25.4212 0.0000e+00
      0.277     -0.001     7.6173     93.059     42.252  42.608007     3.4082      8.168   218.1148 2.9181e+02     2.5680      0.272      0.394    25.4174 0.0000e+00
      0.277     -0.002     7.6198     93.116     42.260  42.615480     3.4262      8.167   218.1693 2.8966e+02     2.5424      0.272      0.394    25.4139 0.0000e+00
      0.277     -0.002     7.6215     93.183     42.290  42.644190     3.4507      8.166   218.1420 2.8741e+02     2.6054      0.272      0.394    25.4132 0.0000e+00
      0.276     -0.001     7.6275     93.233     42.285  42.637782     3.4552      8.166   218.1285 2.8459e+02     2.6454      0.271      0.393    25.4149 0.0000e+00
      0.276      0.000     7.6291     93.268     42.248  42.601470     3.4387      8.167   218.1778 2.8019e+02     2.6168      0.270      0.392    25.4161 0.0000e+00
      0.276 -4.299e-07     7.6341     93.313     42.230  42.585966     3.4253      8.168   218.3087 2.7675e+02     2.6011      0.270      0.392    25.4149 0.0000e+00
      0.276      0.000     7.6417     93.359     42.220  42.577270     3.4268      8.168   218.5065 2.7745e+02     2.6261      0.271      0.393    25.4122 0.0000e+00
      0.277      0.000     7.6454     93.363     42.204  42.559794     3.4407      8.169   218.6765 2.8051e+02     2.6797      0.272      0.394    25.4102 0.0000e+00
      0.277     -0.001     7.6474     93.314     42.212  42.565076     3.4512      8.169   218.6426 2.8202e+02     2.7032      0.271      0.394    25.4121 0.0000e+00
      0.276     -0.001     7.6499     93.223     42.227  42.577664     3.4458      8.169   218.5266 2.8218e+02     2.6709      0.270      0.392    25.4161 0.0000e+00
      0.275     -0.001     7.6563     93.117     42.237  42.585051     3.4498      8.170   218.5650 2.8228e+02     2.6305      0.270      0.391    25.4175 0.0000e+00
      0.275     -0.001     7.6565     93.041     42.246  42.590921     3.4749      8.170   218.5911 2.8070e+02     2.6249      0.269      0.391    25.4157 0.0000e+00
      0.275      0.000     7.6526     93.009     42.242  42.585165     3.4920      8.170   218.5836 2.7712e+02     2.6714      0.269      0.390    25.4123 0.0000e+00
      0.275     -0.000     7.6454     93.019     42.236  42.578924     3.4980      8.170   218.6467 2.7573e+02     2.6799      0.269      0.391    25.4087 0.0000e+00
      0.276      0.000     7.6348     93.054     42.236  42.578923     3.4977      8.170   218.6658 2.7747e+02     2.6257      0.270      0.392    25.4051 0.0000e+00
      0.276     -0.001     7.6294     93.090     42.242  42.585156     3.4878      8.170   218.7286 2.7809e+02     2.5967      0.271      0.393    25.4019 0.0000e+00
      0.276     -0.002     7.6266     93.139     42.248  42.590817     3.4793      8.170   218.8034 2.7754e+02     2.6028      0.271      0.393    25.3998 0.0000e+00
      0.275     -0.003     7.6282     93.206     42.242  42.583907     3.4773      8.171   218.7961 2.7829e+02     2.6306      0.271      0.393    25.3992 0.0000e+00
      0.274     -0.003     7.6322     93.253     42.223  42.565075     3.4804      8.171   218.8978 2.8299e+02     2.6259      0.269      0.391    25.3996 0.0000e+00
      0.272     -0.002     7.6346     93.255     42.211  42.553525     3.4759      8.171   219.0878 2.9022e+02     2.5804      0.267      0.386    25.4000 0.0000e+00
      0.270      0.000     7.6375     93.249     42.229  42.571193     3.4719      8.171   219.2867 2.9253e+02     2.5922      0.265      0.384    25.4002 0.0000e+00
      0.270      0.004     7.6451     93.257     42.247  42.588291     3.4826      8.170   219.4952 2.9093e+02     2.6663      0.264      0.384    25.3992 0.0000e+00
      0.271      0.007     7.6504     93.255     42.232  42.569842     3.4974      8.169   219.6300 2.9313e+02     2.7943      0.264      0.383    25.3983 0.0000e+00
      0.275      0.008     7.6483     93.237     42.204  42.538535     3.5008      8.169   219.7111 2.9713e+02     2.9097      0.268      0.389    25.3993 0.0000e+00
      0.281      0.007     7.6469     93.235     42.194  42.527115     3.4894      8.169   219.7884 2.9715e+02     2.8996      0.278      0.403    25.3996 0.0000e+00
      0.286      0.005     7.6495     93.255     42.225  42.558693     3.4938      8.170   219.8760 2.9287e+02     2.8430      0.283      0.411    25.3971 0.0000e+00
      0.286      0.003     7.6503     93.265     42.267  42.602990     3.5283      8.171   219.9107 2.8530e+02     2.8402      0.280      0.408    25.3930 0.0000e+00
      0.281      0.000     7.6476     93.254     42.282  42.618415     3.5649      8.171   219.8641 2.7769e+02     2.9000      0.275      0.399    25.3894 0.0000e+00
      0.279     -0.002     7.6472     93.254     42.281  42.618255     3.5700      8.171   219.8283 2.7517e+02     2.9175      0.272      0.394    25.3879 0.0000e+00
      0.279     -0.003     7.6505     93.285     42.262  42.601060     3.5487      8.172   219.9075 2.7823e+02     2.8464      0.272      0.396    25.3889 0.0000e+00
      0.281     -0.003     7.6516     93.320     42.260  42.600929     3.5412      8.172   220.0475 2.8433e+02     2.7924      0.275      0.401    25.3903 0.0000e+00
      0.281     -0.002     7.6489     93.319     42.274  42.616666     3.5532      8.172   220.1436 2.9168e+02     2.8102      0.276      0.401    25.3909 0.0000e+00
      0.279     -0.002     7.6480     93.278     42.258  42.600929     3.5614      8.173   220.2096 2.9665e+02     2.8915      0.274      0.398    25.3924 0.0000e+00
      0.277     -0.003     7.6512     93.220     42.258  42.601073     3.5647      8.173   220.2429 2.9673e+02     2.9215      0.272      0.395    25.3953 0.0000e+00
      0.276     -0.003     7.6554     93.168     42.273  42.618398     3.5607      8.172   220.2884 2.9694e+02     2.8654      0.270      0.392    25.3982 0.0000e+00
      0.276     -0.003     7.6549     93.139     42.273  42.619997     3.5212      8.172   220.3304 3.0147e+02     2.7934      0.270      0.392    25.3997 0.0000e+00
      0.276     -0.002     7.6507     93.141     42.271  42.620411     3.4619      8.171   220.4060 3.0627e+02     2.7347      0.271      0.394    25.4001 0.0000e+00
      0.276     -0.001     7.6451     93.167     42.271  42.623413     3.4427      8.170   220.5995 3.0662e+02     2.7361      0.270      0.393    25.4000 0.0000e+00
      0.275     -0.000     7.6405     93.197     42.296  42.656293     3.4554      8.171   220.7770 3.0548e+02     2.7076      0.269      0.391    25.4010 0.0000e+00
      0.275      0.001     7.6371     93.211     42.326  42.700616     3.4408      8.172   220.8311 3.0918e+02     2.6631      0.269      0.390    25.4034 0.0000e+00
      0.275      0.001     7.6372     93.211     42.325  42.715047     3.3989      8.172   220.8237 3.1646e+02     2.7111      0.270      0.391    25.4066 0.0000e+00
      0.276      0.002     7.6395     93.207     42.300  42.703861     3.3735      8.171   220.8598 3.2316e+02     2.8092      0.271      0.393    25.4101 0.0000e+00
      0.277      0.002     7.6417     93.215     42.282  42.692323     3.3752      8.171   220.9238 3.3060e+02     2.9271      0.272      0.394    25.4174 0.0000e+00
      0.278      0.001     7.6405     93.217     42.292  42.702497     3.3938      8.171   220.9948 3.3908e+02     2.9751      0.273      0.396    25.4338 0.0000e+00
      0.278      0.001     7.6369     93.152     42.292  42.699938     3.4161      8.173   221.1165 3.4828e+02     2.9117      0.273      0.396    25.4554 0.0000e+00
      0.277      0.000     7.6338     93.042     42.257  42.661375     3.4283      8.175   221.1900 3.6097e+02     2.8438      0.272      0.395    25.4746 0.0000e+00
      0.277 3.7255e-08     7.6323     92.968     42.220  42.617051     3.4331      8.175   221.1097 3.7750e+02     2.8709      0.271      0.393    25.4836 0.0000e+00
      0.277 4.0981e-07     7.6368     92.922     42.220  42.608315     3.4402      8.174   221.0067 4.0135e+02     2.9317      0.272      0.395    25.4809 0.0000e+00
      0.277      0.000     7.6315     92.875     42.239  42.619203     3.4480      8.174   221.0624 4.4062e+02     2.8957      0.271      0.394    25.4761 0.0000e+00
      0.277      0.000     7.6180     92.841     42.248  42.621740     3.4442      8.174   221.1813 4.9422e+02     2.8113      0.272      0.395    25.4728 0.0000e+00
      0.277      0.001     7.6150     92.847     42.268  42.638982     3.4357      8.175   221.1543 5.5595e+02     2.7660      0.272      0.394    25.4654 0.0000e+00
      0.277      0.001     7.6140     92.917     42.268  42.637262     3.4365      8.175   220.9932 5.8104e+02     2.7580      0.271      0.393    25.4535 0.0000e+00
      0.278      0.001     7.6104     93.041     42.234  42.600935     3.4713      8.174   220.9538 5.6722e+02     2.8172      0.272      0.395    25.4438 0.0000e+00
      0.278      0.001     7.6082     93.186     42.216  42.580583     3.5319      8.174   221.1087 5.8179e+02     2.8669      0.272      0.395    25.4362 0.0000e+00
      0.279      0.001     7.6082     93.318     42.217  42.581584     3.5621      8.175   221.2313 6.4308e+02     2.8127      0.274      0.396    25.4321 0.0000e+00
      0.279      0.001     7.6143     93.410     42.245  42.613042     3.5615      8.176   221.2309 7.0804e+02     2.7767      0.274      0.397    25.4318 0.0000e+00
      0.279      0.001     7.6264     93.438     42.270  42.643593     3.5573      8.177   221.1901 7.3503e+02     2.7718      0.274      0.398    25.4287 0.0000e+00
      0.279      0.001     7.6394     93.399     42.259  42.633629     3.5610      8.177   221.1681 7.4457e+02     2.7198      0.273      0.397    25.4247 0.0000e+00
      0.279      0.001     7.6512     93.327     42.249  42.619508     3.5730      8.177   221.2241 7.3720e+02     2.6608      0.274      0.396    25.4244 0.0000e+00
      0.280      0.000     7.6589     93.277     42.236  42.599796     3.5700      8.178   221.2637 7.2318e+02     2.6042      0.274      0.398    25.4294 0.0000e+00
      0.280 1.0602e-13     7.6602     93.259     42.231  42.585690     3.5406      8.178   221.2174 7.3193e+02     2.5818      0.275      0.399    25.4370 0.0000e+00
      0.280 1.1662e-12     7.6561     93.216     42.231  42.575873     3.5090      8.178   221.1802 7.5771e+02     2.6290      0.275      0.398    25.4386 0.0000e+00
      0.280 1.2828e-11     7.6482     93.113     42.208  42.544563     3.5045      8.179   221.1578 7.7787e+02     2.6972      0.275      0.398    25.4341 0.0000e+00
      0.280 1.4111e-10     7.6454     93.011     42.197  42.524459     3.5112      8.180   221.2917 7.7602e+02     2.6896      0.275      0.398    25.4248 0.0000e+00
      0.280 1.5522e-09     7.6473     92.957     42.202  42.523201     3.5068      8.182   221.4217 7.7799e+02     2.6051      0.274      0.398    25.4125 0.0000e+00
      0.280 1.7074e-08     7.6479     92.941     42.214  42.529340     3.5011      8.182   221.3532 7.6797e+02     2.5636      0.275      0.399    25.4022 0.0000e+00
      0.281 1.8782e-07     7.6373     92.976     42.225  42.535200     3.5002      8.183   221.3244 7.3079e+02     2.5971      0.276      0.400    25.3924 0.0000e+00
      0.281 1.8782e-07     7.6284     93.048     42.226  42.530578     3.5038      8.186   221.4177 7.0928e+02     2.6696      0.276      0.400    25.3814 0.0000e+00
      0.281 1.7074e-08     7.6277     93.124     42.237  42.536927     3.5034      8.187   221.5347 7.5026e+02     2.6890      0.275      0.399    25.3729 0.0000e+00
      0.280 1.5522e-09     7.6248     93.181     42.252  42.548477     3.4877      8.187   221.5337 8.2878e+02     2.6264      0.275      0.398    25.3671 0.0000e+00
      0.280 1.4111e-10     7.6297     93.147     42.250  42.543284     3.4719      8.188   221.4921 8.6584e+02     2.5955      0.275      0.399    25.3617 0.0000e+00
      0.280 1.2828e-11     7.6380     93.025     42.246  42.537605     3.4709      8.188   221.5477 8.4531e+02     2.6225      0.275      0.399    25.3550 0.0000e+00
      0.281 1.1662e-12     7.6444     92.952     42.253  42.543284     3.4744      8.189   221.6039 7.9845e+02     2.6464      0.276      0.400    25.3486 0.0000e+00
      0.281 1.0604e-13     7.6529     92.960     42.261  42.548478     3.4899      8.190   221.5700 7.8106e+02     2.6448      0.275      0.399    25.3445 0.0000e+00
      0.281 9.8118e-15     7.6524     92.991     42.251  42.536928     3.5174      8.190   221.5677 7.8594e+02     2.6377      0.275      0.399    25.3413 0.0000e+00
      0.281 2.7881e-15     7.6347     93.050     42.246  42.530582     3.5229      8.190   221.6621 7.6764e+02     2.6281      0.275      0.399    25.3393 0.0000e+00
      0.280 2.1111e-14     7.6288     93.115     42.252  42.535214     3.5153      8.191   221.7654 8.0738e+02     2.6307      0.275      0.399    25.3378 0.0000e+00
      0.280 2.3135e-13     7.6342     93.155     42.247  42.529458     3.5163      8.193   221.8697 9.3636e+02     2.6694      0.275      0.398    25.3351 0.0000e+00
      0.280 2.5448e-12     7.6341     93.146     42.242  42.524455     3.5103      8.195   221.8905 1.0166e+03     2.6866      0.275      0.398    25.3327 0.0000e+00
      0.280 2.7992e-11     7.6412     93.074     42.257  42.538187     3.4931      8.195   221.8445 9.8140e+02     2.6337      0.275      0.399    25.3307 0.0000e+00
      0.280 3.0792e-10     7.6478     92.988     42.288  42.568549     3.4840      8.195   221.9165 9.2581e+02     2.5765      0.275      0.399    25.3291 0.0000e+00
      0.280 3.3871e-09     7.6509     92.908     42.295  42.574211     3.5075      8.195   222.0725 8.7101e+02     2.6097      0.275      0.399    25.3286 0.0000e+00
      0.280 3.7258e-08     7.6526     92.811     42.265  42.543171     3.5520      8.196   222.1819 7.9884e+02     2.6934      0.275      0.399    25.3276 0.0000e+00
      0.280 4.0984e-07     7.6437     92.738     42.233  42.510606     3.5740      8.198   222.2920 7.9001e+02     2.7004      0.275      0.399    25.3263 0.0000e+00
      0.281      0.000     7.6356     92.733     42.221  42.497807     3.5648      8.198   222.3718 8.2352e+02     2.6267      0.275      0.399    25.3252 0.0000e+00
      0.281      0.000     7.6323     92.777     42.238  42.515362     3.5313      8.198   222.2865 8.5051e+02     2.5870      0.276      0.400    25.3241 0.0000e+00
      0.280      0.001     7.6219     92.851     42.255  42.532449     3.4943      8.199   222.1217 8.7656e+02     2.6306      0.275      0.399    25.3228 0.0000e+00
      0.280      0.001     7.6138     92.933     42.236  42.513998     3.4918      8.200   222.0142 8.7932e+02     2.6753      0.275      0.398    25.3218 0.0000e+00
      0.281      0.001     7.6158     93.008     42.204  42.482689     3.5096      8.201   222.0183 8.8665e+02     2.6502      0.276      0.400    25.3215 0.0000e+00
      0.281      0.001     7.6187     93.056     42.193  42.471245     3.5099      8.202   222.0858 9.3635e+02     2.6001      0.276      0.400    25.3220 0.0000e+00
      0.282      0.002     7.6261     93.063     42.225  42.502562     3.4950      8.203   222.1421 9.6134e+02     2.5823      0.277      0.401    25.3224 0.0000e+00
      0.282      0.002     7.6330     93.057     42.266  42.543987     3.4884      8.203   222.2676 8.9103e+02     2.6054      0.277      0.402    25.3230 0.0000e+00
      0.283      0.002     7.6389     93.053     42.250  42.527825     3.4964      8.203   222.3988 8.1371e+02     2.6748      0.277      0.402    25.3237 0.0000e+00
      0.283      0.001     7.6449     93.057     42.220  42.497566     3.4997      8.204   222.4381 8.2510e+02     2.7040      0.278      0.403    25.3237 0.0000e+00
      0.284      0.001     7.6429     93.048     42.218  42.495478     3.4792      8.205   222.3992 8.7955e+02     2.6510      0.279      0.404    25.3229 0.0000e+00
      0.284      0.000     7.6433     93.026     42.225  42.502573     3.4478      8.206   222.2730 9.5068e+02     2.6144      0.278      0.404    25.3225 0.0000e+00
      0.284      0.000     7.6419     93.000     42.241  42.519878     3.4278      8.207   222.2015 1.0087e+03     2.6374      0.279      0.404    25.3227 0.0000e+00
      0.284      0.000     7.6433     92.933     42.236  42.514310     3.4365      8.208   222.2230 9.5902e+02     2.6899      0.279      0.404    25.3228 0.0000e+00
      0.283     -0.001     7.6433     92.831     42.220  42.498722     3.4536      8.209   222.2753 8.7298e+02     2.7022      0.278      0.403    25.3225 0.0000e+00
      0.283     -0.001     7.6390     92.728     42.243  42.521811     3.4431      8.209   222.4033 8.5500e+02     2.6487      0.278      0.403    25.3225 0.0000e+00
      0.283     -0.001     7.6406     92.653     42.260  42.539593     3.4263      8.209   222.4805 8.8804e+02     2.5902      0.278      0.403    25.3226 0.0000e+00
      0.283      0.000     7.6336     92.612     42.244  42.523321     3.4166      8.210   222.4346 9.4799e+02     2.5765      0.278      0.403    25.3230 0.0000e+00
      0.283 -5.587e-08     7.6240     92.592     42.236  42.515475     3.4099      8.212   222.4503 9.6564e+02     2.6185      0.278      0.403    25.3239 0.0000e+00
      0.283 -6.145e-07     7.6150     92.620     42.229  42.508202     3.4038      8.213   222.4981 9.6520e+02     2.6546      0.278      0.403    25.3245 0.0000e+00
      0.283      0.000     7.6075     92.700     42.220  42.498848     3.3918      8.213   222.4966 9.7890e+02     2.6374      0.278      0.403    25.3253 0.0000e+00
      0.283      0.000     7.6065     92.775     42.250  42.529314     3.3817      8.214   222.6042 9.9954e+02     2.6152      0.278      0.403    25.3254 0.0000e+00
      0.283     -0.001     7.6025     92.803     42.279  42.559217     3.3816      8.214   222.7673 1.0123e+03     2.6592      0.277      0.402    25.3249 0.0000e+00
      0.283     -0.001     7.6045     92.808     42.262  42.543057     3.3901      8.215   222.7483 9.3226e+02     2.7255      0.277      0.402    25.3242 0.0000e+00
      0.283     -0.001     7.6139     92.824     42.243  42.524329     3.3936      8.216   222.6317 8.7472e+02     2.6999      0.277      0.402    25.3238 0.0000e+00
      0.282     -0.001     7.6215     92.861     42.242  42.523194     3.3831      8.216   222.6486 8.8029e+02     2.6233      0.277      0.402    25.3243 0.0000e+00
      0.282     -0.001     7.6225     92.917     42.248  42.529334     3.3531      8.216   222.6945 8.6800e+02     2.5848      0.277      0.401    25.3253 0.0000e+00
      0.282     -0.001     7.6211     92.960     42.253  42.535090     3.3228      8.216   222.6705 9.5649e+02     2.6100      0.277      0.402    25.3265 0.0000e+00
      0.282      0.000     7.6230     92.970     42.247  42.529323     3.3250      8.216   222.7016 1.0511e+03     2.6543      0.276      0.401    25.3266 0.0000e+00
      0.282 -1.894e-08     7.6251     92.985     42.239  42.523080     3.3380      8.217   222.8132 9.6706e+02     2.6418      0.277      0.401    25.3265 0.0000e+00
      0.281 -2.083e-07     7.6310     93.011     42.238  42.523080     3.3299      8.218   222.9010 9.0309e+02     2.5961      0.276      0.400    25.3269 0.0000e+00
      0.281 -2.422e-07     7.6360     93.021     42.243  42.529323     3.3019      8.219   222.9032 1.0324e+03     2.5798      0.276      0.400    25.3279 0.0000e+00
      0.282 -4.284e-07     7.6341     93.019     42.247  42.535099     3.2743      8.218   222.9257 1.1443e+03     2.6158      0.277      0.401    25.3286 0.0000e+00
      0.282     -0.000     7.6351     93.034     42.241  42.529447     3.2698      8.218   223.0004 1.0527e+03     2.6557      0.278      0.403    25.3296 0.0000e+00
      0.282     -0.000     7.6387     93.075     42.235  42.524453     3.2815      8.218   223.0320 9.4395e+02     2.6522      0.277      0.402    25.3319 0.0000e+00
      0.281     -0.001     7.6391     93.094     42.247  42.538196     3.2667      8.219   223.0496 9.3357e+02     2.6420      0.276      0.400    25.3332 0.0000e+00
      0.281     -0.001     7.6377     93.054     42.275  42.568672     3.2156      8.219   223.1271 9.2757e+02     2.6349      0.276      0.400    25.3338 0.0000e+00
      0.281     -0.001     7.6376     92.982     42.279  42.575583     3.1873      8.219   223.2802 9.2883e+02     2.6346      0.276      0.400    25.3351 0.0000e+00
      0.281     -0.001     7.6433     92.917     42.259  42.558297     3.1999      8.219   223.4384 9.8770e+02     2.6719      0.276      0.400    25.3369 0.0000e+00
      0.281     -0.000     7.6461     92.880     42.247  42.550079     3.2102      8.219   223.4921 1.0407e+03     2.6755      0.276      0.400    25.3384 0.0000e+00
      0.281 -4.283e-07     7.6409     92.899     42.234  42.539694     3.2032      8.218   223.5852 1.0022e+03     2.6105      0.276      0.401    25.3404 0.0000e+00
      0.281      0.000     7.6335     92.972     42.250  42.559687     3.1977      8.218   223.7897 9.1110e+02     2.5697      0.275      0.400    25.3434 0.0000e+00
      0.281      0.000     7.6273     93.052     42.287  42.601397     3.1943      8.219   223.8990 8.5498e+02     2.5916      0.275      0.399    25.3477 0.0000e+00
      0.281     -0.001     7.6227     93.137     42.277  42.599726     3.1703      8.220   223.8746 9.0864e+02     2.6699      0.276      0.400    25.3523 0.0000e+00
      0.280     -0.001     7.6228     93.240     42.270  42.602967     3.1236      8.220   223.8391 9.7320e+02     2.6973      0.275      0.399    25.3554 0.0000e+00
      0.280     -0.001     7.6314     93.335     42.298  42.640598     3.0876      8.219   223.8999 9.5828e+02     2.6157      0.275      0.399    25.3591 0.0000e+00
      0.280     -0.001     7.6368     93.415     42.321  42.673916     3.0767      8.217   224.0935 9.4068e+02     2.5714      0.275      0.399    25.3651 0.0000e+00
      0.280     -0.001     7.6407     93.468     42.323  42.688474     3.0916      8.217   224.2874 9.3955e+02     2.6059      0.275      0.398    25.3749 0.0000e+00
      0.280     -0.000     7.6498     93.490     42.310  42.689692     3.1256      8.217   224.3505 9.8374e+02     2.6560      0.274      0.398    25.3876 0.0000e+00
      0.280      0.000     7.6553     93.510     42.296  42.688667     3.1469      8.217   224.3400 1.0469e+03     2.6653      0.274      0.398    25.3979 0.0000e+00
      0.280      0.000     7.6607     93.507     42.275  42.676098     3.1488      8.218   224.3335 1.0773e+03     2.6159      0.275      0.398    25.4089 0.0000e+00
      0.280      0.001     7.6641     93.446     42.259  42.664673     3.1406      8.219   224.3572 1.0609e+03     2.5719      0.274      0.397    25.4256 0.0000e+00
      0.280      0.002     7.6605     93.342     42.272  42.677471     3.1391      8.219   224.3682 1.0339e+03     2.6105      0.274      0.398    25.4438 0.0000e+00
      0.280      0.002     7.6615     93.231     42.298  42.703898     3.1556      8.219   224.4670 1.0756e+03     2.7072      0.274      0.398    25.4594 0.0000e+00
      0.281      0.002     7.6614     93.130     42.323  42.730326     3.1743      8.220   224.6914 1.0621e+03     2.7166      0.276      0.400    25.4708 0.0000e+00
      0.282      0.002     7.6546     93.035     42.333  42.743124     3.1728      8.221   224.7580 9.6561e+02     2.6561      0.277      0.402    25.4753 0.0000e+00
      0.282      0.001     7.6453     92.962     42.318  42.731697     3.1553      8.221   224.6703 8.9023e+02     2.6583      0.277      0.402    25.4737 0.0000e+00
      0.282      0.001     7.6354     92.920     42.302  42.719107     3.1458      8.221   224.6637 8.4016e+02     2.7772      0.277      0.402    25.4725 0.0000e+00
      0.282      0.000     7.6280     92.907     42.300  42.717849     3.1489      8.221   224.7640 8.3924e+02     2.9327      0.277      0.402    25.4743 0.0000e+00
      0.282 4.2847e-07     7.6184     92.923     42.301  42.716484     3.1595      8.222   224.8500 8.5769e+02     2.9333      0.277      0.401    25.4781 0.0000e+00
      0.282      0.000     7.6118     92.968     42.292  42.702612     3.1576      8.223   224.8445 8.6611e+02     2.7846      0.277      0.402    25.4829 0.0000e+00
      0.282      0.000     7.6080     93.034     42.272  42.677052     3.1423      8.223   224.8687 8.7914e+02     2.6378      0.277      0.402    25.4867 0.0000e+00
      0.282      0.001     7.6064     93.114     42.263  42.661317     3.1413      8.224   224.9709 8.7483e+02     2.5929      0.277      0.402    25.4882 0.0000e+00
      0.282      0.001     7.6085     93.199     42.247  42.639291     3.1534      8.225   225.0475 8.9209e+02     2.6169      0.277      0.401    25.4854 0.0000e+00
      0.283      0.001     7.6129     93.272     42.215  42.601138     3.1724      8.226   225.0207 9.7275e+02     2.5865      0.277      0.402    25.4810 0.0000e+00
      0.283      0.001     7.6194     93.321     42.200  42.580824     3.1879      8.226   224.9908 9.9586e+02     2.5334      0.278      0.403    25.4746 0.0000e+00
      0.283      0.002     7.6274     93.331     42.210  42.584086     3.1834      8.226   225.1157 9.1597e+02     2.5207      0.279      0.404    25.4654 0.0000e+00
      0.283      0.003     7.6360     93.302     42.210  42.577097     3.1760      8.227   225.1544 8.7473e+02     2.5347      0.278      0.403    25.4573 0.0000e+00
      0.284      0.004     7.6433     93.279     42.199  42.559777     3.2070      8.227   225.0292 8.6883e+02     2.6012      0.278      0.403    25.4514 0.0000e+00
      0.286      0.006     7.6483     93.294     42.209  42.565074     3.2578      8.228   224.9773 8.4111e+02     2.6414      0.280      0.406    25.4456 0.0000e+00
      0.288      0.008     7.6511     93.318     42.225  42.577663     3.2664      8.229   225.0440 8.1688e+02     2.5767      0.282      0.409    25.4372 0.0000e+00
      0.290      0.010     7.6481     93.308     42.235  42.585052     3.2525      8.230   225.1476 7.9438e+02     2.5364      0.285      0.413    25.4273 0.0000e+00
      0.293      0.010     7.6456     93.271     42.240  42.590937     3.2479      8.231   225.2832 7.7378e+02     2.5981      0.287      0.416    25.4201 0.0000e+00
      0.296      0.009     7.6491     93.237     42.235  42.585348     3.2359      8.231   225.4790 7.5134e+02     2.6738      0.290      0.420    25.4157 0.0000e+00
      0.300      0.007     7.6533     93.185     42.232  42.580941     3.2231      8.231   225.5359 7.4964e+02     2.6653      0.295      0.427    25.4107 0.0000e+00
      0.302      0.005     7.6528     93.112     42.252  42.601126     3.2102      8.232   225.5416 7.8491e+02     2.5979      0.298      0.432    25.4077 0.0000e+00
      0.302      0.003     7.6472     93.080     42.291  42.638985     3.1884      8.233   225.6339 7.9648e+02     2.5756      0.298      0.432    25.4088 0.0000e+00
      0.301      0.001     7.6464     93.095     42.311  42.657866     3.1844      8.233   225.7053 7.5488e+02     2.6351      0.295      0.428    25.4087 0.0000e+00
      0.300      0.000     7.6430     93.108     42.294  42.639006     3.2112      8.234   225.8025 7.1884e+02     2.7034      0.293      0.424    25.4078 0.0000e+00
      0.300 -3.695e-08     7.6337     93.127     42.259  42.601356     3.2287      8.235   225.8623 7.2964e+02     2.6837      0.293      0.425    25.4069 0.0000e+00
      0.301 -4.064e-07     7.6310     93.186     42.244  42.583461     3.2142      8.236   225.9127 7.7987e+02     2.6013      0.295      0.428    25.4059 0.0000e+00
      0.301      0.000     7.6354     93.271     42.272  42.613046     3.1941      8.237   225.9817 8.0147e+02     2.5617      0.296      0.430    25.4051 0.0000e+00
      0.301      0.000     7.6361     93.358     42.295  42.641726     3.1846      8.236   225.9215 7.4872e+02     2.6150      0.296      0.429    25.4017 0.0000e+00
      0.301     -0.001     7.6363     93.422     42.258  42.612874     3.1906      8.236   225.8737 7.0463e+02     2.6990      0.295      0.428    25.3981 0.0000e+00
      0.300     -0.001     7.6427     93.406     42.219  42.581569     3.2081      8.237   226.0057 7.0630e+02     2.6894      0.294      0.427    25.3948 0.0000e+00
      0.299      0.000     7.6504     93.310     42.212  42.580581     3.2058      8.238   226.0542 6.9683e+02     2.6019      0.293      0.425    25.3950 0.0000e+00
      0.299 -1.844e-08     7.6564     93.228     42.229  42.600937     3.1883      8.239   225.9449 6.8189e+02     2.5633      0.294      0.426    25.4033 0.0000e+00
      0.300 -2.029e-07     7.6625     93.205     42.264  42.637279     3.1872      8.240   225.8887 6.9817e+02     2.5974      0.295      0.427    25.4146 0.0000e+00
      0.301 -1.995e-07     7.6610     93.191     42.264  42.639174     3.2088      8.241   225.8053 7.3167e+02     2.6727      0.296      0.429    25.4249 0.0000e+00
      0.301 2.2136e-08     7.6473     93.175     42.248  42.623856     3.2252      8.242   225.7108 7.4363e+02     2.6886      0.296      0.429    25.4313 0.0000e+00
      0.300 4.4505e-07     7.6384     93.195     42.266  42.642482     3.2109      8.242   225.7783 7.1979e+02     2.6178      0.294      0.426    25.4342 0.0000e+00
      0.299      0.000     7.6395     93.259     42.296  42.673969     3.1944      8.243   225.9325 6.9021e+02     2.5687      0.293      0.425    25.4364 0.0000e+00
      0.299      0.000     7.6384     93.319     42.308  42.687213     3.1923      8.243   226.0267 6.8200e+02     2.5734      0.293      0.424    25.4381 0.0000e+00
      0.300      0.001     7.6348     93.346     42.297  42.675673     3.2011      8.243   226.0570 6.8958e+02     2.6066      0.294      0.426    25.4390 0.0000e+00
      0.301      0.002     7.6361     93.349     42.285  42.661382     3.2095      8.244   226.0414 6.9352e+02     2.6282      0.296      0.429    25.4394 0.0000e+00
      0.301      0.002     7.6434     93.336     42.268  42.641357     3.2024      8.246   226.0954 6.8609e+02     2.5957      0.296      0.429    25.4404 0.0000e+00
      0.301      0.001     7.6491     93.330     42.251  42.623953     3.1981      8.248   226.1943 6.7743e+02     2.5542      0.296      0.429    25.4421 0.0000e+00
      0.301      0.000     7.6500     93.331     42.265  42.641368     3.2074      8.249   226.0321 6.9069e+02     2.6056      0.296      0.429    25.4430 0.0000e+00
      0.302     -0.001     7.6514     93.322     42.281  42.661508     3.2230      8.250   225.7695 7.2357e+02     2.7042      0.296      0.430    25.4395 0.0000e+00
      0.302     -0.001     7.6495     93.316     42.294  42.677062     3.2293      8.251   225.7723 7.4181e+02     2.7221      0.298      0.431    25.4342 0.0000e+00
      0.301     -0.001     7.6493     93.315     42.318  42.702492     3.2160      8.253   225.8942 7.7844e+02     2.6515      0.296      0.430    25.4336 0.0000e+00
      0.300     -0.001     7.6500     93.270     42.329  42.715094     3.2036      8.253   225.9528 8.1696e+02     2.6016      0.293      0.426    25.4382 0.0000e+00
      0.299      0.000     7.6473     93.177     42.316  42.702490     3.2213      8.254   225.9645 7.9078e+02     2.6316      0.292      0.423    25.4446 0.0000e+00
      0.300      0.001     7.6456     93.092     42.291  42.677048     3.2557      8.256   226.0349 7.8686e+02     2.6726      0.293      0.425    25.4483 0.0000e+00
      0.301      0.006     7.6481     93.055     42.277  42.661365     3.2703      8.254   226.8037 8.6695e+02     2.6530      0.296      0.429    25.4484 0.0000e+00
      0.303      0.021     7.6451     93.084     42.258  42.639802     3.2641      8.247   228.2055 9.3108e+02     2.5998      0.297      0.430    25.4491 0.0000e+00
      0.303      0.046     7.6339     93.130     42.233  42.606747     3.2556      8.237   229.0454 9.2441e+02     2.5754      0.298      0.432    25.4503 0.0000e+00
      0.305      0.072     7.6270     93.149     42.222  42.579035     3.2507      8.232   229.1293 9.2526e+02     2.5971      0.296      0.430    25.4505 0.0000e+00
      0.321      0.094     7.6222     93.156     42.220  42.558595     3.2545      8.232   229.0478 9.1476e+02     2.6579      0.301      0.437    25.4489 0.0000e+00
      0.363      0.110     7.6274     93.177     42.224  42.549979     3.2693      8.232   229.0921 8.1501e+02     2.6952      0.351      0.507    25.4470 0.0000e+00
      0.416      0.120     7.6340     93.192     42.217  42.538309     3.2788      8.232   229.2346 7.0458e+02     2.6721      0.417      0.604    25.4402 0.0000e+00
      0.454      0.122     7.6372     93.143     42.225  42.544437     3.2860      8.231   229.3947 6.4579e+02     2.6523      0.452      0.655    25.4179 0.0000e+00
      0.475      0.115     7.6409     93.042     42.245  42.560588     3.3066      8.231   229.5656 5.9870e+02     2.6611      0.466      0.677    25.3911 0.0000e+00
      0.494      0.100     7.6446     92.962     42.235  42.543177     3.3374      8.232   229.6659 5.5502e+02     2.6752      0.482      0.700    25.3766 0.0000e+00
      0.517      0.088     7.6495     92.923     42.222  42.524327     3.3744      8.232   229.8332 5.2865e+02     2.6526      0.508      0.736    25.3735 0.0000e+00
      0.541      0.085     7.6449     92.886     42.227  42.523069     3.4054      8.231   230.1262 4.9517e+02     2.5918      0.532      0.772    25.3730 0.0000e+00
      0.562      0.090     7.6343     92.837     42.237  42.527949     3.4203      8.230   230.3688 4.5157e+02     2.5554      0.551      0.800    25.3679 0.0000e+00
      0.582      0.098     7.6280     92.801     42.237  42.519858     3.4302      8.228   230.6158 4.1951e+02     2.5883      0.570      0.826    25.3589 0.0000e+00
      0.604      0.107     7.6284     92.769     42.213  42.488705     3.4501      8.226   230.9617 3.9353e+02     2.6828      0.590      0.856    25.3507 0.0000e+00
      0.632      0.116     7.6265     92.700     42.202  42.468616     3.4777      8.226   231.1956 3.7015e+02     2.7065      0.617      0.895    25.3449 0.0000e+00
      0.666      0.125     7.6217     92.596     42.212  42.467360     3.4896      8.226   231.2068 3.4991e+02     2.6365      0.651      0.945    25.3390 0.0000e+00
      0.704      0.132     7.6202     92.496     42.233  42.473490     3.4851      8.225   231.1823 3.3046e+02     2.5877      0.690      1.001    25.3294 0.0000e+00
      0.741      0.135     7.6212     92.394     42.253  42.479246     3.4819      8.224   231.2438 3.2235e+02     2.5611      0.727      1.055    25.3207 0.0000e+00
      0.776      0.135     7.6165     92.279     42.258  42.473470     3.5173      8.224   231.3483 3.2435e+02     2.5873      0.760      1.104    25.3125 0.0000e+00
      0.811      0.134     7.6076     92.166     42.258  42.467104     3.5887      8.224   231.4991 3.2243e+02     2.6308      0.795      1.153    25.2973 0.0000e+00
      0.844      0.134     7.6032     92.059     42.262  42.465733     3.6207      8.224   231.6901 3.1702e+02     2.6095      0.828      1.202    25.2778 0.0000e+00
      0.874      0.134     7.5979     91.954     42.261  42.456880     3.6136      8.224   231.8511 3.1538e+02     2.6026      0.857      1.243    25.2595 0.0000e+00
      0.907      0.136     7.5893     91.863     42.239  42.423525     3.6436      8.224   231.9837 3.1783e+02     2.6498      0.888      1.287    25.2467 0.0000e+00
      0.943      0.140     7.5809     91.775     42.209  42.379775     3.7084      8.224   232.0022 3.2018e+02     2.7022      0.925      1.341    25.2404 0.0000e+00
      0.980      0.142     7.5731     91.615     42.219  42.372162     3.7403      8.224   231.9031 3.2129e+02     2.6898      0.961      1.394    25.2356 0.0000e+00
      1.017      0.142     7.5653     91.308     42.260  42.394919     3.7374      8.225   231.9040 3.2095e+02     2.6358      0.997      1.445    25.2264 0.0000e+00
      1.057      0.141     7.5592     90.921     42.280  42.401029     3.7818      8.225   232.0131 3.1816e+02     2.6651      1.037      1.503    25.2132 0.0000e+00
      1.094      0.138     7.5565     90.558     42.274  42.382543     3.8860      8.225   232.1031 3.1515e+02     2.8043      1.075      1.559    25.1981 0.0000e+00
      1.128      0.136     7.5507     90.214     42.271  42.361797     3.9568      8.224   232.2186 3.1507e+02     2.9532      1.107      1.605    25.1757 0.0000e+00
      1.159      0.136     7.5257     89.848     42.272  42.340576     3.9803      8.224   232.3766 3.1658e+02     2.9959      1.136      1.648    25.1513 0.0000e+00
      1.190      0.138     7.4906     89.429     42.274  42.316328     4.0622      8.225   232.4655 3.1627e+02     2.9790      1.165      1.691    25.1362 0.0000e+00
      1.224      0.141     7.4646     88.920     42.309  42.322450     4.2066      8.225   232.5187 3.1230e+02     2.9883      1.199      1.739    25.1244 0.0000e+00
      1.262      0.146     7.4399     88.319     42.363  42.351089     4.2853      8.225   232.6762 3.0411e+02     3.0057      1.235      1.793    25.1049 0.0000e+00
      1.303      0.150     7.4140     87.675     42.378  42.345214     4.3158      8.225   232.9922 2.9340e+02     3.0530      1.278      1.854    25.0771 0.0000e+00
      1.344      0.152     7.3852     87.005     42.368  42.314846     4.4167      8.224   233.3285 2.8240e+02     3.1158      1.319      1.913    25.0444 0.0000e+00
      1.383      0.150     7.3488     86.294     42.372  42.301229     4.5563      8.223   233.4734 2.7213e+02     3.1844      1.356      1.966    25.0084 0.0000e+00
      1.421      0.147     7.3009     85.584     42.392  42.307483     4.6230      8.222   233.5385 2.6308e+02     3.2338      1.393      2.021    24.9772 0.0000e+00
      1.458      0.142     7.2496     84.986     42.419  42.326973     4.6235      8.221   233.6861 2.5515e+02     3.2343      1.430      2.075    24.9547 0.0000e+00
      1.494      0.136     7.1997     84.596     42.449  42.346462     4.6201      8.221   233.7951 2.4701e+02     3.2592      1.466      2.126    24.9310 0.0000e+00
      1.528      0.130     7.1420     84.394     42.475  42.352696     4.6659      8.221   233.9952 2.3787e+02     3.3293      1.497      2.172    24.9064 0.0000e+00
      1.561      0.124     7.0823     84.275     42.485  42.338855     4.7521      8.221   234.3855 2.2809e+02     3.3997      1.529      2.219    24.8912 0.0000e+00
      1.592      0.119     7.0291     84.165     42.470  42.306011     4.7961      8.220   234.6421 2.1872e+02     3.4277      1.563      2.267    24.8860 0.0000e+00
      1.620      0.117     6.9982     83.975     42.446  42.272897     4.7987      8.218   234.7756 2.1058e+02     3.4965      1.591      2.307    24.8797 0.0000e+00
      1.645      0.117     6.9903     83.681     42.447  42.255814     4.7927      8.218   234.9667 2.0252e+02     3.9238      1.612      2.337    24.8538 0.0000e+00
      1.673      0.118     6.9851     83.348     42.514  42.289835     4.7730      8.218   235.1460 1.9341e+02     4.5974      1.638      2.376    24.8169 0.0000e+00
      1.706      0.120     6.9825     82.915     42.635  42.366849     4.7525      8.217   235.3089 1.8427e+02     4.9110      1.674      2.428    24.7965 0.0000e+00
      1.740      0.122     6.9690     82.177     42.759  42.425291     4.7601      8.216   235.5598 1.7643e+02     4.9148      1.709      2.477    24.7948 0.0000e+00
      1.772      0.124     6.9410     80.853     42.921  42.488601     4.8239      8.215   236.0282 1.7051e+02     4.7802      1.737      2.519    24.7789 0.0000e+00
      1.803      0.124     6.9226     78.700     43.096  42.560942     4.9163      8.215   236.7570 1.6671e+02     4.4788      1.768      2.565    24.7307 0.0000e+00
      1.834      0.125     6.8985     75.790     43.202  42.601639     4.9532      8.214   237.4879 1.6452e+02     4.2773      1.801      2.611    24.6861 0.0000e+00
      1.864      0.126     6.8530     72.576     43.232  42.599748     4.9462      8.212   238.1540 1.6250e+02     4.1876      1.828      2.651    24.6244 0.0000e+00
      1.894      0.129     6.7693     69.523     43.193  42.538033     5.0983      8.209   238.7883 1.5890e+02     4.1464      1.856      2.692    24.4942 0.0000e+00
      1.929      0.131     6.6063     66.883     43.048  42.363176     5.4108      8.207   239.1344 1.5358e+02     4.2226      1.892      2.744    24.3519 0.0000e+00
      1.965      0.131     6.3536     64.807     42.804  42.072265     5.5947      8.206   239.3277 1.4789e+02     4.3236      1.928      2.797    24.2857 0.0000e+00
      2.000      0.129     6.0711     63.327     42.672  41.876687     5.6315      8.205   239.6619 1.4237e+02     4.2747      1.962      2.845    24.2630 0.0000e+00
      2.035      0.126     5.8146     62.467     42.763  41.902442     5.7230      8.204   240.0786 1.3725e+02     4.1101      1.996      2.894    24.2366 0.0000e+00
      2.067      0.122     5.5891     62.352     42.913  42.002761     5.8939      8.202   240.4946 1.3315e+02     4.0066      2.029      2.942    24.2104 0.0000e+00
      2.095      0.119     5.4225     62.951     43.012  42.074063     5.9998      8.200   240.9055 1.3029e+02     4.0142      2.055      2.980    24.1453 0.0000e+00
      2.121      0.119     5.3077     63.887     43.079  42.129826     6.0128      8.198   241.2609 1.2816e+02     4.0654      2.079      3.015    24.0607 0.0000e+00
      2.149      0.120     5.2364     64.687     43.056  42.105747     6.0097      8.196   241.5220 1.2608e+02     4.0447      2.107      3.055    23.9827 0.0000e+00
      2.181      0.122     5.2316     65.110     42.926  41.973337     6.0037      8.195   241.7402 1.2412e+02     4.0711      2.139      3.102    23.9209 0.0000e+00
      2.215      0.122     5.2974     65.035     42.841  41.861699     6.0067      8.194   241.9201 1.2254e+02     4.2819      2.173      3.152    23.8992 0.0000e+00
      2.249      0.117     5.3951     64.282     42.881  41.834869     6.0211      8.193   242.0620 1.2105e+02     4.4759      2.205      3.198    23.8898 0.0000e+00
      2.282      0.112     5.4679     62.779     42.981  41.839242     6.0441      8.192   242.2514 1.1958e+02     4.5382      2.239      3.249    23.8881 0.0000e+00
      2.312      0.110     5.5038     60.618     43.110  41.850972     6.2354      8.191   242.4895 1.1871e+02     4.5560      2.271      3.294    23.8946 0.0000e+00
      2.333      0.110     5.5082     57.900     43.302  41.913060     6.5860      8.190   242.7039 1.1801e+02     4.5891      2.290      3.321    23.8715 0.0000e+00
      2.351      0.112     5.4563     54.665     43.556  42.018552     6.7884      8.190   242.8649 1.1577e+02     4.6651      2.302      3.338    23.7836 0.0000e+00
      2.378      0.115     5.3343     50.846     43.827  42.110767     6.8254      8.190   243.0589 1.1132e+02     4.7915      2.327      3.376    23.6746 0.0000e+00
      2.415      0.119     5.1635     46.448     44.028  42.139213     6.9508      8.188   243.3288 1.0601e+02     5.1610      2.368      3.437    23.5398 0.0000e+00
      2.453      0.123     4.9421     41.408     44.121  42.108368     7.1887      8.186   243.5463 1.0148e+02     5.6828      2.409      3.493    23.3903 0.0000e+00
      2.486      0.126     4.6850     35.559     44.212  42.118474     7.3218      8.185   243.7964 9.7940e+01     5.8742      2.440      3.539    23.2519 0.0000e+00
      2.515      0.126     4.3755     29.219     44.352  42.197825     7.3950      8.182   244.1161 9.4665e+01     5.9036      2.466      3.577    23.0363 0.0000e+00
      2.543      0.126     4.0110     23.062     44.512  42.306089     8.1319      8.180   244.4008 9.1166e+01     6.2092      2.493      3.616    22.8251 0.0000e+00
      2.573      0.128     3.6034     17.674     44.682  42.411905     9.4809      8.178   244.7432 8.7445e+01     6.6658      2.521      3.659    22.6981 0.0000e+00
      2.606      0.132     3.0893     13.453     44.887  42.525111    10.2230      8.174   245.0723 8.3399e+01     6.8816      2.553      3.704    22.6176 0.0000e+00
      2.643      0.137     2.5186     10.410     45.479  42.976565    10.4377      8.171   245.4552 7.9173e+01     6.9392      2.592      3.759    22.5637 0.0000e+00
      2.681      0.141     1.9742      8.296     46.938  44.188832    12.2016      8.167   246.1886 7.5342e+01     8.0109      2.631      3.816    22.5187 0.0000e+00
      2.717      0.145     1.4912      6.798     49.240  46.074140    15.4282      8.162   247.0561 7.1851e+01    10.0024      2.664      3.864    22.4690 0.0000e+00
      2.753      0.146     1.1314      5.698     52.188  48.441417    17.1894      8.159   247.4262 6.8393e+01    11.0349      2.699      3.915    22.3730 0.0000e+00
      2.790      0.146     0.8769      4.858     55.626  51.225457    17.3581      8.157   247.3084 6.5091e+01    11.1003      2.736      3.969    22.2554 0.0000e+00
      2.828      0.143     0.7059      4.029     58.638  53.638906    17.3262      8.153   247.2676 6.1792e+01    11.2378      2.772      4.021    22.1203 0.0000e+00
      2.867      0.136     0.5858      3.004     59.999  54.570923    16.7537      8.148   247.3626 5.8312e+01    13.0388      2.810      4.076    21.8356 0.0000e+00
      2.906      0.124     0.4934      1.889     60.069  54.365402    15.7051      8.140   247.5963 5.5117e+01    16.4453      2.852      4.137    21.4112 0.0000e+00
      2.940      0.109     0.4328      0.985     60.673  54.710096    15.1342      8.132   248.0283 5.2526e+01    18.4710      2.886      4.187    21.0309 0.0000e+00
      2.966      0.092     0.3700      0.416     62.311  56.070773    15.1612      8.125   248.4560 5.0387e+01    20.0415      2.911      4.222    20.7269 0.0000e+00
      2.984      0.072     0.2761      0.148     63.307  56.907884    16.0075      8.118   248.8101 4.8644e+01    35.0594      2.929      4.249    20.4605 0.0000e+00
      2.998      0.053     0.1611      0.148     62.815  56.447727    17.5429      8.111   249.0399 4.7230e+01    62.4909      2.941      4.266    20.2263 0.0000e+00
      3.008      0.037     0.0778      0.382     62.035  55.778807    18.3356      8.104   249.1699 4.6135e+01    77.3104      2.950      4.279    20.0514 0.0000e+00
      3.015      0.024     0.0289      0.767     61.718  55.552676    18.0347      8.098   249.2632 4.5497e+01    77.4658      2.958      4.291    19.9761 0.0000e+00
      3.019      0.009     0.0049      1.217     60.314  54.348820    13.8884      8.093   249.5656 4.5343e+01    64.0286      2.961      4.295    19.9338 0.0000e+00
      3.020     -0.011     0.0055      1.671     55.929  50.494835     6.2470      8.088   249.9872 4.5625e+01    39.0468      2.961      4.295    19.9060 0.0000e+00
      3.020     -0.040     0.0300      2.077     50.562  45.910218     2.0748      8.082   249.9726 4.6276e+01    25.3566      2.962      4.296    19.9472 0.0000e+00
      3.016     -0.070     0.0682      2.438     47.557  43.678168     1.8703      8.076   249.6475 4.7449e+01    24.0034      2.960      4.294    20.0028 0.0000e+00
      3.001     -0.093     0.1099      2.867     46.683  43.442187     4.0494      8.068   249.1530 5.0275e+01    23.4029      2.953      4.283    20.0494 0.0000e+00
      2.961     -0.102     0.1540      3.796     46.700  43.882980     8.1301      8.062   248.5542 5.5268e+01    22.5712      2.914      4.226    20.0896 0.0000e+00
      2.906     -0.097     0.1889      5.843     47.276  44.628580    10.3603      8.057   248.1712 5.9900e+01    22.1458      2.842      4.122    20.2961 0.0000e+00
      2.864     -0.082     0.2186      9.182     47.747  45.094187    10.5568      8.053   247.9652 6.1801e+01    22.1187      2.796      4.055    20.8958 0.0000e+00
      2.851     -0.057     0.2407     13.212     47.858  45.132682    10.5548      8.049   247.7837 6.1625e+01    22.0044      2.790      4.046    21.5992 0.0000e+00
      2.857     -0.028     0.2931     16.926     48.160  45.347838    10.5529      8.045   247.6117 6.0830e+01    21.8573      2.801      4.062    22.0673 0.0000e+00
      2.867     -0.002     0.4628     19.578     48.840  45.918085    10.5679      8.041   247.6062 6.0302e+01    21.8089      2.813      4.080    22.2669 0.0000e+00
      2.872      0.011     0.7744     20.976     49.582  46.504585    10.5862      8.038   247.8023 6.0204e+01    21.6238      2.818      4.087    22.2474 0.0000e+00
      2.873      0.011     1.1642     21.236     49.974  46.725604    10.7662      8.035   248.1767 6.0150e+01    19.0731      2.816      4.085    22.1381 0.0000e+00
      2.873     -0.003     1.5152     20.506     49.580  46.241319    11.1046      8.032   248.6055 5.9853e+01    14.3333      2.815      4.083    22.0694 0.0000e+00
      2.876     -0.026     1.7504     18.904     48.578  45.283149    11.2985      8.028   248.7705 5.9443e+01    11.7971      2.820      4.090    22.0252 0.0000e+00
      2.879     -0.055     1.8713     16.674     47.767  44.599071    11.3207      8.024   248.7096 5.9634e+01    11.6369      2.827      4.100    21.9115 0.0000e+00
      2.869     -0.086     1.8955     14.358     47.410  44.381727    11.3640      8.020   248.5568 6.1472e+01    11.5764      2.822      4.095    21.7334 0.0000e+00
      2.839     -0.115     1.8340     12.567     47.072  44.178892    12.0055      8.016   248.4728 6.4916e+01    11.3720      2.790      4.047    21.5881 0.0000e+00
      2.792     -0.136     1.6889     11.601     46.619  43.860619    13.1930      8.014   248.5542 6.8824e+01    11.1476      2.737      3.971    21.5639 0.0000e+00
      2.742     -0.141     1.4711     11.452     46.207  43.580496    13.8360      8.012   248.5938 7.2692e+01    11.1179      2.688      3.899    21.6635 0.0000e+00
      2.695     -0.127     1.2403     12.037     45.833  43.331085    13.8373      8.010   248.4357 7.6272e+01    11.6279      2.641      3.831    21.8087 0.0000e+00
      2.657     -0.099     1.0727     13.260     45.518  43.130210    13.1592      8.008   248.1911 7.8477e+01    16.7326      2.599      3.769    21.9244 0.0000e+00
      2.635     -0.066     0.9888     14.995     45.340  43.056053    11.9119      8.008   247.9592 7.8393e+01    26.0066      2.577      3.737    22.0335 0.0000e+00
      2.632     -0.035     0.9761     17.104     45.213  43.005857    11.2245      8.008   247.6975 7.6722e+01    31.0499      2.578      3.739    22.1567 0.0000e+00
      2.639     -0.010     1.0271     19.464     45.070  42.904225    11.1244      8.007   247.5225 7.4896e+01    31.5616      2.589      3.754    22.2692 0.0000e+00
      2.644      0.001     1.1359     21.970     45.058  42.906292    10.8425      8.007   247.4774 7.3515e+01    31.7832      2.595      3.763    22.3692 0.0000e+00
      2.648     -0.008     1.2872     24.352     45.186  43.030870    10.3455      8.008   247.4967 7.2285e+01    32.0221      2.596      3.765    22.4844 0.0000e+00
      2.651     -0.036     1.4723     26.204     45.312  43.141052    10.0762      8.010   247.4969 7.1101e+01    32.0925      2.600      3.771    22.5755 0.0000e+00
      2.651     -0.073     1.6764     27.336     45.345  43.159443    10.0261      8.011   247.3942 7.1169e+01    31.7124      2.605      3.779    22.5952 0.0000e+00
      2.635     -0.110     1.8992     27.790     45.319  43.126280     9.7978      8.013   247.2877 7.4206e+01    28.2114      2.595      3.764    22.6108 0.0000e+00
      2.593     -0.139     2.1230     27.676     45.308  43.120907     9.3964      8.016   247.2412 7.9860e+01    21.8719      2.549      3.696    22.6166 0.0000e+00
      2.534     -0.153     2.2879     27.141     45.263  43.094477     9.1758      8.018   247.2626 8.6378e+01    18.3935      2.483      3.602    22.5992 0.0000e+00
      2.474     -0.148     2.3830     26.351     45.135  42.997168     9.1703      8.019   247.3746 9.2912e+01    17.9918      2.423      3.515    22.5842 0.0000e+00
      2.426     -0.125     2.4210     25.525     44.932  42.833002     9.2715      8.020   247.3903 9.7669e+01    16.7414      2.370      3.438    22.5692 0.0000e+00
      2.398     -0.090     2.4051     24.925     44.672  42.632908     9.4500      8.020   247.1085 9.9271e+01    14.5130      2.343      3.399    22.5751 0.0000e+00
      2.391     -0.054     2.3538     24.734     44.424  42.482049     9.5474      8.020   246.7202 9.9220e+01    13.3546      2.343      3.398    22.5971 0.0000e+00
      2.393     -0.026     2.2780     25.047     44.226  42.405463     9.5584      8.020   246.4817 9.8713e+01    13.2568      2.346      3.403    22.6251 0.0000e+00
      2.397     -0.008     2.1958     26.051     44.116  42.405254     9.5420      8.020   246.2042 9.8202e+01    13.1938      2.351      3.410    22.6560 0.0000e+00
      2.399     -0.004     2.1372     27.986     44.063  42.416211     9.2664      8.021   245.8602 9.8440e+01    12.7288      2.354      3.415    22.6920 0.0000e+00
      2.397     -0.015     2.1151     30.769     43.970  42.347617     8.7560      8.023   245.6774 9.9100e+01    11.9398      2.351      3.410    22.7960 0.0000e+00
      2.395     -0.040     2.1327     34.048     43.926  42.337554     8.4735      8.024   245.5421 9.9417e+01    11.5444      2.347      3.404    22.9413 0.0000e+00
      2.393     -0.071     2.1987     37.339     44.031  42.485002     8.4140      8.026   245.4296 1.0091e+02    11.4319      2.350      3.409    23.0722 0.0000e+00
      2.379     -0.102     2.3667     40.195     44.155  42.607178     7.9448      8.028   245.6066 1.0606e+02    10.3753      2.344      3.399    23.1545 0.0000e+00
      2.344     -0.124     2.6176     42.515     44.126  42.545381     7.0538      8.030   245.9623 1.1434e+02     8.4025      2.303      3.341    23.1357 0.0000e+00
      2.291     -0.132     2.9078     44.105     43.951  42.372458     6.5539      8.032   246.1172 1.2383e+02     7.3229      2.248      3.261    23.1694 0.0000e+00
      2.236     -0.125     3.2058     44.572     43.713  42.230062     6.4869      8.034   246.1881 1.3252e+02     7.1935      2.189      3.174    23.2692 0.0000e+00
      2.193     -0.104     3.4439     44.099     43.461  42.156674     6.2608      8.035   246.3034 1.3763e+02     6.6330      2.139      3.104    23.2605 0.0000e+00
      2.174     -0.074     3.6509     43.742     43.241  42.120086     5.8596      8.036   246.4791 1.3893e+02     5.6352      2.126      3.084    23.1901 0.0000e+00
      2.173     -0.042     3.8106     44.753     43.098  42.105286     5.6393      8.036   246.7634 1.3875e+02     5.0694      2.131      3.090    23.1580 0.0000e+00
      2.177     -0.016     3.8399     47.633     43.027  42.104849     5.5941      8.036   246.9013 1.3859e+02     4.9167      2.136      3.098    23.2523 0.0000e+00
      2.179      0.000     3.7463     51.977     43.006  42.114896     5.4798      8.037   246.9422 1.3874e+02     4.6429      2.138      3.101    23.4985 0.0000e+00
      2.179      0.008     3.6524     56.848     42.981  42.099873     5.3061      8.039   247.1722 1.3890e+02     4.2865      2.137      3.099    23.7275 0.0000e+00
      2.179      0.012     3.7149     61.310     42.934  42.050155     5.2248      8.040   247.4442 1.3860e+02     4.0922      2.136      3.098    23.8641 0.0000e+00
      2.181      0.014     3.9680     64.901     42.919  42.021507     5.2214      8.040   247.5638 1.3771e+02     4.0016      2.138      3.100    23.9383 0.0000e+00
      2.186      0.017     4.3608     67.409     42.924  42.007351     5.2653      8.040   247.5861 1.3620e+02     3.9764      2.143      3.106    23.9645 0.0000e+00
      2.194      0.019     4.8053     68.657     42.944  42.005897     5.3638      8.039   247.6286 1.3464e+02     4.0266      2.152      3.120    23.9750 0.0000e+00
      2.201      0.019     5.1892     68.679     42.959  42.003904     5.4299      8.038   247.8195 1.3383e+02     4.0621      2.161      3.134    23.9702 0.0000e+00
      2.205      0.014     5.4983     67.749     42.953  41.983229     5.4491      8.038   248.0866 1.3335e+02     4.0979      2.163      3.138    23.9498 0.0000e+00
      2.208      0.001     5.7206     66.306     42.992  42.009765     5.4458      8.038   248.2768 1.3271e+02     4.0833      2.164      3.139    23.9271 0.0000e+00
      2.211     -0.020     5.8264     64.849     43.058  42.070856     5.4322      8.038   248.3122 1.3209e+02     4.0565      2.167      3.145    23.9017 0.0000e+00
      2.213     -0.048     5.8226     63.734     43.071  42.087177     5.4256      8.039   248.2572 1.3253e+02     4.0480      2.173      3.152    23.8806 0.0000e+00
      2.204     -0.078     5.7319     63.011     43.057  42.080178     5.4329      8.041   248.2137 1.3611e+02     4.0140      2.169      3.147    23.8666 0.0000e+00
      2.177     -0.107     5.5967     62.584     43.085  42.113191     5.4531      8.043   248.1306 1.4286e+02     4.0213      2.140      3.104    23.8480 0.0000e+00
      2.135     -0.129     5.4607     62.359     43.132  42.168991     5.5032      8.043   248.1127 1.5079e+02     4.0001      2.094      3.037    23.8422 0.0000e+00
      2.088     -0.140     5.3674     62.295     43.197  42.247109     5.5819      8.044   248.1694 1.5878e+02     3.9620      2.048      2.970    23.8529 0.0000e+00
      2.044     -0.137     5.3089     62.387     43.291  42.359567     5.6306      8.045   248.2136 1.6578e+02     3.9713      2.001      2.902    23.8602 0.0000e+00
      2.007     -0.120     5.2750     62.577     43.355  42.449757     5.6508      8.045   248.3030 1.7132e+02     3.9755      1.965      2.849    23.8649 0.0000e+00
      1.977     -0.094     5.2569     62.777     43.391  42.512517     5.6183      8.045   248.3897 1.7600e+02     3.9793      1.938      2.810    23.8773 0.0000e+00
      1.955     -0.066     5.2482     62.962     43.403  42.547215     5.5122      8.045   248.4872 1.7898e+02     3.9480      1.914      2.776    23.8914 0.0000e+00
      1.944     -0.039     5.2565     63.129     43.389  42.551967     5.4331      8.044   248.6222 1.7953e+02     3.9047      1.903      2.760    23.9137 0.0000e+00
      1.943     -0.018     5.2718     63.253     43.396  42.569990     5.4022      8.044   248.7316 1.7896e+02     3.9002      1.904      2.762    23.9526 0.0000e+00
      1.946     -0.003     5.2861     63.320     43.394  42.574736     5.2975      8.044   248.7775 1.7811e+02     3.9621      1.909      2.769    23.9847 0.0000e+00
      1.951      0.005     5.2983     63.345     43.359  42.545890     5.1161      8.044   248.7469 1.7698e+02     4.0722      1.914      2.776    24.0095 0.0000e+00
      1.955      0.009     5.3117     63.353     43.346  42.538575     5.0071      8.043   248.7064 1.7620e+02     4.0695      1.919      2.783    24.0333 0.0000e+00
      1.958      0.009     5.3212     63.358     43.352  42.549770     4.9779      8.041   248.7175 1.7588e+02     3.9976      1.921      2.786    24.0449 0.0000e+00
      1.958      0.005     5.3256     63.371     43.353  42.554315     4.9954      8.041   248.7946 1.7538e+02     3.9887      1.919      2.783    24.0502 0.0000e+00
      1.958     -0.006     5.3262     63.396     43.324  42.530065     5.0600      8.041   248.8641 1.7451e+02     3.9971      1.918      2.782    24.0565 0.0000e+00
      1.961     -0.026     5.3257     63.428     43.229  42.446979     5.1105      8.042   248.7836 1.7341e+02     4.0301      1.923      2.789    24.0635 0.0000e+00
      1.964     -0.051     5.3258     63.482     43.133  42.374861     5.1148      8.044   248.5959 1.7341e+02     4.0451      1.929      2.798    24.0694 0.0000e+00
      1.956     -0.076     5.3256     63.609     43.081  42.356295     5.0876      8.046   248.5739 1.7736e+02     4.0767      1.926      2.793    24.0733 0.0000e+00
      1.926     -0.093     5.3284     63.886     43.037  42.349495     5.0563      8.046   248.6901 1.8570e+02     4.1730      1.896      2.750    24.0764 0.0000e+00
      1.881     -0.098     5.3298     64.386     43.010  42.356159     5.0441      8.045   248.7095 1.9524e+02     4.2194      1.844      2.675    24.0845 0.0000e+00
      1.836     -0.091     5.3298     65.128     43.006  42.373446     5.0488      8.043   248.7230 2.0187e+02     4.2268      1.794      2.600    24.1116 0.0000e+00
      1.808     -0.072     5.3343     66.025     42.996  42.368135     5.0379      8.043   248.7667 2.0372e+02     4.1944      1.764      2.560    24.1529 0.0000e+00
      1.800     -0.044     5.3507     66.882     42.985  42.355422     5.0039      8.043   248.7221 2.0301e+02     4.1349      1.762      2.555    24.1945 0.0000e+00
      1.804     -0.019     5.3872     67.451     42.974  42.346672     4.9709      8.044   248.6141 2.0190e+02     4.0881      1.769      2.565    24.2394 0.0000e+00
      1.810     -0.007     5.4493     67.547     42.943  42.325811     4.9626      8.045   248.4928 2.0047e+02     4.0390      1.776      2.576    24.2668 0.0000e+00
      1.815     -0.012     5.5302     67.192     42.895  42.293606     4.9789      8.047   248.3741 1.9947e+02     4.0532      1.781      2.582    24.2659 0.0000e+00
      1.818     -0.033     5.6106     66.589     42.851  42.274665     5.0015      8.051   248.2113 1.9997e+02     4.1242      1.785      2.588    24.2604 0.0000e+00
      1.815     -0.061     5.6653     65.979     42.829  42.287240     5.0194      8.054   247.9017 2.0360e+02     4.2137      1.786      2.589    24.2603 0.0000e+00
      1.795     -0.087     5.6710     65.642     42.821  42.318757     5.0295      8.058   247.5561 2.1151e+02     4.2812      1.768      2.563    24.2726 0.0000e+00
      1.758     -0.105     5.6317     65.899     42.808  42.338450     5.0395      8.063   247.3874 2.2171e+02     4.2577      1.726      2.503    24.2907 0.0000e+00
      1.716     -0.110     5.5722     66.927     42.782  42.334988     5.0410      8.066   247.4107 2.3144e+02     4.2366      1.681      2.438    24.3149 0.0000e+00
      1.676     -0.100     5.5092     68.612     42.772  42.340397     5.0220      8.066   247.5802 2.3929e+02     4.2998      1.641      2.380    24.3599 0.0000e+00
      1.647     -0.079     5.4641     70.582     42.762  42.340407     4.9933      8.067   247.7159 2.4368e+02     4.3727      1.609      2.334    24.4116 0.0000e+00
      1.632     -0.052     5.4762     72.473     42.745  42.335118     4.9773      8.067   247.5885 2.4412e+02     4.3999      1.596      2.315    24.4497 0.0000e+00
      1.630     -0.028     5.5621     74.051     42.730  42.339936     4.9615      8.069   247.2444 2.4379e+02     4.3904      1.597      2.317    24.4727 0.0000e+00
      1.634     -0.017     5.7147     75.195     42.702  42.335215     4.9188      8.071   246.8246 2.4429e+02     4.3599      1.602      2.324    24.4931 0.0000e+00
      1.639     -0.022     5.8893     76.005     42.693  42.341540     4.8773      8.074   246.4703 2.4372e+02     4.3036      1.607      2.331    24.5011 0.0000e+00
      1.643     -0.040     6.0508     76.639     42.702  42.352975     4.8589      8.077   246.2308 2.4360e+02     4.2227      1.614      2.341    24.5077 0.0000e+00
      1.636     -0.065     6.1865     77.129     42.699  42.346533     4.8619      8.081   246.0794 2.4884e+02     4.1333      1.613      2.338    24.5361 0.0000e+00
      1.611     -0.090     6.2720     77.448     42.685  42.327121     4.8893      8.085   246.0162 2.5905e+02     4.0764      1.585      2.298    24.5697 0.0000e+00
      1.573     -0.108     6.3310     77.576     42.671  42.308673     4.9235      8.089   245.9834 2.6945e+02     4.0824      1.542      2.236    24.5879 0.0000e+00
      1.533     -0.114     6.3845     77.557     42.674  42.313874     4.9351      8.092   245.8551 2.7975e+02     4.0682      1.501      2.179    24.5864 0.0000e+00
      1.497     -0.105     6.4265     77.458     42.676  42.326548     4.9215      8.094   245.6699 2.8914e+02     4.0077      1.466      2.127    24.5816 0.0000e+00
      1.468     -0.084     6.4555     77.338     42.666  42.334980     4.9163      8.096   245.6362 2.9537e+02     3.9655      1.437      2.083    24.5758 0.0000e+00
      1.448     -0.056     6.4652     77.300     42.649  42.352383     4.9470      8.096   245.7061 2.9966e+02     3.9676      1.416      2.053    24.5662 0.0000e+00
      1.439     -0.028     6.4608     77.466     42.594  42.346610     4.9851      8.097   245.7401 3.0196e+02     4.0332      1.408      2.041    24.5682 0.0000e+00
      1.439     -0.005     6.4506     77.931     42.532  42.328717     4.9937      8.097   245.7033 3.0093e+02     4.0754      1.410      2.043    24.5830 0.0000e+00
      1.446      0.006     6.4349     78.786     42.503  42.326519     4.9680      8.098   245.6050 2.9617e+02     4.0688      1.417      2.056    24.5985 0.0000e+00
      1.458      0.001     6.4232     80.020     42.491  42.320076     4.9241      8.100   245.4127 2.9007e+02     4.0217      1.430      2.074    24.6362 0.0000e+00
      1.468     -0.018     6.4267     81.396     42.503  42.314297     4.9124      8.103   245.0983 2.8843e+02     3.9495      1.442      2.091    24.7077 0.0000e+00
      1.469     -0.047     6.4549     82.550     42.542  42.320085     4.9340      8.105   244.9015 2.9450e+02     3.9818      1.448      2.099    24.7646 0.0000e+00
      1.454     -0.078     6.5213     83.230     42.582  42.326542     4.9365      8.108   244.9262 3.0533e+02     4.0024      1.435      2.080    24.7929 0.0000e+00
      1.420     -0.103     6.6298     83.335     42.609  42.328844     4.9178      8.112   244.9671 3.1883e+02     3.9586      1.396      2.024    24.8038 0.0000e+00
      1.376     -0.118     6.7600     82.822     42.644  42.347885     4.9073      8.116   244.8788 3.3381e+02     3.9645      1.347      1.954    24.7796 0.0000e+00
      1.334     -0.119     6.8693     81.824     42.668  42.366345     4.9168      8.119   244.7191 3.4360e+02     3.9714      1.305      1.894    24.7320 0.0000e+00
      1.300     -0.106     6.9317     80.653     42.663  42.361620     4.9743      8.121   244.7571 3.5090e+02     3.9734      1.273      1.846    24.6912 0.0000e+00
      1.275     -0.081     6.9477     79.573     42.652  42.354223     5.0543      8.122   245.0800 3.6020e+02     3.9544      1.247      1.809    24.6609 0.0000e+00
      1.258     -0.053     6.9039     78.713     42.632  42.340384     5.0853      8.121   245.3543 3.6236e+02     3.9469      1.230      1.784    24.6421 0.0000e+00
      1.251     -0.029     6.8096     78.163     42.601  42.321237     5.0832      8.121   245.3202 3.6068e+02     3.9864      1.224      1.775    24.6388 0.0000e+00
      1.252     -0.017     6.7040     77.959     42.575  42.313152     5.0617      8.121   245.0977 3.6423e+02     3.9537      1.226      1.778    24.6400 0.0000e+00
      1.257     -0.021     6.6114     78.050     42.555  42.306126     5.0257      8.122   244.9021 3.6561e+02     3.8581      1.232      1.787    24.6439 0.0000e+00
      1.263     -0.038     6.5365     78.385     42.551  42.299779     5.0054      8.124   244.6751 3.6065e+02     3.7528      1.241      1.800    24.6508 0.0000e+00
      1.262     -0.063     6.4868     78.856     42.556  42.299884     4.9908      8.128   244.5041 3.6333e+02     3.6709      1.246      1.807    24.6610 0.0000e+00
      1.241     -0.087     6.4707     79.318     42.562  42.307374     4.9742      8.130   244.6411 3.8164e+02     3.6544      1.225      1.777    24.6890 0.0000e+00
      1.200     -0.100     6.4749     79.693     42.579  42.326873     4.9459      8.130   244.8691 4.0726e+02     3.6548      1.180      1.711    24.7114 0.0000e+00
      1.154     -0.100     6.5079     79.989     42.599  42.345246     4.9152      8.128   244.9381 4.3419e+02     3.6420      1.129      1.637    24.6994 0.0000e+00
      1.116     -0.086     6.5536     80.222     42.599  42.339109     4.8941      8.126   244.9587 4.4875e+02     3.5685      1.087      1.576    24.6884 0.0000e+00
      1.096     -0.061     6.5934     80.340     42.583  42.316125     4.8655      8.125   244.9461 4.4002e+02     3.4494      1.068      1.549    24.6949 0.0000e+00
      1.094     -0.032     6.6237     80.321     42.588  42.321223     4.8528      8.125   244.8722 4.2935e+02     3.3626      1.070      1.552    24.6984 0.0000e+00
      1.101     -0.008     6.6460     80.207     42.595  42.337279     4.8734      8.125   244.8400 4.3689e+02     3.3043      1.080      1.566    24.6970 0.0000e+00
      1.107      0.002     6.6704     80.089     42.563  42.319858     4.8978      8.125   244.6420 4.4396e+02     3.2913      1.087      1.575    24.6896 0.0000e+00
      1.111     -0.007     6.6811     80.069     42.533  42.301015     4.8902      8.127   244.1999 4.3586e+02     3.2741      1.090      1.581    24.6792 0.0000e+00
      1.114     -0.031     6.6789     80.200     42.532  42.299880     4.8222      8.132   243.8818 4.3311e+02     3.2339      1.093      1.585    24.6773 0.0000e+00
      1.112     -0.061     6.6653     80.471     42.548  42.306133     4.7258      8.136   243.8077 4.3984e+02     3.2489      1.096      1.589    24.6898 0.0000e+00
      1.095     -0.091     6.6489     80.749     42.561  42.313137     4.6899      8.140   243.7340 4.4589e+02     3.2841      1.084      1.571    24.7089 0.0000e+00
      1.060     -0.114     6.6447     80.881     42.567  42.321095     4.7130      8.145   243.5063 4.6655e+02     3.3184      1.042      1.513    24.7271 0.0000e+00
      1.013     -0.127     6.6540     80.870     42.578  42.338887     4.7055      8.150   243.2063 4.9650e+02     3.3216      0.991      1.439    24.7260 0.0000e+00
      0.968     -0.124     6.6841     80.844     42.568  42.337855     4.6580      8.152   243.1173 5.1267e+02     3.2896      0.947      1.374    24.7068 0.0000e+00
      0.931     -0.105     6.7145     80.855     42.530  42.308627     4.6292      8.150   243.3775 5.2278e+02     3.2726      0.910      1.319    24.6990 0.0000e+00
      0.903     -0.074     6.7244     80.867     42.511  42.302861     4.6320      8.147   243.8565 5.3347e+02     3.2866      0.881      1.278    24.7031 0.0000e+00
      0.890     -0.040     6.7167     80.900     42.518  42.331616     4.6589      8.142   244.2635 5.4278e+02     3.2884      0.867      1.258    24.7125 0.0000e+00
      0.890     -0.010     6.7108     80.999     42.498  42.338990     4.6879      8.137   244.2532 5.6899e+02     3.2255      0.869      1.260    24.7255 0.0000e+00
      0.900      0.009     6.7148     81.256     42.462  42.328590     4.6910      8.135   243.9048 6.0014e+02     3.2098      0.882      1.279    24.7328 0.0000e+00
      0.913      0.011     6.7116     81.776     42.456  42.332854     4.6799      8.135   243.4932 5.9521e+02     3.2348      0.896      1.299    24.7447 0.0000e+00
      0.924     -0.005     6.7109     82.481     42.461  42.327091     4.6042      8.137   243.1482 5.6626e+02     3.1858      0.908      1.317    24.7713 0.0000e+00
      0.929     -0.034     6.7124     83.149     42.476  42.322371     4.4656      8.140   242.9174 5.4534e+02     3.0961      0.915      1.327    24.8064 0.0000e+00
      0.921     -0.068     6.7227     83.594     42.508  42.339218     4.3853      8.145   242.7665 5.4407e+02     3.0388      0.911      1.321    24.8446 0.0000e+00
      0.894     -0.103     6.7673     83.747     42.517  42.340363     4.3667      8.150   242.6144 5.7246e+02     3.0389      0.884      1.281    24.8602 0.0000e+00
      0.851     -0.133     6.8363     83.659     42.514  42.336200     4.3569      8.155   242.3695 6.1930e+02     3.0294      0.834      1.211    24.8403 0.0000e+00
      0.806     -0.157     6.9012     83.421     42.527  42.352360     4.3499      8.160   242.1287 6.3872e+02     2.9919      0.788      1.143    24.8088 0.0000e+00
      0.763     -0.169     6.9426     83.111     42.511  42.345344     4.3402      8.164   242.1115 6.3257e+02     2.9621      0.749      1.086    24.7916 0.0000e+00
      0.720     -0.166     6.9538     82.822     42.468  42.314857     4.3225      8.164   242.2482 7.1511e+02     2.9078      0.708      1.027    24.7851 0.0000e+00
      0.673     -0.148     6.9436     82.652     42.444  42.301113     4.3023      8.161   242.4048 8.7738e+02     2.8469      0.662      0.960    24.7826 0.0000e+00
      0.623     -0.121     6.9220     82.672     42.449  42.306116     4.3290      8.157   242.5416 9.0311e+02     2.8755      0.607      0.881    24.7866 0.0000e+00
      0.586     -0.089     6.8917     82.873     42.455  42.311873     4.4135      8.153   242.5257 7.9675e+02     2.9800      0.565      0.819    24.7957 0.0000e+00
      0.571     -0.057     6.8626     83.132     42.444  42.307250     4.4749      8.151   242.3847 7.2446e+02     3.0512      0.554      0.803    24.8154 0.0000e+00
      0.575     -0.029     6.8442     83.349     42.437  42.313707     4.4722      8.152   242.2996 6.9080e+02     3.0536      0.562      0.816    24.8310 0.0000e+00
      0.583     -0.012     6.8457     83.562     42.432  42.326493     4.3808      8.154   242.2709 6.8373e+02     3.0090      0.573      0.832    24.8251 0.0000e+00
      0.588     -0.013     6.8683     83.826     42.422  42.334936     4.2260      8.156   241.9520 7.2638e+02     2.9218      0.578      0.838    24.8212 0.0000e+00
      0.588     -0.034     6.8926     84.106     42.426  42.352356     4.1489      8.159   241.3688 7.6768e+02     2.8530      0.577      0.838    24.8305 0.0000e+00
      0.583     -0.068     6.9060     84.391     42.417  42.346724     4.1562      8.162   240.8984 7.6399e+02     2.8602      0.574      0.833    24.8477 0.0000e+00
      0.568     -0.103     6.9179     84.715     42.403  42.330315     4.1568      8.167   240.6528 7.8836e+02     2.8721      0.565      0.819    24.8680 0.0000e+00
      0.533     -0.127     6.9391     85.000     42.418  42.344364     4.1400      8.170   240.8083 9.5878e+02     2.8949      0.531      0.771    24.8935 0.0000e+00
      0.480     -0.134     6.9612     85.152     42.458  42.389641     4.1270      8.169   241.3149 1.2270e+03     2.9310      0.471      0.683    24.9133 0.0000e+00
      0.423     -0.124     6.9805     85.212     42.479  42.433476     4.1410      8.164   241.7022 1.3512e+03     2.9328      0.408      0.593    24.9128 0.0000e+00
      0.380     -0.099     7.0124     85.321     42.435  42.430116     4.2020      8.158   241.7053 1.2060e+03     2.9162      0.363      0.526    24.9081 0.0000e+00
      0.361     -0.065     7.0404     85.629     42.378  42.412547     4.2728      8.156   241.5248 9.5216e+02     2.8677      0.347      0.502    24.9038 0.0000e+00
      0.363     -0.030     7.0506     86.185     42.348  42.411513     4.2974      8.157   241.2400 8.4042e+02     2.8242      0.354      0.512    24.9053 0.0000e+00
      0.373     -0.007     7.0484     86.971     42.330  42.417657     4.2994      8.159   240.7578 8.3003e+02     2.8347      0.367      0.532    24.9317 0.0000e+00
      0.382     -0.001     7.0432     87.894     42.321  42.423401     4.2897      8.162   240.3409 8.3460e+02     2.8581      0.377      0.547    24.9896 0.0000e+00
      0.387     -0.008     7.0622     88.789     42.318  42.417516     4.1467      8.165   240.4151 9.0690e+02     2.8334      0.381      0.553    25.0414 0.0000e+00
      0.385     -0.019     7.1045     89.551     42.320  42.409980     3.8853      8.166   240.7943 9.2592e+02     2.8093      0.381      0.552    25.0689 0.0000e+00
      0.373     -0.027     7.1671     90.091     42.307  42.395725     3.7336      8.165   240.9680 8.6553e+02     2.8398      0.371      0.537    25.1007 0.0000e+00
      0.352     -0.029     7.2470     90.276     42.276  42.372105     3.7200      8.165   240.8799 8.5845e+02     2.8954      0.344      0.498    25.1245 0.0000e+00
      0.336     -0.028     7.3242     90.158     42.282  42.378280     3.7623      8.165   240.7616 9.0027e+02     2.9348      0.323      0.468    25.1164 0.0000e+00
      0.334     -0.021     7.3904     89.953     42.319  42.406922     3.8288      8.165   240.8289 8.9809e+02     2.9406      0.325      0.473    25.0935 0.0000e+00
      0.339     -0.009     7.4428     89.745     42.319  42.401044     3.8583      8.163   241.3491 7.9926e+02     2.8964      0.335      0.487    25.0929 0.0000e+00
      0.339      0.009     7.4539     89.517     42.292  42.370673     3.8608      8.156   242.3190 6.9352e+02     2.8445      0.334      0.484    25.1130 0.0000e+00
      0.336      0.027     7.4332     89.263     42.289  42.357055     3.9593      8.146   243.0057 6.9362e+02     2.9287      0.327      0.474    25.1137 0.0000e+00
      0.338      0.039     7.4187     88.975     42.318  42.363311     4.1591      8.138   242.9403 7.4163e+02     3.0597      0.328      0.475    25.0958 0.0000e+00
      0.350      0.040     7.4035     88.638     42.364  42.382816     4.2782      8.135   242.2168 7.4853e+02     3.0962      0.339      0.491    25.0885 0.0000e+00
      0.375      0.022     7.3842     88.244     42.395  42.402430     4.2762      8.137   240.9698 7.7234e+02     3.0629      0.366      0.531    25.0911 0.0000e+00
      0.404     -0.016     7.3645     87.749     42.390  42.410031     4.1685      8.142   239.6495 8.0864e+02     2.9645      0.402      0.583    25.0809 0.0000e+00
      0.415     -0.069     7.3462     87.155     42.367  42.411286     4.0075      8.149   238.7283 8.0646e+02     2.9317      0.420      0.610    25.0506 0.0000e+00
      0.391     -0.120     7.3230     86.677     42.355  42.417639     3.9363      8.154   238.1779 8.8790e+02     3.0079      0.398      0.577    25.0091 0.0000e+00
      0.330     -0.157     7.2945     86.524     42.348  42.423404     3.9237      8.159   237.8125 1.0294e+03     3.0316      0.332      0.480    24.9877 0.0000e+00
      0.249     -0.171     7.2540     86.686     42.331  42.417534     3.8380      8.161   237.5802 1.0585e+03     2.9786      0.241      0.349    25.0125 0.0000e+00
      0.178     -0.156     7.1904     87.064     42.314  42.410155     3.6910      8.165   237.4352 1.0097e+03     2.9482      0.161      0.233    25.0508 0.0000e+00
      0.138     -0.117     7.1400     87.586     42.296  42.397669     3.6192      8.167   237.4357 9.4660e+02     2.9715      0.125      0.180    25.0701 0.0000e+00
      0.128     -0.068     7.1287     88.188     42.287  42.393515     3.6195      8.167   237.5858 8.3608e+02     2.9865      0.121      0.176    25.0820 0.0000e+00
      0.133     -0.027     7.1431     88.767     42.310  42.423410     3.6110      8.167   237.4431 7.4127e+02     2.9249      0.129      0.187    25.0976 0.0000e+00
      0.143     -0.015     7.1751     89.224     42.317  42.441782     3.5751      8.169   236.7427 7.2237e+02     2.7737      0.140      0.204    25.1094 0.0000e+00
      0.154     -0.038     7.2179     89.505     42.288  42.425267     3.5183      8.171   236.1730 7.5227e+02     2.6616      0.150      0.219    25.1147 0.0000e+00
      0.161     -0.087     7.2709     89.662     42.273  42.414157     3.4899      8.171   236.3189 8.8906e+02     2.6968      0.164      0.238    25.1191 0.0000e+00
      0.148     -0.146     7.3211     89.824     42.294  42.434398     3.4812      8.175   241.6909 1.3456e+03     2.7553      0.161      0.233    25.1249 0.0000e+00
      0.094     -0.211     7.3576     89.911     42.336  42.479592     3.3302      8.184   247.9527 2.0426e+03     2.7534      0.107      0.154    25.1409 0.0000e+00
      0.007     -0.281     7.3792     89.766     42.359  42.516310     3.0368      8.192   246.8116 2.3466e+03     2.7077      0.005      0.007    25.1604 0.0000e+00
     -0.082     -0.346     7.3815     89.437     42.380  42.561032     2.8553      8.196   244.7578 2.1642e+03     2.6468     -0.089     -0.128    25.1635 0.0000e+00
     -0.165     -0.384     7.4020     89.231     42.429  42.639541     2.7756      8.197   239.0381 2.0352e+03     2.8377     -0.153     -0.222    25.1567 0.0000e+00
     -0.267     -0.383     7.4152     89.289     42.334  42.577016     2.1321      8.199   227.1281 1.9322e+03     5.0156     -0.247     -0.358    25.1593 0.0000e+00
     -0.399     -0.349     7.3996     89.147     40.654  40.916501     0.9343      8.203   220.0906 1.6422e+03     8.8931     -0.392     -0.568    25.1757 0.0000e+00
     -0.527     -0.296     7.3592     88.454     31.612  31.828201     0.2611      8.210   219.1661 1.3284e+03    10.9161     -0.538     -0.781    25.2061 0.0000e+00
     -0.605     -0.231     7.3226     87.471     17.242  17.362205     0.1521      8.220   219.3921 1.1426e+03    10.7209     -0.617     -0.894    25.2404 0.0000e+00
     -0.630     -0.156     7.3479     86.675      9.327   9.390113    -0.1340      8.228   219.8115 9.8555e+02     6.5674     -0.623     -0.902    25.2790 0.0000e+00
     -0.633     -0.085     7.3431     86.307      7.862   7.913139    -0.6264      8.234   220.5372 7.1301e+02    -1.2148     -0.620     -0.899    25.3260 0.0000e+00
     -0.633     -0.032     7.2704     86.163      7.127   7.171079    -0.8912      8.239   221.2828 4.2957e+02    -5.5237     -0.620     -0.901    25.3454 0.0000e+00
     -0.632     -0.006     7.1761     85.855      6.587   6.627203    -0.8885      8.239   221.9436 2.9492e+02    -5.8046     -0.619     -0.898    25.3390 0.0000e+00
     -0.632      0.001     7.1015     85.260      6.432   6.469159    -0.6687      8.243   222.4191 2.6388e+02    -4.4055     -0.620     -0.899    25.3293 0.0000e+00
     -0.632      0.001     7.0822     84.552      6.932   6.970784    -0.2734      8.251   223.1592 2.5019e+02    -1.7927     -0.620     -0.899    25.3157 0.0000e+00
     -0.631      0.001     7.0868     83.907      7.078   7.116805    -0.0616      8.257   225.2147 2.3810e+02    -0.3806     -0.620     -0.898    25.3027 0.0000e+00
     -0.630      0.001     7.0679     83.614      6.803   6.840685    -0.0468      8.259   226.7083 2.2204e+02    -0.2779     -0.618     -0.896    25.2927 0.0000e+00
     -0.630 -9.990e-29     7.0086 -9.990e-29 -9.990e-29 -9.990e-29 -9.990e-29 -9.990e-29 -9.990e-29 2.0609e+02 -9.990e-29     -0.618     -0.896    25.2836 0.0000e+00
     -0.630 -9.990e-29     6.9508 -9.990e-29 -9.990e-29 -9.990e-29 -9.990e-29 -9.990e-29 -9.990e-29 1.9652e+02 -9.990e-29     -0.618     -0.896    25.2752 0.0000e+00
     -0.630 -9.990e-29     6.8907 -9.990e-29 -9.990e-29 -9.990e-29 -9.990e-29 -9.990e-29 -9.990e-29 1.9411e+02 -9.990e-29     -0.618     -0.896    25.2685 0.0000e+00
     -0.630 -9.990e-29     6.8508 -9.990e-29 -9.990e-29 -9.990e-29 -9.990e-29 -9.990e-29 -9.990e-29 1.9423e+02 -9.990e-29     -0.618     -0.896    25.2654 0.0000e+00
