* Sea-Bird SBE19plus  Data File:
* FileName = C:\DATA\090318_FCR50_0003.hex
* Software version 2.6.3.104 SB_Terminal.dll
* Temperature SN = 7809
* Conductivity SN = 7809
* System UpLoad Time = Sep 03 2018 15:38:33
* <ApplicationData>
* <Seaterm232>
* <SoftwareVersion>2.6.3.104</SoftwareVersion>
* <BuildDate>30-Jun-2017</BuildDate>
* </Seaterm232>
* </ApplicationData>
* cast   3 03 Sep 2018 15:10:11 samples 2243 to 3091, avg = 1, stop = mag switch
# nquan = 15
# nvalues = 687                         
# units = specified
# name 0 = depFM: Depth [fresh water, m]
# name 1 = dz/dtM: Descent Rate [m/s]
# name 2 = sbeox0Mg/L: Oxygen, SBE 43 [mg/l]
# name 3 = sbeox0PS: Oxygen, SBE 43 [% saturation]
# name 4 = specc: Specific Conductance [uS/cm]
# name 5 = c0uS/cm: Conductivity [uS/cm]
# name 6 = flECO-AFL: Fluorescence, WET Labs ECO-AFL/FL [mg/m^3]
# name 7 = ph: pH
# name 8 = orp: Oxidation Reduction Potential [mV]
# name 9 = par/sat/log: PAR/Logarithmic, Satlantic
# name 10 = turbWETntu0: Turbidity, WET Labs ECO [NTU]
# name 11 = prdM: Pressure, Strain Gauge [db]
# name 12 = prdE: Pressure, Strain Gauge [psi]
# name 13 = tv290C: Temperature [ITS-90, deg C]
# name 14 = flag:  0.000e+00
# span 0 =     -0.456,      3.228       
# span 1 =     -0.166,      0.158       
# span 2 =     0.0740,     9.8807       
# span 3 =      0.853,    122.004       
# span 4 =      2.033,     71.822       
# span 5 =   2.168455,  64.447505       
# span 6 =    -0.1339,    17.2307       
# span 7 =      6.607,      8.588       
# span 8 =   129.8565,   256.1397       
# span 9 = 2.0661e+01, 2.0912e+03       
# span 10 =    -0.5279,    38.3990      
# span 11 =     -0.448,      3.166      
# span 12 =     -0.649,      4.592      
# span 13 =    19.8207,    28.3244      
# span 14 = 0.0000e+00, 0.0000e+00      
# interval = seconds: 0.25
# start_time = Sep 03 2018 15:10:11 [Instrument's time stamp, header]
# bad_flag = -9.990e-29
# <Sensors count="9" >
#   <sensor Channel="1" >
#     <!-- Count, Temperature -->
#     <TemperatureSensor SensorID="58" >
#       <SerialNumber>7809</SerialNumber>
#       <CalibrationDate>09-Mar-18</CalibrationDate>
#       <A0>1.21093245e-003</A0>
#       <A1>2.84356597e-004</A1>
#       <A2>-1.94507398e-006</A2>
#       <A3>2.12806664e-007</A3>
#       <Slope>1.00000000</Slope>
#       <Offset>0.0000</Offset>
#     </TemperatureSensor>
#   </sensor>
#   <sensor Channel="2" >
#     <!-- Frequency 0, Conductivity -->
#     <ConductivitySensor SensorID="3" >
#       <SerialNumber>7809</SerialNumber>
#       <CalibrationDate>09-Mar-18</CalibrationDate>
#       <UseG_J>1</UseG_J>
#       <!-- Cell const and series R are applicable only for wide range sensors. -->
#       <SeriesR>0.0000</SeriesR>
#       <CellConst>2000.0000</CellConst>
#       <ConductivityType>0</ConductivityType>
#       <Coefficients equation="0" >
#         <A>0.00000000e+000</A>
#         <B>0.00000000e+000</B>
#         <C>0.00000000e+000</C>
#         <D>0.00000000e+000</D>
#         <M>0.0</M>
#         <CPcor>-9.57000000e-008</CPcor>
#       </Coefficients>
#       <Coefficients equation="1" >
#         <G>-1.00672082e+000</G>
#         <H>1.26906489e-001</H>
#         <I>-1.40584351e-004</I>
#         <J>2.47837121e-005</J>
#         <CPcor>-9.57000000e-008</CPcor>
#         <CTcor>3.2500e-006</CTcor>
#         <!-- WBOTC not applicable unless ConductivityType = 1. -->
#         <WBOTC>0.00000000e+000</WBOTC>
#       </Coefficients>
#       <Slope>1.00000000</Slope>
#       <Offset>0.00000</Offset>
#     </ConductivitySensor>
#   </sensor>
#   <sensor Channel="3" >
#     <!-- Count, Pressure, Strain Gauge -->
#     <PressureSensor SensorID="46" >
#       <SerialNumber>7809</SerialNumber>
#       <CalibrationDate>07-Mar-18</CalibrationDate>
#       <PA0>-4.08176359e-002</PA0>
#       <PA1>4.85188419e-004</PA1>
#       <PA2>-3.51168169e-012</PA2>
#       <PTEMPA0>-5.37806900e+001</PTEMPA0>
#       <PTEMPA1>5.36620721e+001</PTEMPA1>
#       <PTEMPA2>4.87214332e-002</PTEMPA2>
#       <PTCA0>5.25213435e+005</PTCA0>
#       <PTCA1>1.79532409e+000</PTCA1>
#       <PTCA2>-2.84353509e-001</PTCA2>
#       <PTCB0>2.51668750e+001</PTCB0>
#       <PTCB1>3.75000000e-004</PTCB1>
#       <PTCB2>0.00000000e+000</PTCB2>
#       <Offset>0.000000</Offset>
#     </PressureSensor>
#   </sensor>
#   <sensor Channel="4" >
#     <!-- A/D voltage 0, pH -->
#     <pH_Sensor SensorID="43" >
#       <SerialNumber>0363</SerialNumber>
#       <CalibrationDate>16-Mar-18</CalibrationDate>
#       <Slope>4.6194</Slope>
#       <Offset>2.5947</Offset>
#     </pH_Sensor>
#   </sensor>
#   <sensor Channel="5" >
#     <!-- A/D voltage 1, Oxidation Reduction Potential -->
#     <OxidationReductionPotentialSensor SensorID="41" >
#       <SerialNumber>0363</SerialNumber>
#       <CalibrationDate>16-Mar-18</CalibrationDate>
#       <B>2.499480</B>
#       <M>-0.496195</M>
#       <Offset>0.0</Offset>
#     </OxidationReductionPotentialSensor>
#   </sensor>
#   <sensor Channel="6" >
#     <!-- A/D voltage 2, Oxygen, SBE 43 -->
#     <OxygenSensor SensorID="38" >
#       <SerialNumber>0434</SerialNumber>
#       <CalibrationDate>13-Mar-18</CalibrationDate>
#       <Use2007Equation>1</Use2007Equation>
#       <CalibrationCoefficients equation="0" >
#         <!-- Coefficients for Owens-Millard equation. -->
#         <Boc>0.0000</Boc>
#         <Soc>0.0000e+000</Soc>
#         <offset>0.0000</offset>
#         <Pcor>0.00e+000</Pcor>
#         <Tcor>0.0000</Tcor>
#         <Tau>0.0</Tau>
#       </CalibrationCoefficients>
#       <CalibrationCoefficients equation="1" >
#         <!-- Coefficients for Sea-Bird equation - SBE calibration in 2007 and later. -->
#         <Soc>4.5718e-001</Soc>
#         <offset>-0.6113</offset>
#         <A>-4.0649e-003</A>
#         <B> 2.0945e-004</B>
#         <C>-3.3182e-006</C>
#         <D0> 2.5826e+000</D0>
#         <D1> 1.92634e-004</D1>
#         <D2>-4.64803e-002</D2>
#         <E> 3.6000e-002</E>
#         <Tau20> 1.2200</Tau20>
#         <H1>-3.3000e-002</H1>
#         <H2> 5.0000e+003</H2>
#         <H3> 1.4500e+003</H3>
#       </CalibrationCoefficients>
#     </OxygenSensor>
#   </sensor>
#   <sensor Channel="7" >
#     <!-- A/D voltage 3, PAR/Logarithmic, Satlantic -->
#     <PARLog_SatlanticSensor SensorID="76" >
#       <SerialNumber>1122</SerialNumber>
#       <CalibrationDate>22-Jun-2017</CalibrationDate>
#       <a0>9.6090e-001</a0>
#       <a1>8.0780e-001</a1>
#       <Im>1.3589e+000</Im>
#       <Multiplier>1.0000e+000</Multiplier>
#     </PARLog_SatlanticSensor>
#   </sensor>
#   <sensor Channel="8" >
#     <!-- A/D voltage 4, Fluorometer, WET Labs ECO-AFL/FL -->
#     <FluoroWetlabECO_AFL_FL_Sensor SensorID="20" >
#       <SerialNumber>FLNTURT-2496</SerialNumber>
#       <CalibrationDate>25-Jan-2017</CalibrationDate>
#       <ScaleFactor>5.30000000e+001</ScaleFactor>
#       <!-- Dark output -->
#       <Vblank>0.0560</Vblank>
#     </FluoroWetlabECO_AFL_FL_Sensor>
#   </sensor>
#   <sensor Channel="9" >
#     <!-- A/D voltage 5, Turbidity Meter, WET Labs, ECO-NTU -->
#     <TurbidityMeter SensorID="67" >
#       <SerialNumber>FLNTURT-2496</SerialNumber>
#       <CalibrationDate>25-Jan-2017</CalibrationDate>
#       <ScaleFactor>176.000000</ScaleFactor>
#       <!-- Dark output -->
#       <DarkVoltage>0.072000</DarkVoltage>
#     </TurbidityMeter>
#   </sensor>
# </Sensors>
# datcnv_date = Sep 03 2018 15:48:59, 7.26.7.114 [datcnv_vars = 14]
# datcnv_in = C:\DATA\090318_fcr20.hex C:\DATA\SBE19plusV2_7809.xmlcon
# datcnv_skipover = 0
# datcnv_ox_hysteresis_correction = yes
# datcnv_ox_tau_correction = yes
# filter_date = Sep 03 2018 15:49:52, 7.26.7.114
# filter_in = C:\DATA\090318_fcr20.cnv
# filter_low_pass_tc_A = 0.030
# filter_low_pass_tc_B = 0.150
# filter_low_pass_A_vars = prdM prdE tv290C
# filter_low_pass_B_vars = depFM dz/dtM sbeox0Mg/L sbeox0PS specc c0uS/cm flECO-AFL ph orp par/sat/log turbWETntu0
# alignctd_date = Sep 03 2018 15:50:15, 7.26.7.114
# alignctd_in = C:\DATA\090318_fcr20.cnv
# alignctd_adv = dz/dtM 1.000, sbeox0Mg/L 1.000, sbeox0PS 1.000, specc 1.000, c0uS/cm 1.000, flECO-AFL 1.000, ph 1.000, orp 1.000, turbWETntu0 1.000                                                                                 
# file_type = ascii
*END*
     -0.456 8.3266e-11     7.7008     98.946      2.033   2.168455    -0.1339      6.684   161.8478 1.8326e+03    -0.5232     -0.447     -0.648    28.3193 0.0000e+00
     -0.456 9.1592e-10     7.7007     98.945      2.187   2.332504    -0.1290      6.684   161.6450 1.7235e+03    -0.5279     -0.447     -0.648    28.3195 0.0000e+00
     -0.456 1.0075e-08     7.7009     98.948      2.362   2.518514    -0.1302      6.674   160.1248 1.5102e+03    -0.1185     -0.446     -0.647    28.3198 0.0000e+00
     -0.456 1.1083e-07     7.7019     98.963      2.477   2.641838    -0.1024      6.667   157.2336 1.1924e+03     0.8250     -0.447     -0.648    28.3205 0.0000e+00
     -0.456      0.000     7.7020     98.965      2.693   2.872356    -0.0499      6.668   156.0274 1.0311e+03     1.5411     -0.447     -0.649    28.3216 0.0000e+00
     -0.456      0.000     7.7014     98.952      3.191   3.403131    -0.0195      6.669   158.1015 1.2775e+03     1.7047     -0.447     -0.648    28.3219 0.0000e+00
     -0.456      0.000     7.7025     98.954      3.560   3.795625     0.0175      6.673   160.6303 1.5862e+03     1.7658     -0.447     -0.648    28.3224 0.0000e+00
     -0.456      0.002     7.7044     98.951      3.517   3.749399     0.3236      6.688   165.6089 1.6991e+03     2.4020     -0.447     -0.649    28.3229 0.0000e+00
     -0.456      0.008     7.7079     98.943      3.443   3.668683     0.8694      6.726   170.9756 1.7127e+03     3.5070     -0.447     -0.648    28.3244 0.0000e+00
     -0.456      0.021     7.7186     98.950      4.383   4.658873     1.1667      6.837   172.4322 1.6740e+03     4.1089     -0.447     -0.649    28.3220 0.0000e+00
     -0.456      0.040     7.7389     98.952      8.736   9.252373     1.2807      7.052   172.2080 1.6169e+03     4.1859     -0.446     -0.647    28.3173 0.0000e+00
     -0.451      0.057     7.7629     98.947     14.787  15.623675     2.2301      7.322   170.7602 1.5628e+03     4.1934     -0.448     -0.649    28.3005 0.0000e+00
     -0.431      0.068     7.7835     98.950     18.090  19.072370     3.9514      7.597   174.8882 1.5387e+03     4.2002     -0.432     -0.626    28.2801 0.0000e+00
     -0.396      0.076     7.7978     98.954     22.434  23.603835     4.8798      7.859   187.0148 1.5997e+03     4.2072     -0.387     -0.560    28.2288 0.0000e+00
     -0.363      0.082     7.8068     98.951     29.968  31.493275     4.8529      8.104   193.3135 1.6992e+03     4.1862     -0.348     -0.505    28.0591 0.0000e+00
     -0.346      0.086     7.8134     98.951     34.930  36.680106     3.6631      8.305   183.3319 1.6606e+03     3.7942     -0.336     -0.486    27.8473 0.0000e+00
     -0.337      0.085     7.8191     98.958     36.202  37.990600     1.4759      8.435   172.2423 1.6037e+03     3.0068     -0.335     -0.485    27.7018 0.0000e+00
     -0.322      0.080     7.8238     98.972     36.471  38.254384     0.2899      8.507   167.4681 1.7573e+03     2.6317     -0.322     -0.466    27.6062 0.0000e+00
     -0.296      0.077     7.8268     98.984     36.568  38.344768     0.2138      8.544   155.6349 1.9337e+03     3.4392     -0.291     -0.421    27.5414 0.0000e+00
     -0.267      0.074     7.8296     99.000     36.613  38.384584     0.4813      8.569   156.8501 2.0016e+03    12.4038     -0.259     -0.375    27.4982 0.0000e+00
     -0.243      0.067     7.8333     99.024     36.655  38.418142     0.9968      8.587   168.9971 2.0345e+03    28.7768     -0.235     -0.341    27.4612 0.0000e+00
     -0.228      0.056     7.8362     99.035     36.679  38.432848     1.3004      8.588   172.0677 2.0339e+03    37.6735     -0.222     -0.322    27.4327 0.0000e+00
     -0.219      0.043     7.8387     99.045     36.689  38.435323     1.3409      8.578   180.1243 1.9970e+03    38.3990     -0.214     -0.310    27.4226 0.0000e+00
     -0.214      0.033     7.8411     99.059     36.708  38.448046     1.3390      8.564   187.4249 1.9496e+03    37.6399     -0.209     -0.304    27.4154 0.0000e+00
     -0.210      0.029     7.8426     99.063     36.725  38.459608     1.4705      8.545   184.0216 1.9214e+03    28.4037     -0.206     -0.299    27.3996 0.0000e+00
     -0.206      0.033     7.8449     99.070     36.722  38.448050     1.7453      8.514   169.0888 1.9274e+03    11.4740     -0.204     -0.296    27.3832 0.0000e+00
     -0.199      0.044     7.8489     99.090     36.722  38.435346     1.8950      8.460   156.1524 1.9514e+03     2.2285     -0.195     -0.283    27.3712 0.0000e+00
     -0.189      0.064     7.8565     99.141     36.738  38.433048     1.9030      8.390   151.9347 1.9667e+03     1.3653     -0.184     -0.268    27.3630 0.0000e+00
     -0.174      0.089     7.8728     99.284     36.750  38.420243     1.9157      8.316   140.6353 2.0051e+03     1.3419     -0.175     -0.254    27.3566 0.0000e+00
     -0.151      0.115     7.8985     99.545     36.763  38.407533     1.9473      8.251   131.0385 2.0802e+03     1.4579     -0.151     -0.220    27.3446 0.0000e+00
     -0.117      0.139     7.9293     99.883     36.782  38.406380     1.9715      8.201   129.8565 2.0912e+03     1.5160     -0.118     -0.173    27.3287 0.0000e+00
     -0.071      0.154     7.9594    100.225     36.797  38.406275     1.9790      8.161   130.1290 1.6261e+03     1.4949     -0.073     -0.105    27.3054 0.0000e+00
     -0.020      0.158     7.9847    100.517     36.807  38.406236     1.9920      8.128   132.4412 7.8767e+02     1.4780     -0.017     -0.024    27.2647 0.0000e+00
      0.028      0.149     8.0012    100.697     36.817  38.405881     2.0185      8.103   135.0985 6.7257e+02     1.4952      0.028      0.041    27.2250 0.0000e+00
      0.071      0.129     7.9949    100.571     36.832  38.401976     2.0334      8.087   134.9830 1.3486e+03     1.5188      0.073      0.107    27.1988 0.0000e+00
      0.102      0.105     7.9596    100.037     36.827  38.358999     2.0436      8.076   134.0568 1.7004e+03     1.5193      0.107      0.156    27.1781 0.0000e+00
      0.120      0.080     7.9079     99.247     36.795  38.267367     2.1502      8.069   134.3108 1.5327e+03     1.5319      0.119      0.173    27.1642 0.0000e+00
      0.130      0.058     7.8476     98.316     36.784  38.183389     2.3480      8.064   135.5587 1.4018e+03     1.5492      0.128      0.186    27.1539 0.0000e+00
      0.137      0.039     7.7781     97.269     36.780  38.105860     2.4685      8.062   142.9504 1.2039e+03     1.5450      0.134      0.194    27.1334 0.0000e+00
      0.146      0.025     7.7017     96.158     36.769  38.028683     2.4863      8.062   151.8405 7.5188e+02     1.5732      0.143      0.206    27.0851 0.0000e+00
      0.155      0.015     7.6318     95.171     36.801  38.012488     2.3988      8.064   157.6972 4.5698e+02     1.6148      0.154      0.224    27.0020 0.0000e+00
      0.159      0.006     7.5828     94.504     36.849  38.037026     2.2188      8.067   171.3463 6.2739e+02     1.5903      0.159      0.229    26.8964 0.0000e+00
      0.157      0.000     7.5570     94.189     36.879  38.071223     2.1108      8.072   184.8868 1.1220e+03     1.5223      0.154      0.223    26.7907 0.0000e+00
      0.152     -0.005     7.5603     94.275     36.895  38.108328     2.1031      8.075   179.7929 1.4784e+03     1.4942      0.149      0.217    26.6991 0.0000e+00
      0.148     -0.005     7.5982     94.800     36.870  38.104515     2.1077      8.076   162.4974 1.5056e+03     1.5242      0.145      0.210    26.6271 0.0000e+00
      0.144     -0.001     7.6498     95.484     36.838  38.088682     2.1031      8.077   160.6669 1.4245e+03     1.5500      0.141      0.204    26.5914 0.0000e+00
      0.143      0.005     7.6811     95.903     36.844  38.107505     2.1019      8.079   167.5557 1.3845e+03     1.5311      0.139      0.202    26.6013 0.0000e+00
      0.146      0.010     7.6762     95.866     36.867  38.141532     2.1022      8.081   158.8899 1.3671e+03     1.5093      0.142      0.205    26.6370 0.0000e+00
      0.153      0.014     7.6359     95.388     36.897  38.182468     2.1159      8.082   149.4997 1.3721e+03     1.5006      0.150      0.217    26.6705 0.0000e+00
      0.161      0.016     7.5682     94.563     36.925  38.221304     2.2489      8.085   147.7163 1.4174e+03     1.4862      0.160      0.231    26.6932 0.0000e+00
      0.165      0.017     7.4783     93.448     36.930  38.229926     2.4784      8.090   146.2754 1.4733e+03     1.4883      0.163      0.236    26.7085 0.0000e+00
      0.167      0.019     7.3679     92.060     36.927  38.223206     2.6028      8.095   148.0808 1.4641e+03     1.4959      0.164      0.239    26.7212 0.0000e+00
      0.168      0.021     7.2629     90.729     36.917  38.203567     2.6226      8.101   151.4772 1.3282e+03     1.4855      0.166      0.241    26.7357 0.0000e+00
      0.171      0.024     7.2048     89.975     36.910  38.183052     2.6449      8.108   157.5718 1.2194e+03     1.4849      0.165      0.240    26.7515 0.0000e+00
      0.179      0.029     7.2109     90.013     36.910  38.165719     2.6704      8.117   162.8327 1.1643e+03     1.4894      0.172      0.251    26.7571 0.0000e+00
      0.192      0.032     7.2654     90.652     36.885  38.121031     2.6823      8.126   156.0634 1.0914e+03     1.4789      0.189      0.275    26.7487 0.0000e+00
      0.204      0.033     7.3353     91.481     36.871  38.087418     2.6785      8.136   148.3424 1.0264e+03     1.4795      0.201      0.292    26.7381 0.0000e+00
      0.212      0.032     7.3919     92.141     36.880  38.076921     2.6251      8.146   148.2048 8.4973e+02     1.4960      0.209      0.302    26.7223 0.0000e+00
      0.219      0.028     7.4233     92.490     36.880  38.057599     2.5330      8.158   150.7853 6.9687e+02     1.5260      0.215      0.311    26.6963 0.0000e+00
      0.225      0.023     7.4269     92.500     36.882  38.044354     2.4839      8.169   153.9035 6.4797e+02     1.5374      0.222      0.322    26.6689 0.0000e+00
      0.230      0.018     7.4088     92.253     36.890  38.043824     2.4812      8.178   154.8463 5.0244e+02     1.5117      0.226      0.329    26.6445 0.0000e+00
      0.233      0.013     7.3885     91.989     36.902  38.051170     2.5459      8.184   154.1833 3.7715e+02     1.4901      0.228      0.331    26.6154 0.0000e+00
      0.236      0.008     7.3850     91.938     36.923  38.069641     2.6686      8.189   155.6955 4.6925e+02     1.4901      0.230      0.334    26.5874 0.0000e+00
      0.239      0.004     7.4051     92.179     36.934  38.076566     2.7334      8.196   161.0848 6.6238e+02     1.5112      0.235      0.340    26.5672 0.0000e+00
      0.241      0.001     7.4425     92.634     36.933  38.071369     2.7327      8.205   172.5394 6.4661e+02     1.5011      0.238      0.345    26.5540 0.0000e+00
      0.238      0.001     7.4830     93.128     36.937  38.070320     2.7237      8.211   187.5900 4.6294e+02     1.4905      0.233      0.339    26.5502 0.0000e+00
      0.234      0.001     7.5073     93.418     36.936  38.063872     2.6625      8.215   186.9850 4.0089e+02     1.5352      0.228      0.331    26.5470 0.0000e+00
      0.234      0.001     7.4961     93.269     36.933  38.056922     2.5527      8.217   171.5910 5.2883e+02     1.5528      0.230      0.332    26.5406 0.0000e+00
      0.237      0.002     7.4413     92.582     36.929  38.049821     2.4988      8.219   170.9593 7.1141e+02     1.5207      0.233      0.338    26.5341 0.0000e+00
      0.239      0.005     7.3473     91.413     36.920  38.041535     2.4981      8.222   180.1218 7.3646e+02     1.5136      0.235      0.341    26.5276 0.0000e+00
      0.239      0.006     7.2277     89.934     36.896  38.020266     2.5445      8.224   182.8264 6.9262e+02     1.5278      0.235      0.341    26.5206 0.0000e+00
      0.240      0.005     7.1002     88.360     36.854  37.983256     2.6370      8.227   190.1522 8.6543e+02     1.5400      0.234      0.340    26.5140 0.0000e+00
      0.243      0.003     6.9874     86.969     36.841  37.975232     2.6877      8.232   197.0273 1.1540e+03     1.5391      0.238      0.346    26.5103 0.0000e+00
      0.246      0.001     6.9152     86.081     36.846  37.986783     2.6887      8.237   189.5499 1.2532e+03     1.5165      0.243      0.352    26.5100 0.0000e+00
      0.246      0.000     6.8969     85.866     36.849  37.995864     2.6857      8.239   174.2532 1.1302e+03     1.5111      0.241      0.351    26.5162 0.0000e+00
      0.244     -0.002     6.9250     86.230     36.868  38.021520     2.6892      8.240   174.0877 9.6371e+02     1.5355      0.238      0.347    26.5263 0.0000e+00
      0.242     -0.005     6.9799     86.925     36.884  38.042882     2.6942      8.244   190.0449 8.5571e+02     1.5672      0.237      0.344    26.5330 0.0000e+00
      0.240     -0.008     7.0354     87.625     36.900  38.063569     2.6906      8.249   199.4139 7.7396e+02     1.5582      0.236      0.342    26.5397 0.0000e+00
      0.239     -0.010     7.0726     88.092     36.916  38.081057     2.6460      8.254   200.3808 6.9777e+02     1.5181      0.235      0.341    26.5496 0.0000e+00
      0.238     -0.011     7.0927     88.337     36.901  38.063746     2.5599      8.260   200.5313 5.5016e+02     1.4785      0.234      0.340    26.5581 0.0000e+00
      0.234     -0.010     7.1077     88.513     36.887  38.044841     2.5033      8.265   200.0293 4.9605e+02     1.4768      0.230      0.334    26.5649 0.0000e+00
      0.228     -0.008     7.1259     88.736     36.888  38.043070     2.4939      8.269   192.0738 7.0561e+02     1.5281      0.223      0.324    26.5716 0.0000e+00
      0.223     -0.005     7.1423     88.947     36.884  38.042325     2.4747      8.270   176.7018 7.6386e+02     1.5499      0.217      0.314    26.5748 0.0000e+00
      0.222     -0.003     7.1493     89.045     36.873  38.035838     2.4363      8.270   167.8335 5.2790e+02     1.5268      0.216      0.314    26.5706 0.0000e+00
      0.226     -0.001     7.1516     89.078     36.863  38.028173     2.4252      8.271   166.3277 4.1964e+02     1.5234      0.222      0.322    26.5621 0.0000e+00
      0.230      0.001     7.1601     89.184     36.849  38.013177     2.4419      8.272   165.0338 4.7327e+02     1.5392      0.226      0.328    26.5568 0.0000e+00
      0.230      0.003     7.1804     89.437     36.818  37.981584     2.5089      8.274   165.7830 5.2272e+02     1.5341      0.226      0.328    26.5628 0.0000e+00
      0.227      0.003     7.2047     89.747     36.797  37.963826     2.6196      8.276   168.1599 5.6254e+02     1.5221      0.222      0.323    26.5739 0.0000e+00
      0.226      0.003     7.2172     89.915     36.816  37.989065     2.6776      8.276   174.3272 5.6256e+02     1.5165      0.220      0.319    26.5755 0.0000e+00
      0.226      0.003     7.2058     89.779     36.855  38.032634     2.6862      8.279   187.4363 5.1285e+02     1.4965      0.221      0.321    26.5732 0.0000e+00
      0.229      0.004     7.1669     89.290     36.870  38.045916     2.6866      8.284   198.0324 4.2084e+02     1.4635      0.225      0.326    26.5723 0.0000e+00
      0.233      0.005     7.1010     88.466     36.850  38.022597     2.7007      8.289   201.5208 3.9149e+02     1.4538      0.230      0.332    26.5762 0.0000e+00
      0.234      0.005     7.0135     87.379     36.831  38.004802     2.7287      8.292   201.8236 3.9950e+02     1.4715      0.231      0.335    26.5895 0.0000e+00
      0.234      0.004     6.9120     86.121     36.844  38.021348     2.7402      8.293   194.1218 3.6078e+02     1.4640      0.229      0.333    26.5940 0.0000e+00
      0.234      0.004     6.8019     84.756     36.851  38.032070     2.7571      8.292   178.8643 3.7067e+02     1.4536      0.228      0.331    26.5860 0.0000e+00
      0.235      0.004     6.6907     83.375     36.825  38.007394     2.8503      8.291   170.4968 4.9578e+02     1.4986      0.229      0.333    26.5828 0.0000e+00
      0.236      0.004     6.5872     82.086     36.795  37.977102     2.9939      8.290   169.9560 7.1214e+02     1.5501      0.231      0.335    26.5871 0.0000e+00
      0.238      0.003     6.4946     80.934     36.801  37.983467     3.0607      8.290   168.4537 8.5887e+02     1.5579      0.233      0.339    26.5919 0.0000e+00
      0.240      0.000     6.4125     79.913     36.836  38.020827     3.0599      8.291   166.4428 8.7592e+02     1.5624      0.236      0.342    26.5956 0.0000e+00
      0.240     -0.002     6.3378     78.989     36.859  38.047643     2.9477      8.292   165.3459 8.6222e+02     1.5739      0.236      0.342    26.5989 0.0000e+00
      0.239     -0.004     6.2702     78.156     36.859  38.053578     2.7241      8.292   164.9132 7.1612e+02     1.5446      0.235      0.341    26.5999 0.0000e+00
      0.235     -0.006     6.2160     77.494     36.829  38.029075     2.6164      8.294   165.8570 4.4930e+02     1.5134      0.232      0.336    26.6003 0.0000e+00
      0.231     -0.006     6.1765     77.014     36.799  38.005501     2.6289      8.297   167.2929 3.1588e+02     1.5321      0.226      0.328    26.6017 0.0000e+00
      0.230     -0.006     6.1433     76.604     36.814  38.022672     2.6738      8.300   167.2174 3.2310e+02     1.5575      0.224      0.325    26.6060 0.0000e+00
      0.231     -0.006     6.1077     76.158     36.837  38.046103     2.7543      8.302   166.3212 3.2367e+02     1.5452      0.226      0.328    26.6126 0.0000e+00
      0.231     -0.006     6.0681     75.668     36.824  38.034691     2.8037      8.303   165.7501 3.1093e+02     1.5364      0.227      0.329    26.6237 0.0000e+00
      0.230     -0.006     6.0295     75.193     36.799  38.011744     2.8204      8.301   165.3884 3.1970e+02     1.5734      0.225      0.327    26.6358 0.0000e+00
      0.227     -0.008     5.9940     74.760     36.805  38.022777     2.8640      8.300   165.3891 4.7076e+02     1.5653      0.222      0.322    26.6365 0.0000e+00
      0.223     -0.013     5.9594     74.335     36.819  38.041038     2.9174      8.303   165.7589 8.3369e+02     1.5291      0.219      0.317    26.6330 0.0000e+00
      0.221     -0.021     5.9245     73.904     36.817  38.041960     2.9421      8.309   165.9873 1.1602e+03     1.5327      0.217      0.315    26.6347 0.0000e+00
      0.218     -0.032     5.8921     73.510     36.803  38.033934     2.9521      8.315   165.9994 1.2652e+03     1.5174      0.215      0.312    26.6412 0.0000e+00
      0.213     -0.042     5.8664     73.207     36.768  38.007537     2.9457      8.320   166.3368 1.0318e+03     1.4971      0.211      0.307    26.6493 0.0000e+00
      0.199     -0.052     5.8473     72.986     36.730  37.976923     2.8366      8.323   166.8823 5.4000e+02     1.5014      0.199      0.288    26.6544 0.0000e+00
      0.179     -0.058     5.8300     72.777     36.730  37.981437     2.6535      8.323   167.1746 2.8010e+02     1.5383      0.177      0.256    26.6553 0.0000e+00
      0.158     -0.059     5.8100     72.529     36.746  37.998591     2.5607      8.322   167.3758 6.1356e+02     1.5769      0.153      0.222    26.6615 0.0000e+00
      0.139     -0.055     5.7864     72.237     36.741  37.993745     2.5420      8.319   167.7668 1.2688e+03     1.5717      0.134      0.195    26.6793 0.0000e+00
      0.126     -0.048     5.7604     71.916     36.732  37.986383     2.4275      8.314   168.1161 1.6098e+03     1.5367      0.121      0.175    26.6949 0.0000e+00
      0.118     -0.039     5.7366     71.621     36.717  37.973104     2.2237      8.306   168.2432 1.6158e+03     1.4891      0.114      0.166    26.6985 0.0000e+00
      0.113     -0.031     5.7201     71.421     36.701  37.960252     2.1174      8.299   168.3575 1.5760e+03     1.4840      0.112      0.163    26.6968 0.0000e+00
      0.108     -0.023     5.7108     71.312     36.695  37.958051     2.1164      8.292   168.5513 1.5550e+03     1.5362      0.108      0.157    26.6980 0.0000e+00
      0.099     -0.013     5.7060     71.259     36.680  37.946505     2.1298      8.283   168.7800 1.5817e+03     1.5708      0.098      0.142    26.7023 0.0000e+00
      0.092     -0.005     5.7057     71.260     36.679  37.947701     2.1495      8.275   168.8865 1.6138e+03     1.5673      0.088      0.127    26.7033 0.0000e+00
      0.090      0.001     5.7111     71.337     36.697  37.972520     2.1617      8.271   168.8921 1.5322e+03     1.5547      0.084      0.122    26.7078 0.0000e+00
      0.096      0.005     5.7243     71.529     36.701  37.992479     2.1672      8.271   168.9335 1.3601e+03     1.5405      0.094      0.136    26.7155 0.0000e+00
      0.106      0.007     5.7504     71.895     36.685  37.998466     2.1978      8.273   169.0427 1.2917e+03     1.5175      0.108      0.156    26.7195 0.0000e+00
      0.111      0.007     5.7950     72.479     36.654  37.981411     2.2568      8.276   169.1803 1.3152e+03     1.4900      0.112      0.163    26.7229 0.0000e+00
      0.108      0.005     5.8641     73.348     36.647  37.976890     2.2915      8.280   169.2208 1.3293e+03     1.4828      0.106      0.154    26.7237 0.0000e+00
      0.104      0.002     5.9560     74.492     36.680  38.007333     2.2960      8.284   169.2734 1.3167e+03     1.4916      0.101      0.146    26.7463 0.0000e+00
      0.103      0.001     6.0565     75.744     36.706  38.031845     2.3293      8.289   169.4720 1.2181e+03     1.5042      0.100      0.144    26.7895 0.0000e+00
      0.105      0.003     6.1501     76.911     36.695  38.019135     2.3915      8.293   169.7294 9.8421e+02     1.5135      0.103      0.149    26.8116 0.0000e+00
      0.109      0.005     6.2262     77.862     36.659  37.980719     2.4227      8.296   169.9765 7.1433e+02     1.5116      0.107      0.155    26.8084 0.0000e+00
      0.111      0.006     6.2812     78.554     36.626  37.948529     2.4212      8.296   170.2233 5.4635e+02     1.5129      0.109      0.158    26.8018 0.0000e+00
      0.112      0.005     6.3144     78.974     36.622  37.947582     2.4206      8.297   170.3901 4.4470e+02     1.4993      0.110      0.159    26.7995 0.0000e+00
      0.114      0.003     6.3261     79.127     36.640  37.969262     2.4332      8.299   170.4443 3.6866e+02     1.4689      0.112      0.162    26.7965 0.0000e+00
      0.114      0.001     6.3183     79.037     36.624  37.956549     2.4454      8.299   170.4485 4.5290e+02     1.4503      0.113      0.164    26.7951 0.0000e+00
      0.113      0.001     6.2944     78.743     36.587  37.920931     2.4399      8.299   170.5275 7.7276e+02     1.4570      0.111      0.161    26.7983 0.0000e+00
      0.111      0.001     6.2611     78.331     36.584  37.919784     2.4399      8.298   170.7966 1.0946e+03     1.4894      0.109      0.158    26.8030 0.0000e+00
      0.111      0.001     6.2250     77.883     36.604  37.942685     2.4723      8.297   171.1208 1.1314e+03     1.5060      0.108      0.157    26.8078 0.0000e+00
      0.113      0.001     6.1896     77.442     36.604  37.943717     2.5188      8.297   171.3513 8.8066e+02     1.5056      0.110      0.160    26.8125 0.0000e+00
      0.116      0.001     6.1539     76.998     36.591  37.932270     2.5436      8.298   171.5175 5.7030e+02     1.5147      0.114      0.165    26.8166 0.0000e+00
      0.117      0.002     6.1179     76.551     36.589  37.931332     2.5515      8.298   171.5810 6.0959e+02     1.5248      0.116      0.168    26.8196 0.0000e+00
      0.115      0.002     6.0845     76.135     36.589  37.932382     2.5588      8.297   171.6037 1.0046e+03     1.5362      0.114      0.165    26.8211 0.0000e+00
      0.113      0.003     6.0542     75.757     36.601  37.944964     2.5679      8.296   171.7912 1.2492e+03     1.5304      0.111      0.160    26.8228 0.0000e+00
      0.113      0.003     6.0248     75.391     36.611  37.956409     2.5693      8.295   172.1280 1.2808e+03     1.5153      0.110      0.159    26.8260 0.0000e+00
      0.116      0.004     5.9922     74.986     36.597  37.943703     2.5569      8.294   172.4915 1.2874e+03     1.5059      0.114      0.165    26.8286 0.0000e+00
      0.120      0.006     5.9545     74.517     36.570  37.918396     2.5659      8.294   172.7447 1.2801e+03     1.4785      0.118      0.172    26.8289 0.0000e+00
      0.122      0.006     5.9146     74.023     36.555  37.904545     2.6048      8.294   172.9535 1.2768e+03     1.4892      0.120      0.174    26.8294 0.0000e+00
      0.123      0.006     5.8765     73.549     36.552  37.903285     2.6317      8.294   173.2086 1.2779e+03     1.5437      0.120      0.174    26.8316 0.0000e+00
      0.123      0.005     5.8404     73.100     36.551  37.903170     2.6336      8.293   173.4201 1.2787e+03     1.5576      0.120      0.174    26.8334 0.0000e+00
      0.124      0.004     5.8069     72.682     36.550  37.903159     2.6556      8.291   173.6186 1.2862e+03     1.5349      0.121      0.175    26.8360 0.0000e+00
      0.125      0.004     5.7751     72.287     36.549  37.903148     2.7132      8.291   173.7149 1.2926e+03     1.5138      0.122      0.178    26.8400 0.0000e+00
      0.127      0.003     5.7433     71.892     36.547  37.903043     2.7512      8.292   173.8967 1.3022e+03     1.5153      0.124      0.181    26.8423 0.0000e+00
      0.129      0.002     5.7116     71.498     36.544  37.901897     2.7562      8.294   174.4402 1.3170e+03     1.5224      0.126      0.183    26.8429 0.0000e+00
      0.129      0.001     5.6805     71.112     36.530  37.889287     2.7561      8.294   175.0372 1.3235e+03     1.5093      0.127      0.184    26.8442 0.0000e+00
      0.129     -0.001     5.6477     70.705     36.517  37.877632     2.7966      8.295   175.7809 1.3476e+03     1.5400      0.127      0.184    26.8466 0.0000e+00
      0.127     -0.003     5.6151     70.299     36.525  37.888037     2.8865      8.295   176.6354 1.3751e+03     1.6188      0.124      0.180    26.8490 0.0000e+00
      0.126     -0.003     5.5860     69.937     36.523  37.888046     2.9519      8.294   177.0224 1.3791e+03     1.6681      0.123      0.178    26.8514 0.0000e+00
      0.126     -0.002     5.5572     69.579     36.512  37.877745     2.9718      8.289   177.1910 1.3641e+03     1.7092      0.123      0.179    26.8545 0.0000e+00
      0.125      0.000     5.5294     69.234     36.523  37.890545     3.0068      8.278   177.2971 1.3133e+03     1.7492      0.122      0.177    26.8570 0.0000e+00
      0.124      0.004     5.5048     68.928     36.547  37.915756     3.0727      8.267   177.2735 1.2658e+03     1.7549      0.121      0.175    26.8590 0.0000e+00
      0.125      0.006     5.4827     68.651     36.559  37.928452     3.1160      8.263   177.4215 1.2942e+03     1.7475      0.121      0.176    26.8615 0.0000e+00
      0.127      0.008     5.4644     68.423     36.548  37.916996     3.1349      8.265   177.6234 1.3885e+03     1.7516      0.124      0.180    26.8643 0.0000e+00
      0.131      0.009     5.4519     68.276     36.530  37.904299     3.1909      8.268   177.7364 1.4530e+03     1.7432      0.129      0.187    26.8655 0.0000e+00
      0.135      0.009     5.4457     68.212     36.520  37.902007     3.2780      8.272   177.9269 1.5133e+03     1.7069      0.135      0.195    26.8665 0.0000e+00
      0.137      0.009     5.4452     68.213     36.503  37.889291     3.3247      8.275   178.2922 1.6081e+03     1.7104      0.136      0.197    26.8664 0.0000e+00
      0.138      0.008     5.4477     68.243     36.493  37.877607     3.3236      8.277   178.6260 1.5691e+03     1.7232      0.134      0.195    26.8635 0.0000e+00
      0.139      0.005     5.4483     68.248     36.504  37.887792     3.2739      8.279   178.8646 1.4270e+03     1.6482      0.135      0.196    26.8722 0.0000e+00
      0.141      0.000     5.4463     68.226     36.500  37.885386     3.1928      8.279   179.1983 1.4944e+03     1.5360      0.137      0.200    26.8901 0.0000e+00
      0.144     -0.004     5.4452     68.217     36.461  37.848519     3.1517      8.276   179.4778 1.6410e+03     1.4960      0.142      0.206    26.8949 0.0000e+00
      0.144     -0.008     5.4453     68.224     36.433  37.823210     3.1349      8.272   179.4907 1.6123e+03     1.5306      0.142      0.207    26.8899 0.0000e+00
      0.139     -0.013     5.4457     68.232     36.442  37.833500     3.0349      8.271   179.4405 1.5458e+03     1.5577      0.136      0.198    26.8888 0.0000e+00
      0.131     -0.017     5.4467     68.246     36.454  37.845872     2.8621      8.274   179.3864 1.5208e+03     1.5491      0.128      0.186    26.8908 0.0000e+00
      0.126     -0.018     5.4475     68.254     36.454  37.845757     2.7649      8.279   179.2672 1.5403e+03     1.5189      0.123      0.177    26.8962 0.0000e+00
      0.122     -0.015     5.4476     68.256     36.440  37.832102     2.7410      8.284   179.3758 1.5344e+03     1.4970      0.121      0.175    26.9014 0.0000e+00
      0.117     -0.009     5.4469     68.247     36.416  37.807826     2.6383      8.288   179.7533 1.4229e+03     1.5593      0.115      0.167    26.9038 0.0000e+00
      0.112     -0.003     5.4430     68.198     36.415  37.806348     2.4605      8.291   180.1321 1.2963e+03     1.6918      0.107      0.155    26.9044 0.0000e+00
      0.112      0.002     5.4352     68.096     36.426  37.814233     2.3645      8.293   180.4276 1.2842e+03     1.7558      0.109      0.158    26.9027 0.0000e+00
      0.117      0.007     5.4386     68.083     36.421  37.776112     2.3599      8.295   180.5736 1.3331e+03     1.7238      0.116      0.168    26.9026 0.0000e+00
      0.122      0.009     5.5323     69.078     36.471  37.726556     2.3689      8.298   180.5201 1.3471e+03     1.7015      0.119      0.174    26.9051 0.0000e+00
      0.126      0.009     5.8486     72.748     36.614  37.723115     2.4454      8.302   180.3829 1.3523e+03     1.7303      0.124      0.180    26.9028 0.0000e+00
      0.129      0.005     6.4307     79.729     36.753  37.734269     2.5959      8.305   180.2918 1.3595e+03     1.7361      0.127      0.184    26.9058 0.0000e+00
      0.130      0.001     7.1852     88.912     36.833  37.734158     2.6901      8.309   180.3648 1.3617e+03     1.7110      0.128      0.186    26.8981 0.0000e+00
      0.129     -0.002     7.9694     98.517     36.863  37.721647     2.7106      8.313   180.5774 1.3719e+03     1.7008      0.128      0.186    26.7500 0.0000e+00
      0.125     -0.002     8.6626    107.033     36.872  37.709994     2.7344      8.316   180.7115 1.3990e+03     1.6439      0.122      0.177    26.4883 0.0000e+00
      0.122     -0.002     9.2121    113.798     36.891  37.720287     2.7756      8.319   180.6951 1.4143e+03     1.5417      0.118      0.171    26.2994 0.0000e+00
      0.122     -0.001     9.6046    118.630     36.896  37.719028     2.8051      8.322   180.7238 1.4098e+03     1.4722      0.118      0.172    26.2007 0.0000e+00
      0.125      0.001     9.8252    121.336     36.878  37.694763     2.8235      8.323   180.8854 1.4135e+03     1.4439      0.122      0.177    26.1477 0.0000e+00
      0.127      0.003     9.8807    122.004     36.870  37.681008     2.8789      8.324   181.0152 1.4195e+03     1.5048      0.124      0.180    26.1251 0.0000e+00
      0.127      0.004     9.8157    121.188     36.874  37.679758     2.9600      8.324   181.0887 1.4058e+03     1.6287      0.124      0.180    26.1161 0.0000e+00
      0.127      0.003     9.6913    119.635     36.880  37.679645     3.0046      8.325   181.1718 1.3866e+03     1.6903      0.124      0.180    26.1102 0.0000e+00
      0.128      0.001     9.5560    117.945     36.887  37.679637     3.0135      8.326   181.2449 1.3828e+03     1.7005      0.126      0.181    26.1003 0.0000e+00
      0.129     -0.001     9.4345    116.436     36.890  37.679646     2.9572      8.328   181.3707 1.3858e+03     1.6912      0.128      0.184    26.0918 0.0000e+00
      0.128     -0.001     9.3325    115.184     36.887  37.679750     2.8393      8.329   181.4879 1.3801e+03     1.6699      0.127      0.184    26.0871 0.0000e+00
      0.127     -0.002     9.2514    114.188     36.887  37.680895     2.7738      8.328   181.5433 1.3703e+03     1.6562      0.124      0.181    26.0794 0.0000e+00
      0.125     -0.002     9.1925    113.449     36.903  37.693495     2.7705      8.328   181.6968 1.3671e+03     1.6787      0.122      0.179    26.0663 0.0000e+00
      0.125     -0.001     9.1527    112.934     36.922  37.705038     2.8455      8.327   181.9673 1.3715e+03     1.7278      0.122      0.177    26.0607 0.0000e+00
      0.126      0.000     9.1232    112.555     36.917  37.693384     2.9914      8.327   182.1462 1.3825e+03     1.7313      0.123      0.178    26.0686 0.0000e+00
      0.127      0.002     9.0964    112.217     36.906  37.679638     3.0737      8.328   182.2254 1.4013e+03     1.7207      0.124      0.180    26.0749 0.0000e+00
      0.127      0.002     9.0694    111.879     36.895  37.665893     3.0786      8.328   182.4093 1.4158e+03     1.7218      0.124      0.180    26.0664 0.0000e+00
      0.127      0.002     9.0429    111.546     36.885  37.654240     3.0780      8.329   182.6491 1.4248e+03     1.6842      0.125      0.181    26.0516 0.0000e+00
      0.128      0.001     9.0182    111.241     36.897  37.665791     3.1301      8.331   182.8872 1.4182e+03     1.6022      0.125      0.181    26.0438 0.0000e+00
      0.129     -0.001     8.9991    111.011     36.907  37.678506     3.2225      8.331   183.1364 1.3955e+03     1.4928      0.126      0.182    26.0421 0.0000e+00
      0.129     -0.005     8.9891    110.906     36.902  37.680921     3.2661      8.331   183.2532 1.3979e+03     1.4288      0.127      0.185    26.0394 0.0000e+00
      0.129     -0.010     8.9904    110.947     36.907  37.695010     3.2613      8.331   183.3535 1.4247e+03     1.4389      0.127      0.185    26.0367 0.0000e+00
      0.126     -0.016     9.0009    111.096     36.927  37.721804     3.2108      8.330   183.7475 1.4955e+03     1.4626      0.123      0.179    26.0361 0.0000e+00
      0.121     -0.024     9.0142    111.282     36.947  37.750785     3.1252      8.325   184.2305 1.6153e+03     1.4709      0.119      0.172    26.0367 0.0000e+00
      0.115     -0.031     9.0254    111.470     36.969  37.791315     3.0804      8.319   184.4610 1.6922e+03     1.4470      0.114      0.165    26.0470 0.0000e+00
      0.105     -0.036     9.0317    111.622     36.981  37.830706     3.0463      8.312   184.7281 1.6753e+03     1.4490      0.104      0.151    26.0637 0.0000e+00
      0.092     -0.041     9.0317    111.702     36.967  37.845938     2.7953      8.307   185.9975 1.6007e+03     1.5558      0.089      0.129    26.0703 0.0000e+00
      0.079     -0.046     9.0232    111.658     36.947  37.848464     2.3618      8.307   198.0878 1.5279e+03     1.7005      0.077      0.111    26.0749 0.0000e+00
      0.069     -0.052     9.0044    111.468     36.945  37.861292     2.1327      8.309   211.1446 1.4879e+03     1.7648      0.067      0.098    26.1008 0.0000e+00
      0.059     -0.057     8.9776    111.168     36.946  37.874006     2.1210      8.309   203.4511 1.4850e+03     1.7541      0.058      0.084    26.1436 0.0000e+00
      0.046     -0.055     8.9451    110.798     36.936  37.875148     2.2023      8.302   191.7927 1.5112e+03     1.6921      0.048      0.069    26.1848 0.0000e+00
      0.026     -0.043     8.9111    110.401     36.927  37.875118     2.3528      8.290   189.4345 1.5467e+03     1.5956      0.030      0.042    26.2174 0.0000e+00
      0.002     -0.022     8.8813    110.032     36.926  37.873660     2.4336      8.279   188.8769 1.5732e+03     1.5339     -0.002     -0.002    26.2352 0.0000e+00
     -0.013      0.005     8.8585    109.722     36.919  37.857511     2.4351      8.273   188.4062 1.5631e+03     1.4954     -0.023     -0.032    26.2477 0.0000e+00
     -0.006      0.032     8.8417    109.476     36.884  37.806901     2.4436      8.273   187.7869 1.3161e+03     1.4659     -0.012     -0.017    26.2656 0.0000e+00
      0.019      0.054     8.8273    109.257     36.864  37.769953     2.4729      8.277   187.3257 1.0803e+03     1.4819      0.015      0.023    26.2822 0.0000e+00
      0.052      0.067     8.8221    109.152     36.899  37.791920     2.4947      8.281   187.1320 1.3075e+03     1.5354      0.052      0.076    26.2830 0.0000e+00
      0.081      0.067     8.8339    109.273     36.934  37.818362     2.5044      8.284   186.9944 1.5761e+03     1.5644      0.086      0.124    26.2648 0.0000e+00
      0.096      0.055     8.8564    109.546     36.953  37.835534     2.5078      8.288   186.6942 1.6051e+03     1.5264      0.097      0.142    26.2457 0.0000e+00
      0.102      0.036     8.8874    109.936     36.987  37.872484     2.5456      8.292   186.4268 1.5938e+03     1.5343      0.100      0.145    26.2245 0.0000e+00
      0.104      0.019     8.9220    110.381     36.992  37.883959     2.6301      8.296   186.3431 1.5803e+03     1.6296      0.102      0.147    26.1997 0.0000e+00
      0.106      0.007     8.9530    110.784     36.949  37.847226     2.6851      8.300   186.3702 1.5589e+03     1.7021      0.103      0.151    26.1876 0.0000e+00
      0.106      0.002     8.9795    111.119     36.909  37.809537     2.6859      8.302   186.4098 1.5296e+03     1.7394      0.105      0.153    26.1867 0.0000e+00
      0.103      0.001     8.9996    111.369     36.909  37.809433     2.5843      8.305   186.3061 1.5124e+03     1.7148      0.101      0.147    26.1896 0.0000e+00
      0.101      0.001     9.0121    111.525     36.944  37.845967     2.3943      8.307   186.1495 1.5294e+03     1.6179      0.098      0.143    26.1994 0.0000e+00
      0.101      0.000     9.0147    111.565     36.965  37.870107     2.2918      8.310   186.1508 1.5208e+03     1.5449      0.098      0.142    26.2120 0.0000e+00
      0.104 -3.607e-07     9.0080    111.491     36.939  37.847195     2.2912      8.313   186.2354 1.4339e+03     1.5337      0.102      0.148    26.2147 0.0000e+00
      0.107      0.000     8.9960    111.352     36.912  37.823050     2.3412      8.316   186.3128 1.3563e+03     1.5429      0.106      0.154    26.2121 0.0000e+00
      0.107      0.000     8.9839    111.202     36.921  37.832300     2.4269      8.317   186.4828 1.3466e+03     1.5340      0.105      0.153    26.2145 0.0000e+00
      0.103      0.000     8.9733    111.063     36.924  37.831978     2.4733      8.318   186.6566 1.3960e+03     1.5175      0.101      0.147    26.2179 0.0000e+00
      0.100      0.000     8.9627    110.924     36.914  37.819147     2.4879      8.318   186.7797 1.4215e+03     1.5271      0.098      0.142    26.2226 0.0000e+00
      0.100      0.002     8.9503    110.768     36.900  37.804215     2.5582      8.318   187.0247 1.3735e+03     1.5283      0.097      0.141    26.2289 0.0000e+00
      0.103      0.006     8.9358    110.582     36.877  37.778490     2.6794      8.317   187.3817 1.3370e+03     1.5015      0.100      0.146    26.2290 0.0000e+00
      0.105      0.011     8.9194    110.357     36.870  37.762216     2.7491      8.317   188.5152 1.3281e+03     1.5084      0.102      0.149    26.2227 0.0000e+00
      0.107      0.016     8.9046    110.121     36.862  37.734498     2.7579      8.318   199.0089 1.3315e+03     1.5197      0.104      0.152    26.2184 0.0000e+00
      0.112      0.020     8.8965    109.943     36.854  37.697428     2.7773      8.320   209.2928 1.3403e+03     1.5160      0.110      0.159    26.2186 0.0000e+00
      0.118      0.023     8.8939    109.840     36.878  37.695131     2.8088      8.319   202.1245 1.3234e+03     1.5253      0.115      0.168    26.2177 0.0000e+00
      0.125      0.024     8.8952    109.814     36.904  37.706683     2.8172      8.319   203.1944 1.2848e+03     1.5097      0.122      0.177    26.2101 0.0000e+00
      0.135      0.023     8.9050    109.916     36.914  37.710025     2.8241      8.323   221.9707 1.2797e+03     1.5105      0.132      0.192    26.1843 0.0000e+00
      0.142      0.019     8.9263    110.176     36.940  37.735528     2.9103      8.328   223.7713 1.2971e+03     1.5352      0.141      0.205    26.1358 0.0000e+00
      0.147      0.014     8.9571    110.575     36.958  37.760926     3.0603      8.331   206.4675 1.3189e+03     1.5332      0.146      0.210    26.0954 0.0000e+00
      0.148      0.011     8.9902    111.027     36.945  37.763005     3.1386      8.335   202.7262 1.3864e+03     1.5168      0.147      0.213    26.0791 0.0000e+00
      0.148      0.012     9.0190    111.427     36.927  37.760694     3.1401      8.338   207.5313 1.4268e+03     1.4902      0.145      0.211    26.0701 0.0000e+00
      0.146      0.019     9.0419    111.727     36.893  37.733010     3.1441      8.339   199.1753 1.3858e+03     1.4859      0.143      0.207    26.0661 0.0000e+00
      0.147      0.033     9.0574    111.892     36.852  37.682402     3.1952      8.339   190.5730 1.3157e+03     1.5559      0.142      0.206    26.0761 0.0000e+00
      0.155      0.050     9.0622    111.900     36.845  37.657003     3.2797      8.337   189.2165 1.2972e+03     1.6658      0.148      0.215    26.0998 0.0000e+00
      0.171      0.070     9.0562    111.780     36.885  37.679991     3.3205      8.336   188.7103 1.2562e+03     1.7152      0.163      0.237    26.1278 0.0000e+00
      0.196      0.086     9.0426    111.581     36.921  37.706206     3.3217      8.334   188.5828 1.1043e+03     1.6960      0.190      0.276    26.1414 0.0000e+00
      0.225      0.092     9.0283    111.388     36.941  37.719847     3.3581      8.334   188.5354 9.6365e+02     1.6480      0.222      0.322    26.1243 0.0000e+00
      0.253      0.087     9.0218    111.303     36.941  37.717850     3.4298      8.336   188.8260 8.6000e+02     1.5915      0.248      0.359    26.0920 0.0000e+00
      0.283      0.071     9.0241    111.334     36.905  37.682062     3.4622      8.337   189.6019 8.4055e+02     1.5627      0.279      0.404    26.0679 0.0000e+00
      0.306      0.050     9.0297    111.401     36.892  37.668308     3.4372      8.336   189.9140 1.0869e+03     1.5440      0.307      0.446    26.0539 0.0000e+00
      0.314      0.029     9.0339    111.437     36.908  37.678609     3.2207      8.335   189.5889 1.2195e+03     1.5181      0.313      0.454    26.0455 0.0000e+00
      0.309      0.013     9.0341    111.422     36.915  37.679545     2.8385      8.338   189.1991 1.0612e+03     1.4931      0.303      0.441    26.0423 0.0000e+00
      0.300      0.003     9.0306    111.371     36.918  37.679605     2.6388      8.346   188.9001 1.0678e+03     1.4870      0.292      0.424    26.0482 0.0000e+00
      0.295      0.002     9.0272    111.326     36.919  37.679342     2.6253      8.355   188.6408 1.2376e+03     1.5055      0.287      0.416    26.0494 0.0000e+00
      0.296      0.010     9.0268    111.316     36.918  37.676365     2.6473      8.362   188.3868 1.3327e+03     1.5021      0.289      0.418    26.0376 0.0000e+00
      0.303      0.022     9.0295    111.335     36.891  37.643603     2.7030      8.367   188.0664 1.1158e+03     1.4767      0.296      0.429    26.0277 0.0000e+00
      0.311      0.036     9.0350    111.378     36.858  37.600857     2.7472      8.373   187.8640 7.8950e+02     1.4726      0.306      0.444    26.0242 0.0000e+00
      0.321      0.047     9.0450    111.472     36.871  37.604205     2.7594      8.378   188.6929 7.4928e+02     1.4831      0.314      0.456    26.0242 0.0000e+00
      0.334      0.057     9.0603    111.632     36.897  37.620530     2.7591      8.381   196.7971 8.1832e+02     1.4814      0.326      0.473    26.0234 0.0000e+00
      0.351      0.068     9.0789    111.837     36.894  37.607644     2.8449      8.379   211.8586 9.2997e+02     1.4832      0.343      0.497    26.0155 0.0000e+00
      0.370      0.084     9.0947    112.007     36.871  37.575441     3.0242      8.378   221.0054 1.0327e+03     1.5052      0.364      0.529    26.0024 0.0000e+00
      0.388      0.102     9.0997    112.046     36.852  37.548786     3.1257      8.379   222.7284 8.8264e+02     1.5339      0.379      0.551    25.9877 0.0000e+00
      0.410      0.116     9.0946    111.961     36.851  37.539457     3.1354      8.381   223.3994 6.6111e+02     1.5248      0.396      0.574    25.9733 0.0000e+00
      0.446      0.120     9.0828    111.793     36.847  37.526165     3.1228      8.385   223.4389 5.7904e+02     1.4860      0.433      0.629    25.9613 0.0000e+00
      0.492      0.111     9.0675    111.585     36.843  37.515110     3.0924      8.390   222.7755 5.6043e+02     1.4618      0.481      0.697    25.9497 0.0000e+00
      0.537      0.093     9.0548    111.423     36.862  37.532841     3.0805      8.398   222.0900 5.7281e+02     1.4459      0.534      0.774    25.9379 0.0000e+00
      0.564      0.069     9.0456    111.319     36.875  37.549966     3.0803      8.407   221.6885 6.3329e+02     1.4469      0.563      0.818    25.9278 0.0000e+00
      0.569      0.043     9.0370    111.235     36.850  37.531588     2.9794      8.415   221.7074 6.9539e+02     1.4733      0.560      0.814    25.9163 0.0000e+00
      0.561      0.023     9.0277    111.145     36.811  37.501229     2.7879      8.420   222.0608 6.8277e+02     1.4913      0.548      0.796    25.9038 0.0000e+00
      0.553      0.013     9.0170    111.025     36.806  37.500552     2.6863      8.422   222.2612 6.1850e+02     1.4806      0.538      0.781    25.9005 0.0000e+00
      0.552      0.013     9.0065    110.889     36.831  37.523402     2.6798      8.422   221.5495 5.8065e+02     1.4663      0.538      0.780    25.9064 0.0000e+00
      0.560      0.019     8.9999    110.792     36.836  37.523401     2.6530      8.420   215.7791 5.8828e+02     1.4713      0.547      0.792    25.9170 0.0000e+00
      0.574      0.024     8.9959    110.727     36.820  37.500527     2.6012      8.418   205.6635 6.3155e+02     1.4797      0.563      0.817    25.9342 0.0000e+00
      0.586      0.022     8.9891    110.626     36.826  37.500928     2.5682      8.418   202.4890 6.9195e+02     1.4760      0.577      0.837    25.9407 0.0000e+00
      0.593      0.010     8.9793    110.504     36.854  37.528239     2.5587      8.419   205.9629 7.3117e+02     1.4877      0.583      0.845    25.9341 0.0000e+00
      0.595     -0.011     8.9726    110.450     36.891  37.576637     2.6146      8.419   205.2486 7.5526e+02     1.5287      0.587      0.851    25.9266 0.0000e+00
      0.591     -0.041     8.9727    110.502     36.936  37.641422     2.7382      8.419   200.4775 7.9501e+02     1.5747      0.584      0.846    25.9191 0.0000e+00
      0.581     -0.074     8.9795    110.650     36.947  37.676309     2.8126      8.420   196.7153 8.2086e+02     1.5562      0.571      0.829    25.9067 0.0000e+00
      0.561     -0.106     8.9918    110.869     36.927  37.680850     2.8244      8.421   194.9505 8.0144e+02     1.4877      0.556      0.806    25.9022 0.0000e+00
      0.526     -0.134     9.0073    111.119     36.921  37.696368     2.8435      8.421   194.1965 7.6784e+02     1.5102      0.523      0.757    25.9197 0.0000e+00
      0.479     -0.155     9.0232    111.367     36.943  37.736922     2.8696      8.418   193.7075 7.9459e+02     1.5847      0.470      0.681    25.9457 0.0000e+00
      0.429     -0.166     9.0359    111.576     36.976  37.790033     2.8825      8.415   193.3401 1.0078e+03     1.5940      0.419      0.609    25.9800 0.0000e+00
      0.381     -0.166     9.0424    111.710     36.996  37.830332     2.8894      8.411   192.9376 1.1885e+03     1.5621      0.372      0.540    26.0167 0.0000e+00
      0.337     -0.155     9.0436    111.774     36.991  37.843035     2.8890      8.408   192.7122 1.1300e+03     1.5349      0.328      0.475    26.0443 0.0000e+00
      0.299     -0.133     9.0378    111.748     36.949  37.816601     2.8685      8.402   192.8522 1.0578e+03     1.5401      0.291      0.422    26.0674 0.0000e+00
      0.266     -0.104     9.0240    111.612     36.885  37.764862     2.8436      8.393   192.9962 1.0486e+03     1.5636      0.259      0.377    26.0942 0.0000e+00
      0.237     -0.074     9.0077    111.416     36.845  37.725708     2.8270      8.385   192.9040 1.0514e+03     1.5448      0.228      0.331    26.1222 0.0000e+00
      0.219     -0.045     8.9927    111.199     36.855  37.724365     2.8142      8.378   192.7703 9.4439e+02     1.4948      0.208      0.301    26.1454 0.0000e+00
      0.218     -0.022     8.9797    110.995     36.895  37.748603     2.8180      8.372   192.7560 6.6750e+02     1.4777      0.211      0.305    26.1687 0.0000e+00
      0.226     -0.009     8.9708    110.858     36.920  37.764630     2.8270      8.367   192.7312 4.3030e+02     1.4909      0.222      0.321    26.1906 0.0000e+00
      0.234     -0.005     8.9685    110.832     36.946  37.791070     2.8224      8.365   192.6422 3.8699e+02     1.5022      0.230      0.335    26.1956 0.0000e+00
      0.238     -0.008     8.9716    110.892     36.961  37.814180     2.8173      8.365   192.7127 4.1063e+02     1.4920      0.238      0.345    26.1738 0.0000e+00
      0.233     -0.013     8.9754    110.962     36.928  37.789941     2.8755      8.361   193.0673 3.9031e+02     1.4905      0.232      0.337    26.1473 0.0000e+00
      0.219     -0.012     8.9771    110.992     36.888  37.752140     2.9935      8.354   193.4879 4.8626e+02     1.5142      0.214      0.311    26.1322 0.0000e+00
      0.204     -0.005     8.9747    110.947     36.880  37.738300     3.0580      8.345   193.6680 7.4901e+02     1.5337      0.197      0.287    26.1333 0.0000e+00
      0.199      0.005     8.9667    110.816     36.903  37.749654     3.0675      8.339   193.6101 1.1394e+03     1.5439      0.190      0.276    26.1487 0.0000e+00
      0.207      0.015     8.9557    110.652     36.925  37.762342     3.0981      8.336   193.4760 1.4844e+03     1.5765      0.200      0.290    26.1632 0.0000e+00
      0.224      0.019     8.9481    110.539     36.934  37.764632     3.1529      8.336   193.3376 1.4886e+03     1.6532      0.222      0.321    26.1705 0.0000e+00
      0.240      0.016     8.9436    110.483     36.947  37.777338     3.1874      8.337   193.3132 1.3244e+03     1.7075      0.237      0.344    26.1603 0.0000e+00
      0.248      0.007     8.9398    110.453     36.953  37.788906     3.1946      8.338   193.4393 1.2812e+03     1.7144      0.247      0.358    26.1396 0.0000e+00
      0.244     -0.002     8.9405    110.482     36.934  37.777458     3.1656      8.337   193.5715 1.3378e+03     1.7060      0.243      0.352    26.1258 0.0000e+00
      0.230     -0.007     8.9494    110.600     36.920  37.765992     3.1040      8.334   193.6206 1.4213e+03     1.6982      0.225      0.326    26.1151 0.0000e+00
      0.216     -0.006     8.9628    110.759     36.933  37.777325     3.0741      8.330   193.6026 1.4107e+03     1.7111      0.208      0.301    26.1132 0.0000e+00
      0.213     -0.002     8.9739    110.894     36.943  37.787426     3.0710      8.327   193.6121 1.3230e+03     1.7406      0.205      0.296    26.1243 0.0000e+00
      0.222      0.002     8.9823    111.003     36.916  37.761070     3.0569      8.325   193.7366 1.2515e+03     1.7499      0.217      0.315    26.1398 0.0000e+00
      0.234      0.004     8.9900    111.099     36.868  37.712767     2.9958      8.327   194.1604 1.0109e+03     1.6703      0.232      0.336    26.1434 0.0000e+00
      0.240      0.002     8.9978    111.190     36.869  37.711632     2.8924      8.330   197.7039 8.9222e+02     1.5404      0.239      0.348    26.1347 0.0000e+00
      0.238     -0.002     9.0052    111.272     36.908  37.747335     2.8369      8.332   202.0790 1.1760e+03     1.4917      0.236      0.342    26.1346 0.0000e+00
      0.228     -0.006     9.0090    111.313     36.925  37.763277     2.8388      8.331   200.9434 1.3533e+03     1.5097      0.224      0.323    26.1392 0.0000e+00
      0.219     -0.009     9.0071    111.292     36.938  37.777317     2.9340      8.330   198.0832 1.3703e+03     1.5140      0.212      0.306    26.1407 0.0000e+00
      0.217     -0.009     8.9991    111.207     36.946  37.790039     3.1142      8.331   197.3522 1.4073e+03     1.5127      0.210      0.305    26.1366 0.0000e+00
      0.221     -0.009     8.9886    111.095     36.939  37.790059     3.2077      8.333   197.0096 1.2753e+03     1.4944      0.218      0.317    26.1301 0.0000e+00
      0.224     -0.010     8.9796    111.000     36.920  37.777572     3.2006      8.333   196.7798 1.0303e+03     1.4757      0.222      0.322    26.1275 0.0000e+00
      0.224     -0.011     8.9731    110.935     36.905  37.766125     3.1387      8.332   196.8118 7.8823e+02     1.5003      0.221      0.321    26.1270 0.0000e+00
      0.218     -0.012     8.9695    110.901     36.914  37.778717     3.0289      8.331   197.2242 5.5391e+02     1.5172      0.217      0.314    26.1354 0.0000e+00
      0.207     -0.010     8.9685    110.896     36.934  37.802772     2.9584      8.330   199.9584 4.2993e+02     1.4967      0.203      0.294    26.1472 0.0000e+00
      0.199     -0.005     8.9699    110.918     36.932  37.802858     2.9290      8.329   205.0914 3.9903e+02     1.4654      0.193      0.278    26.1549 0.0000e+00
      0.199      0.001     8.9737    110.962     36.910  37.779767     2.8111      8.330   210.5025 4.6954e+02     1.4754      0.192      0.279    26.1618 0.0000e+00
      0.204      0.006     8.9789    111.021     36.910  37.777684     2.6072      8.331   211.0934 7.1851e+02     1.5254      0.199      0.289    26.1657 0.0000e+00
      0.214      0.010     8.9854    111.101     36.911  37.777675     2.4954      8.331   204.4921 9.7315e+02     1.5202      0.210      0.304    26.1699 0.0000e+00
      0.221      0.014     8.9939    111.206     36.913  37.779651     2.4885      8.329   201.0666 1.0699e+03     1.4742      0.220      0.318    26.1746 0.0000e+00
      0.221      0.018     9.0001    111.285     36.933  37.801577     2.5516      8.327   204.8657 1.0808e+03     1.5177      0.219      0.317    26.1716 0.0000e+00
      0.218      0.025     8.9997    111.285     36.919  37.788670     2.6796      8.325   209.5590 1.1546e+03     1.6498      0.211      0.306    26.1668 0.0000e+00
      0.219      0.034     8.9967    111.243     36.884  37.750650     2.7586      8.324   212.1250 1.2946e+03     1.7290      0.212      0.307    26.1679 0.0000e+00
      0.229      0.044     8.9948    111.192     36.866  37.723055     2.7618      8.327   212.4024 1.3155e+03     1.7120      0.222      0.321    26.1680 0.0000e+00
      0.247      0.053     8.9917    111.110     36.868  37.709110     2.7460      8.333   211.2784 1.2573e+03     1.6886      0.241      0.349    26.1677 0.0000e+00
      0.270      0.058     8.9865    111.003     36.884  37.709074     2.7421      8.339   209.0328 1.2865e+03     1.6896      0.267      0.387    26.1725 0.0000e+00
      0.290      0.058     8.9833    110.923     36.912  37.722591     2.7512      8.344   205.5555 1.2947e+03     1.6944      0.287      0.415    26.1742 0.0000e+00
      0.303      0.054     8.9838    110.904     36.943  37.745463     2.7562      8.349   202.0155 1.2580e+03     1.7162      0.299      0.434    26.1597 0.0000e+00
      0.313      0.051     8.9870    110.941     36.930  37.731497     2.7472      8.352   200.1301 1.2054e+03     1.7086      0.308      0.447    26.1329 0.0000e+00
      0.321      0.051     8.9939    111.030     36.879  37.680779     2.6780      8.351   199.9672 1.1396e+03     1.6332      0.315      0.458    26.1118 0.0000e+00
      0.330      0.056     9.0043    111.138     36.847  37.640468     2.5539      8.350   204.1760 1.1066e+03     1.5675      0.323      0.468    26.0901 0.0000e+00
      0.343      0.061     9.0131    111.192     36.852  37.625257     2.4874      8.351   213.8496 1.0283e+03     1.5557      0.334      0.484    26.0746 0.0000e+00
      0.362      0.066     9.0182    111.191     36.874  37.623886     2.4907      8.352   220.6516 9.3909e+02     1.5513      0.353      0.512    26.0775 0.0000e+00
      0.386      0.066     9.0227    111.201     36.890  37.623854     2.5378      8.353   222.4915 9.0795e+02     1.5450      0.379      0.550    26.0848 0.0000e+00
      0.409      0.063     9.0287    111.256     36.897  37.624842     2.6256      8.356   225.1680 8.8746e+02     1.5406      0.405      0.587    26.0798 0.0000e+00
      0.426      0.057     9.0344    111.335     36.905  37.635827     2.6790      8.363   227.6323 8.4923e+02     1.5290      0.420      0.609    26.0455 0.0000e+00
      0.436      0.051     9.0353    111.368     36.891  37.629621     2.6865      8.371   228.3677 8.1063e+02     1.5260      0.429      0.621    26.0057 0.0000e+00
      0.442      0.048     9.0300    111.313     36.871  37.613345     2.6980      8.379   228.7256 7.6627e+02     1.5345      0.433      0.628    25.9841 0.0000e+00
      0.449      0.048     9.0195    111.178     36.889  37.629619     2.7265      8.384   228.8624 6.7014e+02     1.5408      0.438      0.635    25.9760 0.0000e+00
      0.461      0.052     9.0055    111.001     36.897  37.635808     2.7461      8.388   228.9024 5.6406e+02     1.5406      0.449      0.652    25.9820 0.0000e+00
      0.477      0.058     8.9938    110.856     36.886  37.624639     2.7520      8.392   229.0378 5.0265e+02     1.5627      0.467      0.677    25.9973 0.0000e+00
      0.497      0.063     8.9893    110.791     36.886  37.621636     2.7610      8.395   229.2079 4.7668e+02     1.5941      0.487      0.707    26.0051 0.0000e+00
      0.516      0.067     8.9911    110.800     36.870  37.599494     2.7620      8.397   229.4114 4.7490e+02     1.5540      0.506      0.735    25.9960 0.0000e+00
      0.532      0.069     8.9978    110.863     36.826  37.547499     2.7468      8.396   229.7768 4.8574e+02     1.4755      0.523      0.758    25.9933 0.0000e+00
      0.547      0.073     9.0086    110.964     36.791  37.501172     2.7329      8.393   230.2709 5.0392e+02     1.4688      0.536      0.778    25.9972 0.0000e+00
      0.563      0.078     9.0211    111.084     36.787  37.484040     2.7402      8.391   230.5677 5.3201e+02     1.5033      0.551      0.799    25.9906 0.0000e+00
      0.582      0.086     9.0317    111.177     36.784  37.467387     2.7523      8.390   230.5262 5.5506e+02     1.4953      0.569      0.826    25.9848 0.0000e+00
      0.605      0.092     9.0344    111.162     36.762  37.426852     2.7518      8.390   230.4572 5.6310e+02     1.4633      0.592      0.859    25.9764 0.0000e+00
      0.632      0.094     9.0239    110.972     36.733  37.375077     2.7514      8.392   230.2494 5.6935e+02     1.4530      0.618      0.897    25.9593 0.0000e+00
      0.662      0.091     9.0007    110.630     36.728  37.349554     2.7660      8.397   229.6481 5.7537e+02     1.4629      0.650      0.942    25.9412 0.0000e+00
      0.690      0.084     8.9704    110.223     36.763  37.372330     2.8180      8.402   228.9522 5.8262e+02     1.4602      0.681      0.988    25.9257 0.0000e+00
      0.711      0.074     8.9389    109.823     36.791  37.396337     2.8932      8.406   225.1044 5.8750e+02     1.4507      0.700      1.015    25.9019 0.0000e+00
      0.726      0.064     8.9083    109.444     36.781  37.385702     2.9313      8.409   216.6802 5.8260e+02     1.4705      0.713      1.035    25.8670 0.0000e+00
      0.736      0.058     8.8837    109.131     36.771  37.370800     2.9378      8.410   209.8654 5.8267e+02     1.4865      0.723      1.049    25.8369 0.0000e+00
      0.745      0.057     8.8681    108.922     36.750  37.343205     2.9726      8.408   207.4090 5.8712e+02     1.4908      0.729      1.057    25.8183 0.0000e+00
      0.756      0.060     8.8593    108.799     36.719  37.306141     3.0396      8.407   206.5968 5.8194e+02     1.4920      0.739      1.073    25.8150 0.0000e+00
      0.773      0.064     8.8572    108.763     36.720  37.303811     3.0768      8.408   207.1864 5.7124e+02     1.4704      0.756      1.097    25.8178 0.0000e+00
      0.795      0.067     8.8571    108.756     36.733  37.315036     3.0737      8.409   210.5799 5.5841e+02     1.4732      0.779      1.130    25.8110 0.0000e+00
      0.817      0.067     8.8539    108.713     36.734  37.314808     3.1028      8.410   214.2453 5.4547e+02     1.4961      0.802      1.165    25.8003 0.0000e+00
      0.836      0.063     8.8429    108.577     36.721  37.301052     3.1713      8.411   215.1097 5.3563e+02     1.5028      0.821      1.191    25.7932 0.0000e+00
      0.850      0.057     8.8205    108.302     36.696  37.275765     3.2127      8.411   215.0077 5.3109e+02     1.4934      0.835      1.211    25.7876 0.0000e+00
      0.861      0.052     8.7906    107.936     36.684  37.263165     3.2169      8.408   215.4222 5.3126e+02     1.4747      0.845      1.225    25.7846 0.0000e+00
      0.871      0.049     8.7616    107.578     36.696  37.275765     3.2410      8.404   215.9051 5.2936e+02     1.4899      0.853      1.238    25.7833 0.0000e+00
      0.882      0.047     8.7416    107.331     36.722  37.301052     3.2927      8.399   216.1996 5.2572e+02     1.5251      0.864      1.254    25.7826 0.0000e+00
      0.894      0.045     8.7309    107.199     36.737  37.314797     3.3181      8.394   216.2296 5.2338e+02     1.5341      0.876      1.271    25.7835 0.0000e+00
      0.909      0.044     8.7278    107.159     36.737  37.314910     3.3274      8.390   216.1827 5.1734e+02     1.5071      0.892      1.294    25.7841 0.0000e+00
      0.922      0.043     8.7335    107.228     36.725  37.302415     3.3409      8.387   216.1478 5.0515e+02     1.4724      0.906      1.313    25.7836 0.0000e+00
      0.932      0.042     8.7425    107.337     36.714  37.290770     3.3711      8.386   216.1516 4.9624e+02     1.4813      0.914      1.325    25.7826 0.0000e+00
      0.939      0.042     8.7470    107.392     36.724  37.301165     3.4264      8.382   216.3143 4.9352e+02     1.5226      0.921      1.336    25.7813 0.0000e+00
      0.948      0.044     8.7463    107.385     36.724  37.301052     3.4582      8.378   216.5666 4.9281e+02     1.5448      0.928      1.346    25.7803 0.0000e+00
      0.958      0.049     8.7443    107.360     36.712  37.289398     3.4608      8.375   216.7072 4.9225e+02     1.5356      0.938      1.360    25.7801 0.0000e+00
      0.971      0.054     8.7449    107.367     36.710  37.287317     3.4585      8.370   216.9818 4.8529e+02     1.5033      0.951      1.379    25.7798 0.0000e+00
      0.987      0.057     8.7499    107.426     36.699  37.275880     3.4578      8.366   218.4243 4.7238e+02     1.4902      0.966      1.402    25.7791 0.0000e+00
      1.006      0.058     8.7561    107.500     36.702  37.278171     3.4614      8.364   220.8128 4.6360e+02     1.4988      0.988      1.433    25.7793 0.0000e+00
      1.023      0.056     8.7582    107.525     36.738  37.315016     3.4650      8.362   221.5974 4.6012e+02     1.4860      1.005      1.458    25.7807 0.0000e+00
      1.038      0.053     8.7537    107.471     36.763  37.340208     3.4832      8.359   220.5979 4.5235e+02     1.4879      1.018      1.477    25.7805 0.0000e+00
      1.049      0.051     8.7417    107.322     36.752  37.328658     3.5152      8.355   219.9986 4.4082e+02     1.4911      1.029      1.492    25.7789 0.0000e+00
      1.059      0.052     8.7253    107.121     36.727  37.302426     3.5306      8.349   220.0310 4.3388e+02     1.4634      1.037      1.505    25.7778 0.0000e+00
      1.069      0.057     8.7113    106.949     36.703  37.277140     3.5231      8.342   220.2142 4.2878e+02     1.4575      1.047      1.520    25.7774 0.0000e+00
      1.081      0.064     8.7053    106.874     36.703  37.277026     3.4971      8.333   221.3529 4.2006e+02     1.4809      1.058      1.536    25.7777 0.0000e+00
      1.098      0.070     8.7111    106.944     36.727  37.301052     3.4651      8.326   223.9048 4.0841e+02     1.5027      1.073      1.558    25.7778 0.0000e+00
      1.121      0.075     8.7260    107.125     36.739  37.313528     3.4476      8.320   225.0848 3.9793e+02     1.5068      1.099      1.594    25.7772 0.0000e+00
      1.146      0.076     8.7451    107.359     36.727  37.300814     3.4520      8.314   222.3705 3.8913e+02     1.5007      1.126      1.632    25.7765 0.0000e+00
      1.168      0.073     8.7648    107.600     36.702  37.274380     3.4993      8.309   218.8777 3.7878e+02     1.5203      1.147      1.663    25.7760 0.0000e+00
      1.186      0.066     8.7797    107.781     36.677  37.248034     3.5695      8.306   217.1826 3.6965e+02     1.5304      1.165      1.689    25.7754 0.0000e+00
      1.201      0.060     8.7848    107.841     36.667  37.236373     3.5929      8.302   215.2121 3.6531e+02     1.5011      1.180      1.709    25.7747 0.0000e+00
      1.212      0.056     8.7776    107.740     36.695  37.260433     3.5808      8.295   212.6039 3.6201e+02     1.4713      1.190      1.725    25.7743 0.0000e+00
      1.222      0.056     8.7591    107.493     36.726  37.284824     3.6161      8.289   211.1153 3.5665e+02     1.4751      1.197      1.736    25.7738 0.0000e+00
      1.233      0.058     8.7305    107.114     36.728  37.277173     3.6881      8.286   210.8928 3.5001e+02     1.5157      1.207      1.751    25.7735 0.0000e+00
      1.250      0.063     8.6915    106.604     36.758  37.294956     3.7164      8.285   213.3557 3.4138e+02     1.5347      1.223      1.774    25.7730 0.0000e+00
      1.270      0.067     8.6446    105.998     36.846  37.372756     3.7103      8.284   217.0608 3.3138e+02     1.5224      1.245      1.805    25.7671 0.0000e+00
      1.290      0.068     8.5975    105.391     36.939  37.455513     3.7068      8.282   218.0915 3.2305e+02     1.5199      1.266      1.836    25.7559 0.0000e+00
      1.308      0.066     8.5663    104.983     37.025  37.533217     3.7098      8.282   218.8493 3.1664e+02     1.5351      1.283      1.861    25.7421 0.0000e+00
      1.325      0.061     8.5681    104.977     37.115  37.613456     3.7185      8.280   220.4593 3.1052e+02     1.5532      1.300      1.885    25.7244 0.0000e+00
      1.340      0.054     8.6046    105.387     37.178  37.663336     3.7206      8.278   221.1242 3.0577e+02     1.5556      1.314      1.907    25.7077 0.0000e+00
      1.352      0.046     8.6707    106.156     37.221  37.691585     3.7259      8.277   221.5535 3.0161e+02     1.5340      1.326      1.923    25.6926 0.0000e+00
      1.362      0.040     8.7657    107.285     37.244  37.700878     3.7742      8.277   222.2084 2.9689e+02     1.5053      1.337      1.939    25.6796 0.0000e+00
      1.372      0.035     8.8827    108.683     37.204  37.648615     3.8545      8.278   222.7618 2.9375e+02     1.5145      1.347      1.953    25.6680 0.0000e+00
      1.378      0.032     9.0039    110.132     37.074  37.504363     3.9064      8.278   223.1684 2.9156e+02     1.5535      1.352      1.961    25.6467 0.0000e+00
      1.384      0.032     9.1146    111.451     36.939  37.354325     3.9147      8.278   223.5110 2.8848e+02     1.5491      1.356      1.967    25.6237 0.0000e+00
      1.391      0.032     9.2178    112.679     36.893  37.295620     3.8627      8.277   223.7195 2.8436e+02     1.5221      1.363      1.978    25.6071 0.0000e+00
      1.400      0.033     9.3302    114.028     36.908  37.302773     3.7735      8.276   223.7974 2.7976e+02     1.5328      1.373      1.992    25.5915 0.0000e+00
      1.410      0.033     9.4567    115.558     36.925  37.313743     3.7372      8.274   223.7641 2.7553e+02     1.5255      1.384      2.007    25.5745 0.0000e+00
      1.420      0.032     9.5814    117.071     36.916  37.301197     3.7450      8.273   223.7473 2.7236e+02     1.4950      1.393      2.021    25.5558 0.0000e+00
      1.429      0.030     9.6827    118.302     36.896  37.278130     3.7118      8.273   223.8528 2.6926e+02     1.4993      1.402      2.033    25.5389 0.0000e+00
      1.435      0.029     9.7501    119.120     36.908  37.288943     3.6395      8.273   224.0070 2.6579e+02     1.5167      1.408      2.043    25.5270 0.0000e+00
      1.440      0.029     9.7826    119.513     37.052  37.431930     3.5970      8.273   224.1493 2.6358e+02     1.5218      1.412      2.048    25.5195 0.0000e+00
      1.445      0.030     9.7831    119.513     37.292  37.672895     3.5930      8.272   224.2826 2.6142e+02     1.5306      1.416      2.054    25.5150 0.0000e+00
      1.453      0.032     9.7582    119.203     37.407  37.788379     3.6086      8.270   224.4138 2.5678e+02     1.5321      1.423      2.065    25.5122 0.0000e+00
      1.463      0.033     9.7147    118.668     37.369  37.748267     3.6299      8.268   224.6174 2.5131e+02     1.5090      1.434      2.079    25.5099 0.0000e+00
      1.474      0.033     9.6608    118.008     37.319  37.696122     3.6393      8.266   224.7655 2.4696e+02     1.4961      1.445      2.096    25.5075 0.0000e+00
      1.485      0.031     9.6087    117.370     37.289  37.666117     3.6484      8.265   224.4840 2.4267e+02     1.4976      1.456      2.114    25.5052 0.0000e+00
      1.493      0.027     9.5677    116.871     37.262  37.639599     3.6665      8.264   223.1062 2.3867e+02     1.4970      1.466      2.126    25.5031 0.0000e+00
      1.498      0.023     9.5411    116.551     37.250  37.629603     3.6925      8.262   220.9268 2.3593e+02     1.4889      1.470      2.131    25.5010 0.0000e+00
      1.501      0.021     9.5271    116.390     37.289  37.672317     3.7150      8.260   219.3844 2.3364e+02     1.4612      1.472      2.136    25.4997 0.0000e+00
      1.503      0.021     9.5216    116.332     37.388  37.774896     3.7171      8.258   218.9115 2.3099e+02     1.4672      1.474      2.138    25.4987 0.0000e+00
      1.507      0.023     9.5172    116.272     37.468  37.853421     3.7184      8.256   219.3395 2.2735e+02     1.4999      1.477      2.142    25.4996 0.0000e+00
      1.513      0.027     9.5013    116.057     37.481  37.859419     3.7405      8.255   220.1708 2.2241e+02     1.4895      1.483      2.150    25.5013 0.0000e+00
      1.523      0.028     9.4521    115.437     37.475  37.847402     3.7637      8.253   220.5303 2.1705e+02     1.4641      1.492      2.164    25.5065 0.0000e+00
      1.533      0.027     9.3461    114.141     37.464  37.835163     3.7691      8.252   220.4179 2.1259e+02     1.4672      1.505      2.183    25.5149 0.0000e+00
      1.542      0.026     9.1833    112.162     37.464  37.838503     3.7691      8.252   220.3600 2.0945e+02     1.4665      1.515      2.197    25.5108 0.0000e+00
      1.548      0.024     8.9956    109.872     37.512  37.887798     3.7911      8.251   220.3469 2.0710e+02     1.4559      1.518      2.202    25.4974 0.0000e+00
      1.551      0.024     8.8281    107.805     37.680  38.050007     3.8327      8.250   220.3444 2.0530e+02     1.4604      1.522      2.207    25.4871 0.0000e+00
      1.553      0.028     8.7041    106.245     37.984  38.338571     3.8584      8.249   220.5892 2.0375e+02     1.4605      1.523      2.209    25.4864 0.0000e+00
      1.558      0.034     8.6227    105.190     38.249  38.581465     3.8541      8.248   220.9830 2.0180e+02     1.4570      1.526      2.213    25.4947 0.0000e+00
      1.567      0.040     8.5747    104.536     38.393  38.699698     3.8261      8.246   221.2344 1.9917e+02     1.4792      1.535      2.226    25.4992 0.0000e+00
      1.582      0.045     8.5378    104.024     38.469  38.751579     3.7961      8.246   221.3921 1.9612e+02     1.5156      1.550      2.249    25.4894 0.0000e+00
      1.600      0.046     8.4853    103.341     38.499  38.764002     3.7861      8.246   221.5989 1.9339e+02     1.5001      1.569      2.276    25.4637 0.0000e+00
      1.615      0.044     8.4039    102.321     38.470  38.722809     3.7873      8.247   221.5838 1.9166e+02     1.4444      1.586      2.301    25.4298 0.0000e+00
      1.625      0.041     8.2929    100.940     38.395  38.634686     3.7835      8.248   220.0904 1.9078e+02     1.4222      1.596      2.315    25.3923 0.0000e+00
      1.631      0.038     8.1631     99.320     38.303  38.524405     3.7765      8.246   217.3946 1.8998e+02     1.4450      1.599      2.319    25.3567 0.0000e+00
      1.636      0.037     8.0382     97.753     38.205  38.405871     3.7765      8.240   217.9844 1.8862e+02     1.4759      1.604      2.326    25.3340 0.0000e+00
      1.644      0.039     7.9454     96.574     38.102  38.281494     3.7833      8.232   221.5435 1.8664e+02     1.4909      1.611      2.337    25.3233 0.0000e+00
      1.655      0.041     7.9083     96.072     38.007  38.164089     3.7851      8.225   222.8289 1.8433e+02     1.5044      1.622      2.352    25.3090 0.0000e+00
      1.669      0.042     7.9363     96.365     37.993  38.129831     3.7801      8.220   220.8771 1.8218e+02     1.4867      1.637      2.374    25.2846 0.0000e+00
      1.683      0.041     8.0163     97.300     38.063  38.184909     3.7771      8.216   217.4760 1.8068e+02     1.4596      1.652      2.396    25.2577 0.0000e+00
      1.695      0.038     8.1220     98.560     38.145  38.258242     3.7766      8.211   215.4337 1.8008e+02     1.4815      1.664      2.413    25.2298 0.0000e+00
      1.704      0.034     8.2265     99.819     38.209  38.317649     3.7840      8.206   215.1126 1.8024e+02     1.5075      1.673      2.426    25.1997 0.0000e+00
      1.709      0.030     8.3116    100.834     38.230  38.331427     3.7926      8.200   214.8838 1.8085e+02     1.4987      1.676      2.430    25.1716 0.0000e+00
      1.714      0.029     8.3653    101.444     38.214  38.297747     3.7886      8.192   214.7319 1.8137e+02     1.4675      1.680      2.436    25.1500 0.0000e+00
      1.719      0.030     8.3747    101.503     38.230  38.291582     3.7815      8.182   214.7390 1.8122e+02     1.4660      1.686      2.444    25.1382 0.0000e+00
      1.728      0.031     8.3337    100.954     38.280  38.320391     3.7801      8.173   214.7124 1.8068e+02     1.5101      1.693      2.456    25.1374 0.0000e+00
      1.738      0.032     8.2545     99.963     38.301  38.328385     3.7994      8.164   214.6681 1.8006e+02     1.5433      1.704      2.472    25.1323 0.0000e+00
      1.748      0.032     8.1605     98.810     38.303  38.324690     3.8317      8.156   214.6331 1.7948e+02     1.5314      1.715      2.487    25.1072 0.0000e+00
      1.757      0.031     8.0694     97.708     38.318  38.339236     3.8491      8.149   214.5471 1.7931e+02     1.5195      1.724      2.500    25.0727 0.0000e+00
      1.763      0.030     7.9915     96.767     38.355  38.377207     3.8532      8.142   214.5755 1.7929e+02     1.5218      1.730      2.510    25.0436 0.0000e+00
      1.768      0.030     7.9328     96.043     38.386  38.402608     3.8988      8.132   214.8039 1.7896e+02     1.5283      1.735      2.515    25.0251 0.0000e+00
      1.774      0.030     7.8978     95.593     38.387  38.392225     3.9963      8.124   214.9852 1.7842e+02     1.5371      1.740      2.523    25.0181 0.0000e+00
      1.782      0.029     7.8856     95.418     38.386  38.378708     4.0488      8.117   215.1333 1.7748e+02     1.5051      1.747      2.534    25.0216 0.0000e+00
      1.792      0.028     7.8890     95.430     38.385  38.366224     4.0471      8.109   216.7669 1.7618e+02     1.4778      1.758      2.548    25.0271 0.0000e+00
      1.802      0.027     7.9002     95.530     38.403  38.368319     4.0489      8.102   219.9388 1.7546e+02     1.4826      1.769      2.566    25.0204 0.0000e+00
      1.809      0.025     7.9140     95.657     38.456  38.404015     4.0524      8.097   222.2511 1.7538e+02     1.5016      1.775      2.575    25.0000 0.0000e+00
      1.813      0.025     7.9251     95.757     38.484  38.416617     4.0435      8.091   223.6453 1.7523e+02     1.4938      1.777      2.578    24.9839 0.0000e+00
      1.816      0.026     7.9287     95.765     38.476  38.393606     4.0325      8.084   224.7500 1.7502e+02     1.4490      1.782      2.584    24.9723 0.0000e+00
      1.821      0.028     7.9249     95.687     38.476  38.379892     4.0400      8.075   225.3693 1.7454e+02     1.4493      1.785      2.589    24.9490 0.0000e+00
      1.829      0.031     7.9192     95.599     38.482  38.377840     4.1246      8.065   225.7986 1.7336e+02     1.4666      1.791      2.598    24.9253 0.0000e+00
      1.839      0.033     7.9179     95.575     38.477  38.368790     4.2738      8.055   225.9841 1.7171e+02     1.4752      1.803      2.615    24.9079 0.0000e+00
      1.851      0.034     7.9241     95.650     38.442  38.333988     4.3554      8.046   226.1491 1.7000e+02     1.4912      1.815      2.632    24.8863 0.0000e+00
      1.862      0.032     7.9378     95.816     38.382  38.274708     4.3576      8.039   226.4161 1.6865e+02     1.4772      1.826      2.650    24.8665 0.0000e+00
      1.870      0.029     7.9579     96.044     38.337  38.223798     4.3282      8.032   226.6314 1.6808e+02     1.4583      1.835      2.662    24.8556 0.0000e+00
      1.876      0.025     7.9815     96.284     38.296  38.163147     4.2752      8.025   226.8594 1.6797e+02     1.4771      1.839      2.668    24.8508 0.0000e+00
      1.880      0.022     8.0038     96.481     38.213  38.049590     4.2408      8.019   227.0219 1.6782e+02     1.4903      1.843      2.673    24.8528 0.0000e+00
      1.883      0.021     8.0198     96.601     38.125  37.930746     4.2339      8.012   227.1341 1.6752e+02     1.4655      1.846      2.677    24.8569 0.0000e+00
      1.887      0.022     8.0231     96.586     38.088  37.869694     4.2292      8.005   227.4417 1.6681e+02     1.4517      1.850      2.683    24.8522 0.0000e+00
      1.893      0.024     8.0083     96.378     38.114  37.883136     4.2297      7.998   227.9880 1.6558e+02     1.4759      1.856      2.692    24.8258 0.0000e+00
      1.901      0.026     7.9723     95.933     38.203  37.966201     4.2397      7.991   228.5762 1.6415e+02     1.5142      1.864      2.703    24.7802 0.0000e+00
      1.910      0.026     7.9175     95.267     38.288  38.048145     4.2491      7.985   229.1336 1.6284e+02     1.5188      1.873      2.716    24.7351 0.0000e+00
      1.917      0.025     7.8523     94.479     38.353  38.111558     4.2881      7.979   229.6516 1.6190e+02     1.5309      1.881      2.728    24.7030 0.0000e+00
      1.923      0.023     7.7855     93.674     38.468  38.224679     4.3614      7.974   230.1068 1.6140e+02     1.6302      1.886      2.735    24.6881 0.0000e+00
      1.927      0.023     7.7226     92.920     38.579  38.335875     4.4100      7.969   230.5930 1.6090e+02     1.7125      1.890      2.742    24.6840 0.0000e+00
      1.931      0.024     7.6636     92.211     38.619  38.376006     4.4347      7.962   231.0559 1.6011e+02     1.7325      1.893      2.747    24.6812 0.0000e+00
      1.936      0.026     7.6051     91.493     38.641  38.392256     4.5776      7.955   231.3155 1.5914e+02     1.7497      1.898      2.753    24.6777 0.0000e+00
      1.943      0.028     7.5416     90.677     38.679  38.405289     4.8331      7.948   231.2377 1.5774e+02     1.7371      1.905      2.764    24.6786 0.0000e+00
      1.953      0.029     7.4684     89.717     38.717  38.406479     4.9682      7.941   230.9762 1.5599e+02     1.7026      1.915      2.778    24.6785 0.0000e+00
      1.962      0.029     7.3889     88.702     38.746  38.406594     4.9792      7.935   230.8203 1.5453e+02     1.6988      1.925      2.793    24.6815 0.0000e+00
      1.970      0.028     7.3085     87.712     38.757  38.406637     4.9848      7.929   230.6435 1.5350e+02     1.7217      1.933      2.804    24.6842 0.0000e+00
      1.977      0.025     7.2299     86.770     38.757  38.406978     5.0449      7.923   230.3869 1.5260e+02     1.7662      1.939      2.812    24.6486 0.0000e+00
      1.982      0.023     7.1590     85.937     38.752  38.410723     5.1647      7.918   229.7820 1.5180e+02     1.8398      1.943      2.819    24.5867 0.0000e+00
      1.986      0.022     7.1037     85.297     38.782  38.451928     5.2289      7.913   228.8366 1.5100e+02     1.8785      1.947      2.825    24.5479 0.0000e+00
      1.991      0.021     7.0697     84.906     38.846  38.524016     5.2334      7.906   229.6253 1.5009e+02     1.8982      1.953      2.832    24.5363 0.0000e+00
      1.997      0.021     7.0580     84.769     38.904  38.583509     5.2839      7.901   232.4351 1.4910e+02     1.9862      1.959      2.840    24.5388 0.0000e+00
      2.003      0.022     7.0628     84.825     38.986  38.663002     5.3703      7.896   234.0717 1.4808e+02     2.0888      1.965      2.850    24.5525 0.0000e+00
      2.009      0.022     7.0748     84.965     39.112  38.786322     5.4142      7.892   233.7546 1.4722e+02     2.1316      1.972      2.859    24.5702 0.0000e+00
      2.014      0.022     7.0830     85.040     39.269  38.930990     5.4291      7.888   232.9030 1.4650e+02     2.1381      1.976      2.865    24.5831 0.0000e+00
      2.019      0.022     7.0791     84.932     39.448  39.077981     5.4947      7.883   232.0353 1.4563e+02     2.1356      1.981      2.873    24.5830 0.0000e+00
      2.024      0.023     7.0558     84.569     39.580  39.165818     5.6092      7.878   231.4369 1.4464e+02     2.1329      1.985      2.880    24.5790 0.0000e+00
      2.029      0.025     7.0052     83.888     39.620  39.167033     5.6746      7.873   231.1734 1.4344e+02     2.1355      1.990      2.887    24.5817 0.0000e+00
      2.036      0.027     6.9219     82.838     39.572  39.092628     5.6789      7.867   231.0868 1.4184e+02     2.1367      1.996      2.894    24.5746 0.0000e+00
      2.045      0.029     6.8056     81.415     39.459  38.964998     5.6887      7.862   230.9922 1.4020e+02     2.1474      2.005      2.908    24.5313 0.0000e+00
      2.054      0.029     6.6641     79.705     39.396  38.894501     5.7195      7.857   230.6325 1.3879e+02     2.1726      2.014      2.922    24.4670 0.0000e+00
      2.062      0.030     6.5172     77.942     39.381  38.875565     5.7394      7.852   230.2651 1.3743e+02     2.1672      2.022      2.933    24.4177 0.0000e+00
      2.069      0.033     6.3878     76.405     39.297  38.799570     5.7358      7.844   230.2495 1.3633e+02     2.1124      2.030      2.944    24.3841 0.0000e+00
      2.075      0.035     6.2893     75.254     39.156  38.674513     5.6582      7.833   230.1001 1.3534e+02     2.0295      2.035      2.952    24.3646 0.0000e+00
      2.082      0.037     6.2304     74.556     39.047  38.570629     5.5084      7.822   230.0066 1.3371e+02     1.9884      2.040      2.958    24.3559 0.0000e+00
      2.093      0.038     6.2153     74.347     39.052  38.560023     5.4316      7.810   230.5823 1.3141e+02     2.0120      2.051      2.975    24.3488 0.0000e+00
      2.107      0.036     6.2387     74.599     39.119  38.609785     5.4372      7.799   231.1237 1.2916e+02     2.0102      2.067      2.998    24.3530 0.0000e+00
      2.119      0.032     6.2892     75.184     39.119  38.600487     5.4383      7.788   231.3897 1.2737e+02     1.9668      2.080      3.017    24.3868 0.0000e+00
      2.129      0.027     6.3491     75.881     39.039  38.511124     5.4451      7.780   232.0781 1.2631e+02     1.9451      2.089      3.029    24.3992 0.0000e+00
      2.134      0.022     6.3996     76.461     38.959  38.418723     5.4728      7.774   231.8762 1.2605e+02     1.9609      2.094      3.036    24.3606 0.0000e+00
      2.134      0.018     6.4305     76.796     38.931  38.372692     5.4976      7.766   229.9810 1.2608e+02     1.9750      2.094      3.037    24.3381 0.0000e+00
      2.134      0.018     6.4445     76.904     38.926  38.335714     5.5160      7.758   228.5224 1.2574e+02     1.9930      2.092      3.034    24.3337 0.0000e+00
      2.137      0.019     6.4468     76.856     38.921  38.289230     5.6487      7.751   228.0065 1.2477e+02     2.0569      2.095      3.038    24.3167 0.0000e+00
      2.144      0.022     6.4345     76.635     38.927  38.255310     5.8978      7.744   227.6150 1.2343e+02     2.1369      2.102      3.049    24.3037 0.0000e+00
      2.153      0.024     6.4084     76.270     38.945  38.243175     6.0371      7.737   227.4034 1.2210e+02     2.1677      2.112      3.063    24.2850 0.0000e+00
      2.162      0.024     6.3754     75.864     38.980  38.269534     6.0651      7.729   227.3402 1.2100e+02     2.1546      2.121      3.076    24.2394 0.0000e+00
      2.169      0.023     6.3402     75.460     39.023  38.319877     6.1815      7.723   227.2813 1.2015e+02     2.1616      2.128      3.086    24.1819 0.0000e+00
      2.173      0.020     6.3061     75.064     39.041  38.343645     6.3789      7.717   227.2072 1.1944e+02     2.2213      2.132      3.093    24.1265 0.0000e+00
      2.177      0.019     6.2762     74.693     39.008  38.302796     6.4848      7.711   227.2184 1.1893e+02     2.2655      2.135      3.098    24.0819 0.0000e+00
      2.179      0.019     6.2506     74.351     38.931  38.207146     6.4967      7.705   227.3299 1.1858e+02     2.2696      2.137      3.100    24.0725 0.0000e+00
      2.183      0.020     6.2291     74.043     38.829  38.076541     6.4675      7.699   227.5243 1.1808e+02     2.3012      2.141      3.104    24.0978 0.0000e+00
      2.189      0.023     6.2125     73.785     38.715  37.930686     6.4078      7.694   227.6751 1.1717e+02     2.3117      2.146      3.112    24.1094 0.0000e+00
      2.196      0.027     6.1993     73.572     38.656  37.841207     6.3720      7.688   227.6905 1.1596e+02     2.2752      2.152      3.121    24.0944 0.0000e+00
      2.204      0.032     6.1957     73.479     38.664  37.820492     6.3656      7.682   227.7968 1.1474e+02     2.2869      2.161      3.135    24.0685 0.0000e+00
      2.213      0.036     6.2129     73.642     38.674  37.807252     6.4499      7.677   228.0138 1.1360e+02     2.4226      2.170      3.148    24.0271 0.0000e+00
      2.222      0.038     6.2519     74.068     38.695  37.808134     6.6098      7.671   228.1623 1.1247e+02     2.6030      2.179      3.159    23.9803 0.0000e+00
      2.232      0.039     6.3018     74.628     38.736  37.831128     6.6912      7.664   228.3023 1.1107e+02     2.6676      2.188      3.173    23.9377 0.0000e+00
      2.243      0.039     6.3433     75.093     38.751  37.831128     6.7076      7.656   228.8464 1.0950e+02     2.6556      2.199      3.190    23.9016 0.0000e+00
      2.254      0.038     6.3569     75.232     38.740  37.808126     6.8910      7.649   231.1274 1.0809e+02     2.6709      2.211      3.208    23.8724 0.0000e+00
      2.264      0.037     6.3366     74.972     38.751  37.807106     7.3555      7.644   235.2327 1.0694e+02     2.6999      2.221      3.221    23.8469 0.0000e+00
      2.273      0.035     6.2900     74.401     38.774  37.818782     7.7932      7.637   238.8192 1.0600e+02     2.7309      2.229      3.233    23.8247 0.0000e+00
      2.281      0.034     6.2260     73.625     38.788  37.822229     7.9463      7.630   240.9357 1.0503e+02     2.7410      2.237      3.244    23.8060 0.0000e+00
      2.289      0.032     6.1498     72.704     38.827  37.848767     7.9574      7.624   242.7552 1.0397e+02     2.6996      2.244      3.255    23.7904 0.0000e+00
      2.297      0.031     6.0699     71.741     38.877  37.885521     8.0464      7.618   244.4709 1.0288e+02     2.7189      2.253      3.267    23.7772 0.0000e+00
      2.305      0.030     5.9959     70.846     38.888  37.885431     8.2237      7.613   245.4194 1.0183e+02     2.8518      2.260      3.278    23.7637 0.0000e+00
      2.314      0.028     5.9309     70.062     38.859  37.847659     8.3264      7.608   245.8767 1.0090e+02     2.9336      2.269      3.291    23.7493 0.0000e+00
      2.322      0.026     5.8744     69.381     38.829  37.809981     8.3328      7.603   246.3862 1.0020e+02     2.9155      2.278      3.304    23.7353 0.0000e+00
      2.328      0.025     5.8227     68.755     38.839  37.811025     8.3102      7.598   246.9340 9.9624e+01     2.9075      2.283      3.311    23.7198 0.0000e+00
      2.332      0.025     5.7707     68.123     38.900  37.860266     8.2829      7.593   247.3377 9.9076e+01     2.9279      2.287      3.317    23.7052 0.0000e+00
      2.337      0.026     5.7166     67.462     38.952  37.897106     8.2789      7.587   247.5674 9.8491e+01     2.9485      2.292      3.324    23.6933 0.0000e+00
      2.343      0.027     5.6602     66.770     38.947  37.875258     8.3449      7.581   247.6473 9.7667e+01     2.9429      2.297      3.331    23.6824 0.0000e+00
      2.350      0.028     5.5997     66.029     38.939  37.850194     9.0437      7.575   247.7008 9.6671e+01     2.9523      2.304      3.342    23.6718 0.0000e+00
      2.360      0.028     5.5289     65.174     38.950  37.848162    10.3212      7.569   247.8703 9.5712e+01     3.0312      2.314      3.357    23.6594 0.0000e+00
      2.369      0.028     5.4404     64.124     38.957  37.850658    11.0180      7.564   248.0626 9.4912e+01     3.1031      2.323      3.369    23.6415 0.0000e+00
      2.375      0.028     5.3383     62.925     38.984  37.880365    11.1367      7.558   248.2183 9.4362e+01     3.1194      2.330      3.380    23.6189 0.0000e+00
      2.380      0.029     5.2372     61.732     39.060  37.953249    11.8762      7.551   248.2898 9.3888e+01     3.1062      2.334      3.385    23.5957 0.0000e+00
      2.385      0.031     5.1474     60.643     39.164  38.033073    13.2322      7.545   248.0669 9.3182e+01     3.0958      2.338      3.391    23.5760 0.0000e+00
      2.392      0.035     5.0716     59.692     39.257  38.083126    13.9760      7.539   247.6743 9.2150e+01     3.1165      2.346      3.402    23.5691 0.0000e+00
      2.402      0.040     4.9997     58.783     39.335  38.113663    14.0963      7.531   247.3293 9.0828e+01     3.1427      2.355      3.415    23.5804 0.0000e+00
      2.414      0.043     4.9031     57.591     39.412  38.148105    14.6688      7.522   246.9061 8.9211e+01     3.2910      2.365      3.432    23.5890 0.0000e+00
      2.428      0.043     4.7531     55.787     39.481  38.181855    15.7044      7.514   246.5155 8.7474e+01     3.5968      2.380      3.453    23.5606 0.0000e+00
      2.442      0.041     4.5425     53.285     39.527  38.204032    16.2604      7.504   246.6502 8.5974e+01     3.7573      2.396      3.475    23.4995 0.0000e+00
      2.454      0.038     4.2816     50.205     39.566  38.225625    16.3007      7.496   247.0720 8.4998e+01     3.7667      2.407      3.491    23.4381 0.0000e+00
      2.462      0.033     3.9930     46.807     39.607  38.252320    16.2839      7.491   247.2270 8.4446e+01     3.7713      2.415      3.502    23.3863 0.0000e+00
      2.467      0.029     3.7018     43.381     39.642  38.272662    15.9647      7.484   247.4062 8.3917e+01     3.5996      2.419      3.508    23.3444 0.0000e+00
      2.472      0.026     3.4329     40.217     39.665  38.280976    15.3544      7.477   247.6044 8.3341e+01     3.2777      2.424      3.515    23.3175 0.0000e+00
      2.477      0.026     3.2112     37.604     39.691  38.289289    15.0162      7.470   247.6445 8.2726e+01     3.1152      2.429      3.524    23.2997 0.0000e+00
      2.483      0.026     3.0433     35.624     39.729  38.309612    14.9916      7.463   247.5468 8.1858e+01     3.1293      2.434      3.531    23.2833 0.0000e+00
      2.491      0.026     2.9163     34.125     39.773  38.336089    15.0847      7.455   246.1655 8.0882e+01     3.0822      2.443      3.543    23.2687 0.0000e+00
      2.500      0.026     2.8064     32.827     39.809  38.355276    15.2601      7.447   243.3325 8.0134e+01     2.9730      2.453      3.556    23.2511 0.0000e+00
      2.507      0.026     2.6974     31.540     39.819  38.350990    15.3566      7.440   241.7723 7.9519e+01     2.9377      2.459      3.566    23.2281 0.0000e+00
      2.513      0.027     2.5925     30.301     39.834  38.347775    15.3876      7.431   242.3583 7.8934e+01     2.9312      2.465      3.574    23.2073 0.0000e+00
      2.518      0.030     2.4939     29.132     39.894  38.379914    15.6248      7.422   243.1040 7.8462e+01     2.9239      2.469      3.581    23.1886 0.0000e+00
      2.523      0.034     2.4008     28.022     39.971  38.421887    16.0646      7.413   243.4750 7.7748e+01     2.9418      2.473      3.587    23.1684 0.0000e+00
      2.532      0.036     2.3160     27.010     40.062  38.474033    16.3031      7.404   243.5746 7.6403e+01     2.9340      2.481      3.599    23.1505 0.0000e+00
      2.545      0.037     2.2398     26.101     40.191  38.565634    16.3308      7.394   243.3626 7.4801e+01     2.8897      2.495      3.619    23.1317 0.0000e+00
      2.559      0.037     2.1664     25.229     40.363  38.703482    16.4915      7.385   244.0091 7.3560e+01     2.8342      2.512      3.643    23.1019 0.0000e+00
      2.570      0.036     2.0897     24.324     40.693  38.997135    16.7765      7.376   245.4543 7.2810e+01     2.7812      2.522      3.658    23.0584 0.0000e+00
      2.577      0.033     2.0045     23.322     41.250  39.511300    16.9279      7.367   246.1241 7.2295e+01     2.7368      2.528      3.667    23.0109 0.0000e+00
      2.582      0.032     1.9035     22.136     41.748  39.964537    16.9250      7.359   247.0311 7.1770e+01     2.7253      2.532      3.672    22.9699 0.0000e+00
      2.588      0.034     1.7787     20.667     41.986  40.156807    16.7315      7.350   247.9888 7.1092e+01     2.7338      2.537      3.680    22.9358 0.0000e+00
      2.595      0.038     1.6197     18.800     42.132  40.247581    16.3814      7.338   247.3784 7.0131e+01     2.7173      2.544      3.690    22.9102 0.0000e+00
      2.605      0.041     1.4197     16.460     42.241  40.299570    16.1925      7.325   246.4477 6.8787e+01     2.7093      2.553      3.703    22.8895 0.0000e+00
      2.619      0.042     1.1822     13.694     42.260  40.277029    16.1850      7.311   244.7376 6.7200e+01     2.7278      2.568      3.725    22.8640 0.0000e+00
      2.634      0.039     0.9257     10.717     42.234  40.229133    16.2173      7.299   242.0171 6.5779e+01     2.7277      2.585      3.749    22.8238 0.0000e+00
      2.647      0.033     0.6725      7.783     42.247  40.228719    16.4628      7.288   239.8824 6.4813e+01     2.6471      2.598      3.768    22.7616 0.0000e+00
      2.655      0.028     0.4440      5.138     42.435  40.399081    16.9023      7.279   238.8021 6.4368e+01     2.5160      2.606      3.779    22.6904 0.0000e+00
      2.658      0.024     0.2644      3.059     42.900  40.827592    17.1382      7.272   238.5055 6.4336e+01     2.4545      2.608      3.782    22.6405 0.0000e+00
      2.658      0.023     0.1459      1.687     43.607  41.470426    17.1557      7.264   238.3615 6.4299e+01     2.4835      2.606      3.780    22.6177 0.0000e+00
      2.660      0.025     0.0869      1.003     44.219  42.008130    17.1501      7.256   238.0926 6.3732e+01     2.5617      2.606      3.779    22.6041 0.0000e+00
      2.668      0.029     0.0740      0.853     44.314  42.054952    17.1352      7.246   237.8366 6.2542e+01     2.6370      2.614      3.791    22.5968 0.0000e+00
      2.680      0.030     0.0853      0.983     43.992  41.718791    17.1230      7.236   237.7615 6.1199e+01     2.6613      2.629      3.813    22.5873 0.0000e+00
      2.693      0.029     0.1032      1.190     43.708  41.438390    17.1120      7.226   237.7861 6.0206e+01     2.6733      2.642      3.832    22.5522 0.0000e+00
      2.702      0.027     0.1195      1.377     43.785  41.523981    17.0489      7.218   237.7898 5.9689e+01     2.6591      2.651      3.845    22.4941 0.0000e+00
      2.707      0.024     0.1320      1.522     44.445  42.181818    16.9389      7.210   237.8067 5.9528e+01     2.5815      2.656      3.852    22.4401 0.0000e+00
      2.708      0.023     0.1405      1.622     46.058  43.736991    16.8758      7.201   237.9903 5.9464e+01     2.5290      2.655      3.851    22.4042 0.0000e+00
      2.709      0.024     0.1473      1.700     48.354  45.902298    16.8642      7.192   238.5468 5.9178e+01     2.5122      2.655      3.851    22.3874 0.0000e+00
      2.714      0.028     0.1577      1.818     50.192  47.581079    16.8542      7.181   239.2008 5.8410e+01     2.4699      2.660      3.858    22.4034 0.0000e+00
      2.724      0.031     0.1745      2.008     50.675  47.955323    16.8381      7.170   240.1329 5.7225e+01     2.4449      2.671      3.873    22.4490 0.0000e+00
      2.737      0.032     0.1916      2.203     50.052  47.312712    16.8248      7.159   243.4497 5.6100e+01     2.4544      2.685      3.893    22.4925 0.0000e+00
      2.749      0.030     0.2026      2.330     49.642  46.929943    16.8221      7.149   248.6750 5.5254e+01     2.4629      2.697      3.911    22.4833 0.0000e+00
      2.758      0.026     0.2066      2.377     50.020  47.331601    16.8326      7.142   252.0323 5.4768e+01     2.4554      2.707      3.925    22.4016 0.0000e+00
      2.762      0.022     0.2050      2.361     51.261  48.546358    16.8601      7.134   252.9820 5.4684e+01     2.4245      2.711      3.931    22.2982 0.0000e+00
      2.763      0.020     0.2009      2.314     53.584  50.748243    16.8891      7.125   253.3602 5.4601e+01     2.4250      2.709      3.929    22.2326 0.0000e+00
      2.764      0.020     0.1992      2.292     55.316  52.341345    16.8888      7.117   253.7657 5.4306e+01     2.4621      2.710      3.931    22.2468 0.0000e+00
      2.768      0.022     0.2006      2.306     55.274  52.233689    16.8651      7.107   254.0136 5.3775e+01     2.4760      2.713      3.935    22.3110 0.0000e+00
      2.775      0.026     0.2016      2.316     54.734  51.671789    16.8513      7.098   254.0341 5.2885e+01     2.5017      2.719      3.944    22.3608 0.0000e+00
      2.786      0.028     0.2032      2.333     54.341  51.269160    16.8601      7.088   254.0998 5.1927e+01     2.5291      2.732      3.963    22.3696 0.0000e+00
      2.797      0.027     0.2056      2.359     54.130  51.052665    16.8796      7.079   254.2057 5.1208e+01     2.5012      2.744      3.980    22.3128 0.0000e+00
      2.805      0.025     0.2058      2.361     54.248  51.152008    16.8934      7.071   254.1964 5.0707e+01     2.4701      2.752      3.991    22.2341 0.0000e+00
      2.810      0.022     0.2041      2.340     54.451  51.326010    16.9720      7.064   254.2456 5.0457e+01     2.4574      2.757      3.999    22.1913 0.0000e+00
      2.813      0.021     0.2020      2.315     54.663  51.503635    17.1311      7.056   254.4556 5.0391e+01     2.4708      2.758      4.001    22.1645 0.0000e+00
      2.814      0.021     0.1993      2.283     54.839  51.646751    17.2278      7.048   254.6707 5.0231e+01     2.5094      2.759      4.002    22.1492 0.0000e+00
      2.817      0.022     0.1971      2.257     54.808  51.594224    17.2307      7.040   254.7814 4.9762e+01     2.4970      2.763      4.006    22.1436 0.0000e+00
      2.824      0.024     0.1959      2.243     54.599  51.377078    17.1662      7.032   254.9343 4.9035e+01     2.4740      2.769      4.016    22.1276 0.0000e+00
      2.834      0.025     0.1938      2.218     54.337  51.119102    17.0551      7.022   255.2285 4.8275e+01     2.4755      2.779      4.031    22.1037 0.0000e+00
      2.844      0.025     0.1903      2.179     54.028  50.827182    16.9897      7.012   255.3270 4.7689e+01     2.4533      2.790      4.047    22.0834 0.0000e+00
      2.851      0.024     0.1848      2.116     53.830  50.644601    16.9555      7.003   255.0927 4.7365e+01     2.4508      2.798      4.058    22.0634 0.0000e+00
      2.855      0.024     0.1763      2.018     54.216  51.009348    16.6502      6.994   254.8050 4.7188e+01     2.5365      2.801      4.063    22.0416 0.0000e+00
      2.858      0.024     0.1680      1.922     55.087  51.804424    16.0832      6.986   254.6879 4.6971e+01     2.6658      2.802      4.064    22.0285 0.0000e+00
      2.862      0.025     0.1627      1.859     55.695  52.311283    15.7705      6.976   254.7958 4.6513e+01     2.7314      2.804      4.069    22.0328 0.0000e+00
      2.869      0.026     0.1612      1.840     55.901  52.433266    15.7269      6.967   254.9043 4.5767e+01     2.7190      2.811      4.078    22.0339 0.0000e+00
      2.879      0.026     0.1629      1.857     55.912  52.389161    15.5925      6.958   254.8806 4.5002e+01     2.7909      2.824      4.094    22.0454 0.0000e+00
      2.890      0.024     0.1644      1.873     55.838  52.286535    15.3676      6.950   254.8533 4.4433e+01     2.9905      2.835      4.112    22.0364 0.0000e+00
      2.897      0.021     0.1633      1.861     56.038  52.463870    15.2500      6.943   254.9193 4.4137e+01     3.1183      2.843      4.123    21.9538 0.0000e+00
      2.901      0.017     0.1600      1.825     56.681  53.071035    15.2365      6.936   254.9903 4.4094e+01     3.1455      2.846      4.127    21.8856 0.0000e+00
      2.902      0.016     0.1565      1.785     57.299  53.651521    15.2515      6.927   255.1950 4.4114e+01     3.1363      2.846      4.128    21.8413 0.0000e+00
      2.902      0.016     0.1522      1.735     57.561  53.887654    15.5316      6.917   255.7597 4.4011e+01     3.1599      2.845      4.126    21.8032 0.0000e+00
      2.905      0.018     0.1467      1.672     57.702  54.018728    16.0502      6.908   256.1397 4.3678e+01     3.2479      2.846      4.129    21.8014 0.0000e+00
      2.910      0.021     0.1440      1.641     57.761  54.091881    16.3293      6.900   255.9175 4.3115e+01     3.3151      2.853      4.138    21.8122 0.0000e+00
      2.919      0.022     0.1435      1.636     57.647  54.009202    16.3789      6.892   255.4824 4.2486e+01     3.3611      2.863      4.152    21.8186 0.0000e+00
      2.929      0.021     0.1420      1.620     57.515  53.909224    16.5403      6.885   254.4929 4.1983e+01     3.4388      2.873      4.167    21.8002 0.0000e+00
      2.936      0.018     0.1409      1.607     57.622  54.027528    16.8010      6.878   253.0735 4.1718e+01     3.5223      2.880      4.178    21.7933 0.0000e+00
      2.938      0.014     0.1409      1.607     58.379  54.740238    16.9301      6.871   252.4304 4.1684e+01     3.5460      2.883      4.182    21.8208 0.0000e+00
      2.938      0.013     0.1406      1.604     59.949  56.168290    16.9064      6.862   252.2242 4.1734e+01     3.5430      2.882      4.180    21.8387 0.0000e+00
      2.938      0.014     0.1425      1.622     61.509  57.495849    16.5879      6.854   251.8705 4.1674e+01     3.5165      2.880      4.178    21.8618 0.0000e+00
      2.940      0.016     0.1475      1.673     62.060  57.819481    15.9920      6.845   251.4240 4.1342e+01     3.4389      2.881      4.179    21.8788 0.0000e+00
      2.946      0.020     0.1516      1.716     61.795  57.410296    15.6566      6.837   250.6107 4.0829e+01     3.3678      2.888      4.188    21.8877 0.0000e+00
      2.954      0.021     0.1535      1.735     61.370  56.936001    15.6400      6.831   249.5226 4.0298e+01     3.3592      2.897      4.201    21.8763 0.0000e+00
      2.963      0.021     0.1528      1.727     61.007  56.599636    15.9469      6.826   248.5063 3.9814e+01     3.3645      2.906      4.215    21.7569 0.0000e+00
      2.970      0.020     0.1490      1.685     60.947  56.586390    16.5462      6.821   247.8737 3.9565e+01     3.3408      2.915      4.227    21.5659 0.0000e+00
      2.974      0.018     0.1425      1.612     61.682  57.284613    16.8939      6.815   247.8103 3.9558e+01     3.3473      2.917      4.231    21.4183 0.0000e+00
      2.975      0.018     0.1346      1.522     63.188  58.619111    16.9344      6.809   248.0838 3.9537e+01     3.3520      2.917      4.231    21.3596 0.0000e+00
      2.976      0.020     0.1275      1.439     64.473  59.685025    16.8344      6.802   248.3413 3.9355e+01     3.3369      2.917      4.231    21.3683 0.0000e+00
      2.980      0.023     0.1220      1.373     64.878  59.933489    16.6310      6.797   248.5142 3.8925e+01     3.3476      2.920      4.235    21.4236 0.0000e+00
      2.988      0.028     0.1180      1.327     64.806  59.778794    16.5148      6.792   248.7120 3.8306e+01     3.3591      2.930      4.249    21.4608 0.0000e+00
      2.999      0.031     0.1156      1.299     64.794  59.722464    16.4867      6.788   249.1837 3.7714e+01     3.3545      2.941      4.266    21.4003 0.0000e+00
      3.009      0.032     0.1146      1.288     65.130  60.015532    16.3737      6.784   250.0876 3.7208e+01     3.2915      2.951      4.281    21.2804 0.0000e+00
      3.018      0.032     0.1163      1.306     66.036  60.841859    16.1782      6.779   251.1231 3.6813e+01     3.1765      2.961      4.294    21.1713 0.0000e+00
      3.026      0.031     0.1175      1.320     67.200  61.890522    16.0701      6.775   251.7245 3.6533e+01     3.1244      2.968      4.304    21.1031 0.0000e+00
      3.031      0.031     0.1158      1.299     67.791  62.391061    16.0587      6.770   251.8520 3.6234e+01     3.1186      2.973      4.311    21.0741 0.0000e+00
      3.037      0.031     0.1137      1.274     67.689  62.250641    16.0408      6.765   251.6317 3.5847e+01     3.1067      2.979      4.319    21.0664 0.0000e+00
      3.045      0.032     0.1123      1.259     67.505  62.037237    15.8271      6.760   250.8681 3.5386e+01     3.1642      2.986      4.331    21.0670 0.0000e+00
      3.055      0.032     0.1119      1.254     67.499  61.973372    15.4321      6.754   250.1054 3.4906e+01     3.2644      2.996      4.345    21.0535 0.0000e+00
      3.065      0.031     0.1116      1.249     67.591  61.987225    15.2073      6.747   249.7230 3.4450e+01     3.3114      3.007      4.361    21.0110 0.0000e+00
      3.074      0.028     0.1105      1.235     67.760  62.077416    15.1588      6.742   248.9974 3.4060e+01     3.3356      3.016      4.374    20.9740 0.0000e+00
      3.081      0.025     0.1090      1.217     68.061  62.300513    14.9645      6.738   246.2365 3.3778e+01     3.3731      3.022      4.384    20.9522 0.0000e+00
      3.085      0.022     0.1081      1.206     68.496  62.649197    14.6229      6.734   241.6372 3.3583e+01     3.3994      3.027      4.391    20.9063 0.0000e+00
      3.089      0.020     0.1085      1.210     68.857  62.922084    14.4379      6.729   238.3857 3.3415e+01     3.4086      3.030      4.394    20.8461 0.0000e+00
      3.094      0.018     0.1097      1.223     68.999  62.991970    14.4379      6.724   237.0371 3.3201e+01     3.3927      3.033      4.399    20.7978 0.0000e+00
      3.099      0.017     0.1095      1.219     69.038  62.985237    14.6586      6.719   236.2581 3.2927e+01     3.2988      3.038      4.407    20.7627 0.0000e+00
      3.105      0.016     0.1090      1.212     69.108  63.031440    15.0566      6.714   235.9357 3.2704e+01     3.1589      3.045      4.416    20.7316 0.0000e+00
      3.110      0.014     0.1095      1.218     69.201  63.105322    15.2628      6.710   235.8069 3.2564e+01     3.1053      3.050      4.424    20.6872 0.0000e+00
      3.113      0.012     0.1099      1.222     69.235  63.115223    15.2491      6.707   235.4754 3.2438e+01     3.1082      3.052      4.427    20.6362 0.0000e+00
      3.114      0.009     0.1088      1.210     69.238  63.087509    14.8820      6.703   234.6806 3.2318e+01     3.1023      3.053      4.429    20.6037 0.0000e+00
      3.115      0.007     0.1072      1.190     69.275  63.088246    14.2050      6.699   233.5100 3.2237e+01     3.1263      3.055      4.431    20.5968 0.0000e+00
      3.116      0.006     0.1057      1.174     69.281  63.060483    13.8279      6.696   232.1624 3.2166e+01     3.1535      3.056      4.432    20.5949 0.0000e+00
      3.118      0.006     0.1039      1.155     69.190  62.942607    13.7411      6.691   230.7766 3.2048e+01     3.1573      3.058      4.436    20.5781 0.0000e+00
      3.120      0.007     0.1018      1.130     69.075  62.807922    13.2660      6.687   229.7463 3.1893e+01     3.1113      3.059      4.437    20.5532 0.0000e+00
      3.121      0.007     0.1003      1.113     69.049  62.767755    12.4124      6.683   229.1697 3.1742e+01     3.0238      3.061      4.439    20.5301 0.0000e+00
      3.124      0.007     0.1010      1.122     69.125  62.838570    11.9485      6.680   228.5371 3.1607e+01     2.9533      3.063      4.443    20.5066 0.0000e+00
      3.126      0.008     0.1012      1.123     69.329  63.028070    11.8934      6.677   227.5179 3.1455e+01     2.8999      3.065      4.446    20.4799 0.0000e+00
      3.127      0.009     0.0993      1.102     69.620  63.277936    11.7186      6.675   226.5695 3.1278e+01     2.9281      3.066      4.447    20.4549 0.0000e+00
      3.129      0.010     0.0990      1.097     69.837  63.442513    11.3981      6.672   225.9315 3.1101e+01     3.0492      3.068      4.450    20.4405 0.0000e+00
      3.131      0.011     0.1001      1.110     69.926  63.491292    11.2156      6.669   225.1395 3.0890e+01     3.1129      3.071      4.454    20.4468 0.0000e+00
      3.134      0.013     0.1008      1.118     69.923  63.486002    11.1945      6.666   224.3067 3.0602e+01     3.0886      3.074      4.458    20.4571 0.0000e+00
      3.139      0.014     0.1006      1.116     69.904  63.505777    11.1793      6.663   224.1213 3.0268e+01     3.0596      3.078      4.464    20.4457 0.0000e+00
      3.143      0.014     0.0989      1.098     69.969  63.603220    10.9758      6.660   224.8767 2.9948e+01     3.0366      3.082      4.470    20.4179 0.0000e+00
      3.146      0.015     0.0968      1.075     70.165  63.773690    10.6097      6.656   225.8686 2.9639e+01     3.0548      3.085      4.475    20.3860 0.0000e+00
      3.150      0.015     0.0960      1.065     70.468  63.976634    10.4193      6.651   225.4456 2.9284e+01     3.1274      3.089      4.480    20.3781 0.0000e+00
      3.154      0.016     0.0962      1.065     70.782  64.148544    10.3558      6.647   224.1504 2.8869e+01     3.1523      3.093      4.486    20.4174 0.0000e+00
      3.157      0.017     0.0964      1.066     70.965  64.198178     9.7597      6.643   224.2322 2.8436e+01     3.0808      3.096      4.492    20.4611 0.0000e+00
      3.161      0.020     0.0961      1.061     70.860  64.004073     8.6707      6.639   224.7144 2.7927e+01     2.9961      3.100      4.497    20.4592 0.0000e+00
      3.166      0.022     0.0958      1.056     70.622  63.709854     8.0797      6.636   223.7858 2.7245e+01     2.9521      3.105      4.503    20.4008 0.0000e+00
      3.172      0.024     0.0968      1.066     70.608  63.630444     8.0258      6.632   222.3827 2.6440e+01     2.9142      3.111      4.512    20.3087 0.0000e+00
      3.180      0.025     0.0979      1.078     70.800  63.743579     7.9827      6.629   221.5155 2.5645e+01     2.9039      3.118      4.523    20.2225 0.0000e+00
      3.187      0.025     0.0986      1.084     70.995  63.869066     7.9177      6.624   220.9588 2.4950e+01     2.9191      3.126      4.533    20.1526 0.0000e+00
      3.194      0.024     0.0997      1.096     71.181  64.002631     7.8920      6.620   220.3842 2.4362e+01     2.9155      3.133      4.544    20.0979 0.0000e+00
      3.200      0.022     0.1002      1.101     71.364  64.149827     7.8925      6.617   219.8160 2.3854e+01     2.9211      3.139      4.553    20.0536 0.0000e+00
      3.205      0.019     0.1011      1.111     71.480  64.249308     7.9507      6.615   219.3379 2.3423e+01     2.9252      3.143      4.559    20.0104 0.0000e+00
      3.209      0.017     0.1022      1.123     71.555  64.314871     8.0720      6.613   219.4207 2.2981e+01     2.9046      3.147      4.565    19.9728 0.0000e+00
      3.213      0.014     0.1013      1.113     71.635  64.370030     8.1461      6.611   220.0425 2.2446e+01     2.8858      3.151      4.571    19.9483 0.0000e+00
      3.217      0.012     0.0998      1.096     71.722  64.407311     8.1936      6.610   220.0594 2.1919e+01     2.8809      3.154      4.576    19.9377 0.0000e+00
      3.220      0.009     0.0990      1.086     71.822  64.447505     8.5546      6.610   219.2805 2.1569e+01     2.9068      3.159      4.581    19.9358 0.0000e+00
      3.222      0.007     0.0980      1.075     71.819  64.410649     9.2124      6.609   219.1428 2.1419e+01     2.9546      3.161      4.583    19.9388 0.0000e+00
      3.223      0.005     0.0965      1.059     71.605  64.216089     9.5664      6.609   220.2875 2.1358e+01     2.9703      3.161      4.584    19.9335 0.0000e+00
      3.223      0.004     0.0953      1.045     71.380  64.067084     9.5812      6.608   221.0754 2.1299e+01     2.9441      3.161      4.585    19.8991 0.0000e+00
      3.224      0.003     0.0933      1.025     71.352  64.135827     9.5106      6.607   220.7538 2.1186e+01     2.9735      3.161      4.585    19.8555 0.0000e+00
      3.224      0.003     0.0919      1.010     71.391  64.220424     9.4477      6.607   220.4425 2.0996e+01     3.0214      3.162      4.586    19.8323 0.0000e+00
      3.225 -9.990e-29 -9.990e-29 -9.990e-29 -9.990e-29 -9.990e-29 -9.990e-29 -9.990e-29 -9.990e-29 2.0811e+01 -9.990e-29      3.163      4.588    19.8207 0.0000e+00
      3.227 -9.990e-29 -9.990e-29 -9.990e-29 -9.990e-29 -9.990e-29 -9.990e-29 -9.990e-29 -9.990e-29 2.0708e+01 -9.990e-29      3.165      4.590    19.8542 0.0000e+00
      3.228 -9.990e-29 -9.990e-29 -9.990e-29 -9.990e-29 -9.990e-29 -9.990e-29 -9.990e-29 -9.990e-29 2.0670e+01 -9.990e-29      3.166      4.591    19.9510 0.0000e+00
      3.228 -9.990e-29 -9.990e-29 -9.990e-29 -9.990e-29 -9.990e-29 -9.990e-29 -9.990e-29 -9.990e-29 2.0661e+01 -9.990e-29      3.166      4.592    20.0083 0.0000e+00
