* Sea-Bird SBE19plus  Data File:
* FileName = C:\DATA\090419_bvr50_0003.hex
* Software version 2.8.0.119 SB_Terminal.dll
* Temperature SN = 7809
* Conductivity SN = 7809
* System UpLoad Time = Sep 04 2019 17:00:34
* <ApplicationData>
* <Seaterm232>
* <SoftwareVersion>2.8.0.119</SoftwareVersion>
* <BuildDate>07-Nov-2018</BuildDate>
* </Seaterm232>
* </ApplicationData>
* cast   3 04 Sep 2019 12:58:53 samples 1631 to 2733, avg = 1, stop = mag switch
# nquan = 16
# nvalues = 908                         
# units = specified
# name 0 = depFM: Depth [fresh water, m]
# name 1 = dz/dtM: Descent Rate [m/s]
# name 2 = sbeox0Mg/L: Oxygen, SBE 43 [mg/l]
# name 3 = sbeox0PS: Oxygen, SBE 43 [% saturation]
# name 4 = specc: Specific Conductance [uS/cm]
# name 5 = c0uS/cm: Conductivity [uS/cm]
# name 6 = flECO-AFL: Fluorescence, WET Labs ECO-AFL/FL [mg/m^3]
# name 7 = ph: pH
# name 8 = orp: Oxidation Reduction Potential [mV]
# name 9 = par/sat/log: PAR/Logarithmic, Satlantic
# name 10 = turbWETntu0: Turbidity, WET Labs ECO [NTU]
# name 11 = prdM: Pressure, Strain Gauge [db]
# name 12 = prdE: Pressure, Strain Gauge [psi]
# name 13 = tv290C: Temperature [ITS-90, deg C]
# name 14 = density00: Density [density, kg/m^3]
# name 15 = flag:  0.000e+00
# span 0 =     -0.664,     10.491       
# span 1 =     -0.023,      0.209       
# span 2 =    -0.0756,     7.9155       
# span 3 =     -0.789,     99.188       
# span 4 =      1.017,    268.417       
# span 5 =   1.212542, 183.575070       
# span 6 =    -0.1462,    27.9354       
# span 7 =      6.040,      8.238       
# span 8 =  -114.4193,   219.5486       
# span 9 = 1.2326e-01, 1.7005e+03       
# span 10 =    -1.0462,    30.7416      
# span 11 =     -0.652,     10.288      
# span 12 =     -0.945,     14.921      
# span 13 =     8.9366,    34.6160      
# span 14 =   994.1725,   999.9251      
# span 15 = 0.0000e+00, 0.0000e+00      
# interval = seconds: 0.25
# start_time = Sep 04 2019 12:58:53 [Instrument's time stamp, header]
# bad_flag = -9.990e-29
# <Sensors count="9" >
#   <sensor Channel="1" >
#     <!-- Count, Temperature -->
#     <TemperatureSensor SensorID="58" >
#       <SerialNumber>7809</SerialNumber>
#       <CalibrationDate>24-Mar-19</CalibrationDate>
#       <A0>1.21792325e-003</A0>
#       <A1>2.81669265e-004</A1>
#       <A2>-1.60333336e-006</A2>
#       <A3>1.98414625e-007</A3>
#       <Slope>1.00000000</Slope>
#       <Offset>0.0000</Offset>
#     </TemperatureSensor>
#   </sensor>
#   <sensor Channel="2" >
#     <!-- Frequency 0, Conductivity -->
#     <ConductivitySensor SensorID="3" >
#       <SerialNumber>7809</SerialNumber>
#       <CalibrationDate>24-Mar-19</CalibrationDate>
#       <UseG_J>1</UseG_J>
#       <!-- Cell const and series R are applicable only for wide range sensors. -->
#       <SeriesR>0.0000</SeriesR>
#       <CellConst>2000.0000</CellConst>
#       <ConductivityType>0</ConductivityType>
#       <Coefficients equation="0" >
#         <A>0.00000000e+000</A>
#         <B>0.00000000e+000</B>
#         <C>0.00000000e+000</C>
#         <D>0.00000000e+000</D>
#         <M>0.0</M>
#         <CPcor>-9.57000000e-008</CPcor>
#       </Coefficients>
#       <Coefficients equation="1" >
#         <G>-1.00589325e+000</G>
#         <H>1.26816302e-001</H>
#         <I>-1.51560448e-004</I>
#         <J>2.67137274e-005</J>
#         <CPcor>-9.57000000e-008</CPcor>
#         <CTcor>3.2500e-006</CTcor>
#         <!-- WBOTC not applicable unless ConductivityType = 1. -->
#         <WBOTC>0.00000000e+000</WBOTC>
#       </Coefficients>
#       <Slope>1.00000000</Slope>
#       <Offset>0.00000</Offset>
#     </ConductivitySensor>
#   </sensor>
#   <sensor Channel="3" >
#     <!-- Count, Pressure, Strain Gauge -->
#     <PressureSensor SensorID="46" >
#       <SerialNumber>7809</SerialNumber>
#       <CalibrationDate>11-Mar-19</CalibrationDate>
#       <PA0>4.56561833e-002</PA0>
#       <PA1>4.85095118e-004</PA1>
#       <PA2>-2.88327090e-012</PA2>
#       <PTEMPA0>-5.48784562e+001</PTEMPA0>
#       <PTEMPA1>5.53756816e+001</PTEMPA1>
#       <PTEMPA2>-5.86727098e-001</PTEMPA2>
#       <PTCA0>5.25246745e+005</PTCA0>
#       <PTCA1>1.22304214e+001</PTCA1>
#       <PTCA2>-3.56745036e-001</PTCA2>
#       <PTCB0>2.51668750e+001</PTCB0>
#       <PTCB1>3.75000000e-004</PTCB1>
#       <PTCB2>0.00000000e+000</PTCB2>
#       <Offset>0.000000</Offset>
#     </PressureSensor>
#   </sensor>
#   <sensor Channel="4" >
#     <!-- A/D voltage 0, Oxygen, SBE 43 -->
#     <OxygenSensor SensorID="38" >
#       <SerialNumber>0434</SerialNumber>
#       <CalibrationDate>13-Apr-19</CalibrationDate>
#       <Use2007Equation>1</Use2007Equation>
#       <CalibrationCoefficients equation="0" >
#         <!-- Coefficients for Owens-Millard equation. -->
#         <Boc>0.0000</Boc>
#         <Soc>0.0000e+000</Soc>
#         <offset>0.0000</offset>
#         <Pcor>0.00e+000</Pcor>
#         <Tcor>0.0000</Tcor>
#         <Tau>0.0</Tau>
#       </CalibrationCoefficients>
#       <CalibrationCoefficients equation="1" >
#         <!-- Coefficients for Sea-Bird equation - SBE calibration in 2007 and later. -->
#         <Soc>4.2007e-001</Soc>
#         <offset>-0.6109</offset>
#         <A>-4.3656e-003</A>
#         <B> 1.7017e-004</B>
#         <C>-2.5341e-006</C>
#         <D0> 2.5826e+000</D0>
#         <D1> 1.92634e-004</D1>
#         <D2>-4.64803e-002</D2>
#         <E> 3.6000e-002</E>
#         <Tau20> 1.1800</Tau20>
#         <H1>-3.3000e-002</H1>
#         <H2> 5.0000e+003</H2>
#         <H3> 1.4500e+003</H3>
#       </CalibrationCoefficients>
#     </OxygenSensor>
#   </sensor>
#   <sensor Channel="5" >
#     <!-- A/D voltage 1, PAR/Logarithmic, Satlantic -->
#     <PARLog_SatlanticSensor SensorID="76" >
#       <SerialNumber>1122</SerialNumber>
#       <CalibrationDate>08-May-2019</CalibrationDate>
#       <a0>9.7456e-001</a0>
#       <a1>8.1640e-001</a1>
#       <Im>1.3589e+000</Im>
#       <Multiplier>1.0000e+000</Multiplier>
#     </PARLog_SatlanticSensor>
#   </sensor>
#   <sensor Channel="6" >
#     <!-- A/D voltage 2, pH -->
#     <pH_Sensor SensorID="43" >
#       <SerialNumber>0363</SerialNumber>
#       <CalibrationDate>15-Apr-19</CalibrationDate>
#       <Slope>4.5952</Slope>
#       <Offset>2.5370</Offset>
#     </pH_Sensor>
#   </sensor>
#   <sensor Channel="7" >
#     <!-- A/D voltage 3, Oxidation Reduction Potential -->
#     <OxidationReductionPotentialSensor SensorID="41" >
#       <SerialNumber>0363</SerialNumber>
#       <CalibrationDate>15-Apr-19</CalibrationDate>
#       <B>2.499480</B>
#       <M>-0.496195</M>
#       <Offset>0.0</Offset>
#     </OxidationReductionPotentialSensor>
#   </sensor>
#   <sensor Channel="8" >
#     <!-- A/D voltage 4, Fluorometer, WET Labs ECO-AFL/FL -->
#     <FluoroWetlabECO_AFL_FL_Sensor SensorID="20" >
#       <SerialNumber>FLNTURT-2496</SerialNumber>
#       <CalibrationDate>08-May-2019</CalibrationDate>
#       <ScaleFactor>5.00000000e+001</ScaleFactor>
#       <!-- Dark output -->
#       <Vblank>0.0550</Vblank>
#     </FluoroWetlabECO_AFL_FL_Sensor>
#   </sensor>
#   <sensor Channel="9" >
#     <!-- A/D voltage 5, Turbidity Meter, WET Labs, ECO-NTU -->
#     <TurbidityMeter SensorID="67" >
#       <SerialNumber>FLNTURT-2496</SerialNumber>
#       <CalibrationDate>08-May-2019</CalibrationDate>
#       <ScaleFactor>189.000000</ScaleFactor>
#       <!-- Dark output -->
#       <DarkVoltage>0.071000</DarkVoltage>
#     </TurbidityMeter>
#   </sensor>
# </Sensors>
# datcnv_date = Sep 04 2019 17:01:02, 7.26.7.129 [datcnv_vars = 15]
# datcnv_in = C:\DATA\090419_bvr50_0003.hex C:\DATA\SBE19plusV2_7809.xmlcon
# datcnv_skipover = 0
# datcnv_ox_hysteresis_correction = yes
# datcnv_ox_tau_correction = yes
# filter_date = Sep 04 2019 17:01:24, 7.26.7.129
# filter_in = C:\DATA\090419_bvr50_0003.cnv
# filter_low_pass_tc_A = 0.030
# filter_low_pass_tc_B = 0.150
# filter_low_pass_A_vars = prdM prdE tv290C density00
# filter_low_pass_B_vars = depFM dz/dtM sbeox0Mg/L sbeox0PS specc c0uS/cm flECO-AFL ph orp par/sat/log turbWETntu0
# alignctd_date = Sep 04 2019 17:01:48, 7.26.7.129
# alignctd_in = C:\DATA\090419_bvr50_0003.cnv
# alignctd_adv = dz/dtM 1.000, sbeox0Mg/L 1.000, sbeox0PS 1.000, specc 1.000, c0uS/cm 1.000, flECO-AFL 1.000, ph 1.000, orp 1.000, turbWETntu0 1.000                                                                                 
# file_type = ascii
*END*
     -0.664 4.8448e-18     6.5915     94.228      1.017   1.212542    -0.1396      6.225   200.2688 1.6992e+03    -0.5965     -0.651     -0.944    34.5933   994.1804 0.0000e+00
     -0.664 5.3293e-17     6.5918     94.233      1.067   1.272092    -0.1462      6.215   208.2933 1.0778e+03    -0.5873     -0.651     -0.944    34.5946   994.1799 0.0000e+00
     -0.664 5.8622e-16     6.5922     94.239      1.175   1.400728    -0.0381      6.205   210.9446 5.1891e+02    -0.5293     -0.651     -0.945    34.5962   994.1794 0.0000e+00
     -0.664 6.4484e-15     6.5917     94.232      1.418   1.690772     0.1707      6.206   203.0719 6.8874e+02    -0.3870     -0.651     -0.944    34.5979   994.1788 0.0000e+00
     -0.664 7.0933e-14     6.5914     94.230      1.723   2.054499     0.2794      6.212   194.7562 1.3829e+03    -0.2763     -0.651     -0.945    34.5985   994.1786 0.0000e+00
     -0.664 7.8026e-13     6.5919     94.237      1.941   2.313691     0.2791      6.215   193.4280 1.6285e+03    -0.2732     -0.652     -0.945    34.5980   994.1788 0.0000e+00
     -0.664 8.5829e-12     6.5917     94.237      2.081   2.480279     0.2802      6.216   199.9186 1.1295e+03    -0.2828     -0.651     -0.944    34.5987   994.1785 0.0000e+00
     -0.664 9.4411e-11     6.5913     94.234      2.191   2.611369     0.2063      6.219   211.5432 4.8560e+02     0.0991     -0.651     -0.944    34.5991   994.1784 0.0000e+00
     -0.664 1.0385e-09     6.5900     94.217      2.261   2.694793     0.0360      6.219   219.5486 2.0462e+02     0.8374     -0.651     -0.944    34.5995   994.1783 0.0000e+00
     -0.664 1.1424e-08     6.5867     94.171      2.236   2.665225    -0.0625      6.217   219.5336 1.8554e+02     1.2709     -0.651     -0.944    34.6009   994.1778 0.0000e+00
     -0.664 1.2566e-07     6.5823     94.111      2.156   2.570689    -0.0654      6.217   217.8154 1.9726e+02     1.2764     -0.651     -0.944    34.6027   994.1772 0.0000e+00
     -0.664      0.000     6.5772     94.041      2.098   2.502204    -0.0685      6.219   215.8949 2.0230e+02     0.6087     -0.651     -0.944    34.6039   994.1769 0.0000e+00
     -0.664      0.000     6.5723     93.974      2.072   2.470815    -0.0827      6.221   211.4556 1.9236e+02    -0.5429     -0.650     -0.943    34.6048   994.1766 0.0000e+00
     -0.664      0.000     6.5688     93.924      2.157   2.571335    -0.0817      6.226   184.8766 2.2571e+02    -1.0462     -0.651     -0.944    34.6058   994.1762 0.0000e+00
     -0.664      0.002     6.5683     93.892      3.337   3.971033    -0.0390      6.300   141.8073 2.9931e+02    -0.3639     -0.651     -0.945    34.6079   994.1754 0.0000e+00
     -0.664      0.010     6.5896     93.910      8.578  10.142562     0.3121      6.563   121.7648 2.9402e+02     7.6408     -0.650     -0.943    34.6092   994.1751 0.0000e+00
     -0.664      0.033     6.6706     94.038     17.498  20.455902     0.9391      6.983   121.1623 2.2139e+02    22.3933     -0.652     -0.945    34.6121   994.1740 0.0000e+00
     -0.663      0.069     6.8114     94.267     24.098  27.728366     1.2986      7.393   125.3163 1.8965e+02    30.4676     -0.650     -0.943    34.6121   994.1742 0.0000e+00
     -0.657      0.112     6.9623     94.502     26.183  29.580586     1.5301      7.708   132.0677 2.1549e+02    30.7416     -0.651     -0.945    34.6160   994.1725 0.0000e+00
     -0.629      0.153     7.0989     94.717     26.604  29.528097     3.6253      7.924   136.4570 4.4929e+02    24.7565     -0.632     -0.917    34.6088   994.1761 0.0000e+00
     -0.569      0.186     7.2243     94.962     26.945  29.440463     7.4541      8.054   142.0785 9.3669e+02    13.6188     -0.562     -0.815    33.9863   994.3895 0.0000e+00
     -0.493      0.205     7.3291     95.245     27.244  29.408537     9.5459      8.123   148.7566 1.3441e+03     7.5674     -0.480     -0.696    32.6269   994.8400 0.0000e+00
     -0.422      0.209     7.4034     95.496     27.448  29.395289     9.7215      8.151   154.2212 1.5503e+03     7.0407     -0.410     -0.594    31.4347   995.2216 0.0000e+00
     -0.367      0.200     7.4365     95.478     27.595  29.406818     9.5342      8.156   157.0435 1.6529e+03     6.8564     -0.353     -0.512    30.4758   995.5186 0.0000e+00
     -0.327      0.181     7.3635     94.250     27.700  29.420810     7.2987      8.165   156.9830 1.6697e+03     5.1754     -0.318     -0.460    29.5457   995.8001 0.0000e+00
     -0.295      0.162     7.1872     91.795     27.779  29.437424     3.2048      8.183   158.1355 1.6335e+03     2.1510     -0.292     -0.425    28.8794   995.9966 0.0000e+00
     -0.259      0.149     7.0770     90.253     27.864  29.480691     0.9830      8.203   160.3097 1.6029e+03     0.5376     -0.256     -0.372    28.4870   996.1109 0.0000e+00
     -0.219      0.145     7.1077     90.553     27.972  29.563178     0.8007      8.217   161.7610 1.6310e+03     0.4160     -0.214     -0.310    28.2529   996.1783 0.0000e+00
     -0.182      0.146     7.1791     91.419     28.091  29.673315     0.8359      8.213   163.8954 1.6894e+03     0.5171     -0.179     -0.258    28.0803   996.2279 0.0000e+00
     -0.146      0.145     7.2103     91.836     28.141  29.733683     0.9058      8.207   166.7584 1.5961e+03     0.7106     -0.144     -0.208    27.9638   996.2611 0.0000e+00
     -0.109      0.139     7.2006     91.844     28.087  29.722044     0.9266      8.212   169.4463 1.4688e+03     0.8217     -0.109     -0.157    27.8895   996.2822 0.0000e+00
     -0.070      0.125     7.1720     91.744     28.001  29.723011     0.9313      8.224   171.3574 1.6267e+03     0.8444     -0.068     -0.098    27.8261   996.3004 0.0000e+00
     -0.034      0.106     7.1087     91.230     27.985  29.808976     1.0060      8.235   172.6577 1.7005e+03     0.7889     -0.030     -0.044    27.8009   996.3078 0.0000e+00
     -0.004      0.084     6.9662     89.624     28.030  29.936761     1.1188      8.238   173.9826 1.4043e+03     0.6751      0.001      0.002    27.8009   996.3080 0.0000e+00
      0.014      0.060     6.7324     86.757     28.040  29.999161     1.1684      8.228   175.2458 1.2728e+03     0.6159      0.019      0.027    27.8639   996.2902 0.0000e+00
      0.019      0.037     6.4596     83.334     28.000  29.992481     1.1633      8.213   176.0573 1.3448e+03     0.5971      0.020      0.028    28.0611   996.2342 0.0000e+00
      0.021      0.017     6.2216     80.329     27.967  29.982955     1.1007      8.199   176.7392 1.2946e+03     0.5460      0.021      0.030    28.2762   996.1729 0.0000e+00
      0.022      0.005     6.0812     78.561     27.977  30.010918     0.9755      8.185   177.8976 1.3514e+03     0.4565      0.023      0.034    28.4134   996.1335 0.0000e+00
      0.019      0.000     6.0948     78.761     28.030  30.076807     0.8970      8.174   179.4811 1.3889e+03     0.4003      0.020      0.030    28.4970   996.1093 0.0000e+00
      0.015      0.000     6.2720     81.059     28.091  30.145126     0.8885      8.167   180.7420 1.3975e+03     0.4240      0.013      0.020    28.5545   996.0927 0.0000e+00
      0.014      0.000     6.5520     84.684     28.142  30.202453     0.9080      8.162   181.5271 1.5693e+03     0.4484      0.012      0.018    28.6009   996.0792 0.0000e+00
      0.017      0.001     6.8498     88.588     28.180  30.262326     0.9325      8.156   182.3491 1.6459e+03     0.4324      0.018      0.026    28.6321   996.0702 0.0000e+00
      0.020      0.004     7.1063     92.021     28.175  30.298018     0.9421      8.149   183.1091 1.5979e+03     0.4283      0.021      0.031    28.6494   996.0653 0.0000e+00
      0.022      0.006     7.2959     94.592     28.156  30.316814     0.9463      8.143   183.5756 1.4484e+03     0.4308      0.022      0.032    28.6540   996.0640 0.0000e+00
      0.022      0.006     7.4126     96.178     28.176  30.362747     0.9485      8.138   184.2034 1.2859e+03     0.4292      0.021      0.031    28.6410   996.0677 0.0000e+00
      0.023      0.005     7.4590     96.834     28.202  30.409267     0.9344      8.135   184.9354 1.3062e+03     0.4092      0.021      0.031    28.6670   996.0603 0.0000e+00
      0.025      0.003     7.4480     96.738     28.211  30.435149     0.9062      8.133   185.2849 1.4712e+03     0.3532      0.025      0.036    28.7643   996.0319 0.0000e+00
      0.028      0.003     7.4035     96.193     28.188  30.421908     0.8844      8.129   185.4178 1.5344e+03     0.3097      0.028      0.041    28.8438   996.0088 0.0000e+00
      0.028      0.004     7.3505     95.513     28.143  30.376091     0.8789      8.119   185.7678 1.4259e+03     0.3417      0.029      0.042    28.8767   995.9992 0.0000e+00
      0.027      0.005     7.3028     94.887     28.157  30.388794     0.8834      8.106   186.2466 1.3195e+03     0.4117      0.027      0.039    28.9072   995.9903 0.0000e+00
      0.026      0.008     7.2653     94.395     28.214  30.448586     0.8859      8.098   186.7334 1.3336e+03     0.4022      0.025      0.037    28.9394   995.9810 0.0000e+00
      0.027      0.010     7.2524     94.245     28.223  30.464508     0.8832      8.093   187.5236 1.4167e+03     0.3588      0.024      0.035    28.9586   995.9754 0.0000e+00
      0.032      0.011     7.2769     94.675     28.179  30.454412     0.8852      8.088   188.4016 1.3710e+03     0.3788      0.029      0.043    28.9645   995.9735 0.0000e+00
      0.040      0.011     7.3220     95.514     28.100  30.453481     0.9103      8.082   188.9169 1.2920e+03     0.4144      0.040      0.058    28.9531   995.9769 0.0000e+00
      0.046      0.009     7.3661     96.363     28.015  30.453392     0.9447      8.077   188.9368 1.3409e+03     0.4286      0.047      0.068    28.9519   995.9774 0.0000e+00
      0.047      0.006     7.4037     97.014     27.966  30.453490     0.9541      8.073   188.7276 1.4119e+03     0.4186      0.047      0.069    28.9475   995.9786 0.0000e+00
      0.045      0.001     7.4317     97.434     27.951  30.454755     0.9455      8.070   188.7110 1.4268e+03     0.3921      0.044      0.064    28.9839   995.9680 0.0000e+00
      0.041     -0.002     7.4481     97.659     27.961  30.468701     0.9278      8.066   188.6499 1.4081e+03     0.4028      0.040      0.058    29.1795   995.9105 0.0000e+00
      0.040     -0.003     7.4554     97.768     27.981  30.495225     0.9039      8.063   188.9348 1.4062e+03     0.4170      0.038      0.055    29.3828   995.8504 0.0000e+00
      0.040     -0.002     7.4556     97.793     27.998  30.521654     0.8914      8.058   190.0910 1.3957e+03     0.4001      0.039      0.057    29.4613   995.8271 0.0000e+00
      0.041     -0.001     7.4514     97.753     28.005  30.534450     0.8894      8.048   191.0132 1.3687e+03     0.3956      0.040      0.058    29.4801   995.8215 0.0000e+00
      0.041     -0.002     7.4479     97.711     27.994  30.523036     0.9053      8.035   191.2232 1.3667e+03     0.4601      0.040      0.058    29.4747   995.8230 0.0000e+00
      0.042     -0.006     7.4452     97.704     27.974  30.510553     0.9366      8.026   191.5981 1.3886e+03     0.5911      0.040      0.058    29.4809   995.8213 0.0000e+00
      0.042     -0.011     7.4393     97.708     27.949  30.510444     0.9562      8.017   192.3628 1.4205e+03     0.6683      0.042      0.061    29.5009   995.8153 0.0000e+00
      0.039     -0.016     7.4290     97.672     27.929  30.521766     0.9596      8.005   192.5534 1.3994e+03     0.6403      0.041      0.060    29.5137   995.8116 0.0000e+00
      0.033     -0.021     7.4136     97.534     27.909  30.520601     0.9520      7.998   192.0099 1.3537e+03     0.5808      0.033      0.049    29.5057   995.8139 0.0000e+00
      0.023     -0.023     7.3869     97.179     27.888  30.496383     0.9160      8.003   191.9000 1.3933e+03     0.5383      0.022      0.032    29.5095   995.8126 0.0000e+00
      0.014     -0.022     7.3379     96.472     27.895  30.482754     0.8542      8.008   192.4291 1.4391e+03     0.4858      0.014      0.020    29.5722   995.7940 0.0000e+00
      0.007     -0.018     7.2629     95.391     27.925  30.482686     0.8198      8.005   192.9873 1.3841e+03     0.4381      0.006      0.009    29.6415   995.7732 0.0000e+00
      0.003     -0.012     7.1809     94.211     27.969  30.495507     0.8211      7.992   193.3146 1.3516e+03     0.4207     -0.000      0.001    29.6859   995.7599 0.0000e+00
      0.004     -0.005     7.1216     93.356     28.007  30.510802     0.8265      7.974   193.6334 1.3570e+03     0.4065      0.003      0.004    29.6851   995.7602 0.0000e+00
      0.006      0.001     7.0926     92.962     28.039  30.540673     0.8336      7.957   194.1744 1.3551e+03     0.3975      0.007      0.010    29.6377   995.7743 0.0000e+00
      0.006      0.005     7.0844     92.903     28.080  30.602864     0.8374      7.946   194.6079 1.4461e+03     0.4097      0.005      0.007    29.5772   995.7924 0.0000e+00
      0.008      0.006     7.0906     93.056     28.081  30.628251     0.8297      7.938   194.7439 1.4967e+03     0.4229      0.006      0.009    29.5048   995.8140 0.0000e+00
      0.010      0.006     7.1102     93.353     28.037  30.593859     0.8355      7.930   194.7868 1.4294e+03     0.4589      0.010      0.014    29.4493   995.8305 0.0000e+00
      0.012      0.005     7.1391     93.730     28.013  30.567772     0.8732      7.922   194.8686 1.4115e+03     0.5507      0.012      0.017    29.4377   995.8340 0.0000e+00
      0.014      0.004     7.1688     94.091     28.021  30.566650     0.9033      7.915   194.7865 1.4437e+03     0.6149      0.014      0.020    29.4811   995.8210 0.0000e+00
      0.014      0.004     7.1904     94.335     28.046  30.580270     0.8968      7.909   194.5688 1.4307e+03     0.6124      0.015      0.021    29.5400   995.8036 0.0000e+00
      0.014      0.004     7.1947     94.358     28.079  30.605519     0.8806      7.904   194.9896 1.4365e+03     0.5526      0.014      0.021    29.5635   995.7966 0.0000e+00
      0.014      0.002     7.1903     94.290     28.094  30.618113     0.8810      7.900   196.0878 1.4445e+03     0.4496      0.013      0.020    29.5572   995.7984 0.0000e+00
      0.015     -0.001     7.2033     94.484     28.075  30.605632     0.8844      7.897   196.9207 1.3399e+03     0.3832      0.013      0.019    29.5380   995.8041 0.0000e+00
      0.019     -0.003     7.2362     94.972     28.035  30.581526     0.8788      7.894   196.9725 1.2535e+03     0.3725      0.019      0.028    29.5108   995.8123 0.0000e+00
      0.020     -0.004     7.2622     95.391     28.011  30.580491     0.8737      7.890   196.6279 1.2787e+03     0.3846      0.023      0.034    29.4848   995.8200 0.0000e+00
      0.015     -0.004     7.2565     95.381     28.002  30.593168     0.8740      7.885   196.4541 1.3518e+03     0.3990      0.015      0.023    29.4791   995.8217 0.0000e+00
      0.008     -0.004     7.2255     95.017     28.002  30.607933     0.8829      7.877   196.4195 1.4102e+03     0.4152      0.005      0.008    29.4895   995.8185 0.0000e+00
      0.005     -0.003     7.2117     94.876     28.011  30.632127     0.8948      7.866   196.4673 1.4090e+03     0.4176      0.003      0.004    29.5280   995.8070 0.0000e+00
      0.008     -0.003     7.2357     95.272     27.987  30.631902     0.8960      7.856   196.7741 1.3895e+03     0.3942      0.008      0.011    29.5848   995.7902 0.0000e+00
      0.012     -0.002     7.2739     95.898     27.925  30.605258     0.8893      7.846   197.2044 1.3709e+03     0.3624      0.013      0.019    29.6227   995.7790 0.0000e+00
      0.014     -0.002     7.3015     96.366     27.855  30.563854     0.8829      7.832   197.4530 1.3622e+03     0.3613      0.015      0.022    29.6496   995.7709 0.0000e+00
      0.012     -0.002     7.3038     96.432     27.797  30.512061     0.8799      7.817   197.5434 1.3840e+03     0.3811      0.013      0.019    29.6614   995.7673 0.0000e+00
      0.007     -0.000     7.2627     95.871     27.779  30.486671     0.8779      7.805   197.6090 1.4032e+03     0.3723      0.007      0.010    29.7025   995.7550 0.0000e+00
      0.003      0.003     7.1685     94.599     27.810  30.510659     0.8940      7.795   197.8164 1.4288e+03     0.3855      0.002      0.003    29.7986   995.7262 0.0000e+00
      0.003      0.007     7.0532     93.104     27.836  30.548270     0.9274      7.783   198.3297 1.4343e+03     0.4098      0.001      0.002    29.8737   995.7036 0.0000e+00
      0.008      0.008     6.9742     92.213     27.799  30.560721     0.9430      7.772   198.7394 1.4113e+03     0.4037      0.006      0.009    29.8887   995.6991 0.0000e+00
      0.017      0.008     6.9491     92.128     27.696  30.534390     0.9441      7.770   198.7263 1.3935e+03     0.4100      0.018      0.026    29.8683   995.7053 0.0000e+00
      0.023      0.006     6.9569     92.441     27.584  30.483864     0.9584      7.770   198.5149 1.3323e+03     0.4197      0.027      0.039    29.8398   995.7139 0.0000e+00
      0.023      0.002     6.9746     92.770     27.532  30.457555     0.9858      7.762   198.2483 1.2657e+03     0.4237      0.025      0.036    29.8302   995.7168 0.0000e+00
      0.018     -0.003     6.9785     92.818     27.545  30.470140     0.9983      7.751   197.9979 1.2787e+03     0.4250      0.017      0.025    29.9308   995.6865 0.0000e+00
      0.013     -0.006     6.9439     92.313     27.594  30.509129     0.9959      7.743   197.9824 1.3346e+03     0.4029      0.012      0.017    30.1311   995.6260 0.0000e+00
      0.011     -0.006     6.8710     91.289     27.646  30.548233     0.9659      7.735   198.3204 1.3324e+03     0.3860      0.010      0.015    30.2801   995.5807 0.0000e+00
      0.011     -0.004     6.8082     90.390     27.680  30.562194     0.9046      7.726   198.8143 1.2862e+03     0.3846      0.011      0.016    30.3280   995.5660 0.0000e+00
      0.012      0.000     6.8222     90.506     27.692  30.550986     0.8698      7.718   199.3075 1.2978e+03     0.3862      0.012      0.017    30.3106   995.5713 0.0000e+00
      0.012      0.002     6.9251     91.811     27.701  30.539577     0.8752      7.710   199.6379 1.3543e+03     0.4056      0.012      0.018    30.2760   995.5819 0.0000e+00
      0.012      0.002     7.0720     93.718     27.724  30.551119     0.9171      7.701   199.7119 1.3951e+03     0.4213      0.012      0.018    30.2445   995.5915 0.0000e+00
      0.013      0.002     7.2202     95.663     27.741  30.563612     0.9776      7.695   199.6859 1.4124e+03     0.4128      0.013      0.018    30.2001   995.6049 0.0000e+00
      0.014      0.002     7.3486     97.361     27.743  30.563717     1.0002      7.691   199.5817 1.4040e+03     0.4005      0.013      0.020    30.1522   995.6195 0.0000e+00
      0.015      0.002     7.4441     98.630     27.731  30.552389     0.9913      7.686   199.4847 1.3850e+03     0.4043      0.015      0.022    30.1125   995.6315 0.0000e+00
      0.016      0.001     7.4859     99.188     27.730  30.553551     0.9909      7.681   199.5455 1.3861e+03     0.4267      0.016      0.023    30.0873   995.6391 0.0000e+00
      0.016      0.001     7.4479     98.683     27.753  30.577781     0.9860      7.676   199.6275 1.3968e+03     0.4409      0.016      0.023    30.0768   995.6423 0.0000e+00
      0.016      0.000     7.3264     97.073     27.765  30.591529     0.9680      7.671   199.7880 1.4021e+03     0.4457      0.015      0.022    30.0757   995.6428 0.0000e+00
      0.015 -3.912e-07     7.1735     95.060     27.762  30.592871     0.9549      7.665   200.1958 1.4054e+03     0.4509      0.015      0.021    30.0809   995.6411 0.0000e+00
      0.015      0.000     7.0730     93.757     27.754  30.594021     0.9492      7.660   200.6864 1.3923e+03     0.4389      0.014      0.020    30.0842   995.6401 0.0000e+00
      0.015      0.000     7.0631     93.666     27.753  30.605441     0.9679      7.653   201.1608 1.3608e+03     0.4312      0.015      0.022    30.0827   995.6406 0.0000e+00
      0.015     -0.001     7.1181     94.436     27.739  30.604068     0.9996      7.644   201.4570 1.3447e+03     0.4238      0.014      0.021    30.0791   995.6418 0.0000e+00
      0.015     -0.001     7.1926     95.452     27.706  30.577443     1.0115      7.637   201.3430 1.3598e+03     0.3819      0.015      0.023    30.0860   995.6396 0.0000e+00
      0.015     -0.001     7.2439     96.138     27.668  30.537356     1.0241      7.632   200.9005 1.3776e+03     0.3507      0.016      0.022    30.1055   995.6338 0.0000e+00
      0.014     -0.001     7.2249     95.854     27.413  30.246286     1.0223      7.630   200.4080 1.3770e+03     0.3744      0.013      0.019    30.1332   995.6253 0.0000e+00
      0.013     -0.001     7.1112     94.119     26.951  29.659586     0.9803      7.628   200.1207 1.3695e+03     0.4054      0.012      0.017    30.1588   995.6175 0.0000e+00
      0.013     -0.001     6.9945     91.888     26.819  29.280915     0.9413      7.626   200.0936 1.3608e+03     0.4312      0.013      0.018    30.1818   995.6105 0.0000e+00
      0.014      0.000     7.0267     91.241     27.152  29.284053     0.9325      7.624   200.2526 1.3413e+03     0.4562      0.013      0.019    30.1805   995.6110 0.0000e+00
      0.014 1.8627e-08     7.2040     92.541     27.551  29.379683     0.9348      7.619   200.4945 1.3270e+03     0.4461      0.014      0.021    30.1805   995.6109 0.0000e+00
      0.014 2.0489e-07     7.3963     94.360     27.795  29.421458     0.9174      7.610   200.6953 1.3478e+03     0.4396      0.014      0.020    30.1431   995.6221 0.0000e+00
      0.014      0.000     7.5309     95.741     27.948  29.471567     0.8865      7.601   200.7883 1.3996e+03     0.4436      0.013      0.019    29.6966   995.7563 0.0000e+00
      0.014      0.000     7.6032     96.486     28.068  29.541229     0.8736      7.595   200.8435 1.4236e+03     0.4295      0.014      0.020    28.8877   995.9956 0.0000e+00
      0.014      0.001     7.6140     96.531     28.120  29.565709     0.8912      7.591   201.0189 1.4173e+03     0.4330      0.013      0.018    28.2248   996.1874 0.0000e+00
      0.014      0.001     7.5608     95.840     28.136  29.577159     0.9262      7.588   201.3612 1.4171e+03     0.4530      0.012      0.019    27.8478   996.2946 0.0000e+00
      0.015      0.001     7.4497     94.444     28.170  29.616215     0.9420      7.585   201.6263 1.3947e+03     0.4412      0.014      0.021    27.6916   996.3387 0.0000e+00
      0.016      0.001     7.2955     92.483     28.211  29.657249     0.9340      7.581   201.6425 1.3554e+03     0.3891      0.016      0.023    27.6077   996.3623 0.0000e+00
      0.016      0.000     7.1257     90.311     28.251  29.692602     0.9336      7.579   201.4714 1.3345e+03     0.3480      0.016      0.023    27.5412   996.3810 0.0000e+00
      0.016 8.7904e-07     6.9690     88.316     28.286  29.726397     0.9283      7.579   201.3646 1.3462e+03     0.3368      0.015      0.022    27.5502   996.3786 0.0000e+00
      0.015      0.000     6.8302     86.565     28.305  29.748612     0.9047      7.576   201.7271 1.3817e+03     0.3520      0.014      0.021    27.5676   996.3735 0.0000e+00
      0.014      0.000     6.7006     84.939     28.320  29.770857     0.8915      7.571   202.4126 1.3960e+03     0.3680      0.013      0.019    27.5614   996.3754 0.0000e+00
      0.014      0.001     6.5755     83.372     28.345  29.805018     0.8909      7.565   202.9421 1.3750e+03     0.3660      0.014      0.020    27.5434   996.3804 0.0000e+00
      0.015      0.003     6.4507     81.816     28.373  29.844418     0.9049      7.558   203.2256 1.3705e+03     0.3947      0.015      0.022    27.5336   996.3832 0.0000e+00
      0.016      0.004     6.3244     80.245     28.382  29.866551     0.9305      7.552   203.2596 1.3956e+03     0.4199      0.015      0.022    27.5433   996.3805 0.0000e+00
      0.017      0.005     6.1981     78.670     28.386  29.882292     0.9404      7.548   203.0089 1.3986e+03     0.4076      0.017      0.024    27.5557   996.3770 0.0000e+00
      0.019      0.005     6.0765     77.153     28.400  29.907853     0.9387      7.545   202.6038 1.3691e+03     0.4104      0.018      0.027    27.5660   996.3742 0.0000e+00
      0.020      0.005     5.9670     75.786     28.404  29.921826     0.9530      7.543   202.2329 1.3392e+03     0.4209      0.020      0.029    27.5850   996.3688 0.0000e+00
      0.021      0.004     5.8711     74.588     28.398  29.924354     0.9827      7.542   202.1374 1.3584e+03     0.4360      0.021      0.030    27.6083   996.3623 0.0000e+00
      0.023      0.003     5.7876     73.548     28.403  29.938425     1.0027      7.540   202.3969 1.3986e+03     0.4620      0.023      0.032    27.6277   996.3569 0.0000e+00
      0.024      0.001     5.7141     72.635     28.420  29.965073     1.0052      7.535   202.7028 1.4102e+03     0.4405      0.023      0.034    27.6474   996.3513 0.0000e+00
      0.024      0.000     5.6454     71.781     28.438  29.992761     0.9865      7.529   202.6519 1.4311e+03     0.3735      0.024      0.035    27.6651   996.3464 0.0000e+00
      0.023     -0.001     5.5813     70.984     28.455  30.019408     0.9590      7.526   202.2975 1.4267e+03     0.3396      0.024      0.034    27.6798   996.3422 0.0000e+00
      0.022     -0.001     5.5249     70.287     28.460  30.033468     0.9490      7.525   202.0319 1.3732e+03     0.3586      0.021      0.031    27.6949   996.3379 0.0000e+00
      0.021     -0.002     5.4749     69.668     28.455  30.035882     0.9447      7.524   202.1080 1.3482e+03     0.3733      0.020      0.030    27.7119   996.3332 0.0000e+00
      0.022     -0.003     5.4291     69.103     28.459  30.048601     0.9498      7.520   202.7020 1.3701e+03     0.3862      0.021      0.030    27.7267   996.3290 0.0000e+00
      0.022     -0.004     5.3880     68.599     28.462  30.060365     0.9845      7.512   203.7927 1.3950e+03     0.4152      0.022      0.031    27.7414   996.3249 0.0000e+00
      0.022     -0.006     5.3501     68.134     28.446  30.051231     1.0094      7.500   204.7123 1.3813e+03     0.4302      0.022      0.032    27.7573   996.3205 0.0000e+00
      0.020     -0.007     5.3134     67.685     28.451  30.065082     1.0084      7.486   204.7869 1.3492e+03     0.4364      0.020      0.030    27.7713   996.3165 0.0000e+00
      0.016     -0.007     5.2775     67.246     28.476  30.100948     1.0067      7.475   204.1785 1.3612e+03     0.4243      0.016      0.024    27.7857   996.3124 0.0000e+00
      0.011     -0.006     5.2421     66.812     28.471  30.104190     0.9896      7.467   203.3785 1.3903e+03     0.4145      0.010      0.015    27.8013   996.3080 0.0000e+00
      0.009     -0.003     5.2081     66.393     28.465  30.104294     0.9576      7.463   202.9439 1.3767e+03     0.4175      0.007      0.011    27.8159   996.3039 0.0000e+00
      0.010     -0.001     5.1770     66.008     28.457  30.102214     0.9492      7.458   203.2268 1.3437e+03     0.3948      0.009      0.013    27.8299   996.2999 0.0000e+00
      0.013      0.001     5.1471     65.641     28.429  30.079046     0.9566      7.451   203.8736 1.3472e+03     0.3692      0.013      0.018    27.8467   996.2952 0.0000e+00
      0.015      0.002     5.1160     65.257     28.422  30.077986     0.9771      7.442   204.3967 1.3643e+03     0.3696      0.016      0.023    27.8634   996.2905 0.0000e+00
      0.015      0.002     5.0852     64.874     28.428  30.089418     1.0246      7.433   204.6466 1.3728e+03     0.3998      0.015      0.022    27.8733   996.2877 0.0000e+00
      0.014      0.001     5.0572     64.526     28.425  30.090363     1.0622      7.428   204.4866 1.3805e+03     0.4396      0.013      0.019    27.8823   996.2852 0.0000e+00
      0.013      0.001     5.0317     64.211     28.420  30.089426     1.0759      7.425   204.1831 1.3789e+03     0.4578      0.012      0.018    27.8962   996.2812 0.0000e+00
      0.013      0.000     5.0089     63.927     28.405  30.078097     1.1043      7.424   204.2466 1.3792e+03     0.4229      0.012      0.017    27.9079   996.2778 0.0000e+00
      0.014      0.000     4.9886     63.677     28.403  30.080290     1.1543      7.419   204.5655 1.3824e+03     0.3781      0.014      0.020    27.9148   996.2759 0.0000e+00
      0.016      0.000     4.9694     63.446     28.430  30.115947     1.1854      7.414   204.6835 1.4004e+03     0.4077      0.015      0.022    27.9235   996.2734 0.0000e+00
      0.016      0.001     4.9497     63.209     28.435  30.128531     1.1863      7.411   204.3826 1.4236e+03     0.4525      0.016      0.023    27.9325   996.2709 0.0000e+00
      0.015      0.001     4.9300     62.972     28.406  30.105554     1.1651      7.410   204.0247 1.4329e+03     0.4281      0.014      0.021    27.9372   996.2695 0.0000e+00
      0.014      0.001     4.9110     62.744     28.386  30.091941     1.1368      7.409   204.0564 1.4296e+03     0.3755      0.011      0.017    27.9431   996.2679 0.0000e+00
      0.014      0.001     4.8899     62.491     28.377  30.090858     1.1308      7.407   204.4218 1.4001e+03     0.3738      0.012      0.018    27.9573   996.2639 0.0000e+00
      0.015      0.000     4.8648     62.188     28.370  30.092469     1.1348      7.404   204.8288 1.3722e+03     0.4078      0.015      0.023    27.9722   996.2596 0.0000e+00
      0.016 -3.913e-07     4.8364     61.843     28.379  30.111439     1.1427      7.399   204.9330 1.3687e+03     0.4256      0.016      0.024    27.9832   996.2565 0.0000e+00
      0.016      0.000     4.8065     61.478     28.387  30.129886     1.1656      7.394   204.6501 1.3727e+03     0.4251      0.016      0.023    27.9972   996.2525 0.0000e+00
      0.015      0.000     4.7772     61.120     28.375  30.125166     1.1778      7.390   204.3341 1.3789e+03     0.4021      0.015      0.022    28.0128   996.2481 0.0000e+00
      0.013     -0.001     4.7489     60.774     28.361  30.117833     1.1770      7.389   204.1222 1.3871e+03     0.3775      0.013      0.019    28.0274   996.2439 0.0000e+00
      0.013     -0.001     4.7223     60.448     28.341  30.104693     1.1820      7.388   204.0672 1.3867e+03     0.3889      0.013      0.018    28.0452   996.2388 0.0000e+00
      0.014     -0.001     4.6971     60.140     28.322  30.093199     1.1867      7.386   204.2715 1.3717e+03     0.4094      0.014      0.020    28.0637   996.2335 0.0000e+00
      0.015     -0.001     4.6736     59.855     28.326  30.105779     1.1827      7.382   204.4415 1.3633e+03     0.3950      0.015      0.022    28.0774   996.2296 0.0000e+00
      0.015      0.000     4.6527     59.600     28.342  30.129909     1.1759      7.378   204.4883 1.3661e+03     0.3795      0.015      0.022    28.0914   996.2257 0.0000e+00
      0.014      0.000     4.6324     59.349     28.339  30.131157     1.1819      7.374   204.5790 1.3696e+03     0.3860      0.013      0.020    28.1061   996.2215 0.0000e+00
      0.013      0.000     4.6120     59.096     28.325  30.120877     1.2034      7.370   204.7644 1.3753e+03     0.3745      0.012      0.018    28.1193   996.2177 0.0000e+00
      0.013      0.001     4.5947     58.883     28.331  30.132527     1.2282      7.365   205.0079 1.3799e+03     0.3387      0.013      0.018    28.1354   996.2132 0.0000e+00
      0.014      0.001     4.5797     58.700     28.339  30.145122     1.2474      7.359   205.2009 1.3843e+03     0.3464      0.014      0.021    28.1491   996.2092 0.0000e+00
      0.016      0.001     4.5633     58.500     28.334  30.146267     1.2629      7.354   205.2045 1.3891e+03     0.4024      0.016      0.023    28.1559   996.2074 0.0000e+00
      0.016      0.001     4.5456     58.286     28.328  30.146369     1.2674      7.350   204.7945 1.3912e+03     0.4266      0.016      0.023    28.1625   996.2055 0.0000e+00
      0.016      0.000     4.5271     58.062     28.321  30.146376     1.2584      7.351   204.1149 1.3805e+03     0.4089      0.015      0.022    28.1724   996.2026 0.0000e+00
      0.015      0.000     4.5074     57.824     28.314  30.146366     1.2589      7.354   203.6120 1.3594e+03     0.3849      0.014      0.021    28.1802   996.2004 0.0000e+00
      0.014      0.000     4.4879     57.588     28.306  30.146260     1.2643      7.356   203.6183 1.3569e+03     0.3991      0.014      0.020    28.1894   996.1977 0.0000e+00
      0.014      0.001     4.4684     57.353     28.297  30.145107     1.2632      7.356   204.1903 1.3802e+03     0.4489      0.014      0.020    28.2023   996.1940 0.0000e+00
      0.015      0.002     4.4484     57.110     28.278  30.132433     1.2637      7.353   204.8504 1.4017e+03     0.4634      0.015      0.021    28.2155   996.1902 0.0000e+00
      0.016      0.005     4.4288     56.871     28.259  30.119933     1.2604      7.347   205.0608 1.4001e+03     0.4425      0.016      0.023    28.2290   996.1864 0.0000e+00
      0.016      0.010     4.4133     56.682     28.255  30.120893     1.2579      7.341   203.9800 1.4009e+03     0.4255      0.016      0.023    28.2448   996.1819 0.0000e+00
      0.018      0.018     4.4048     56.578     28.155  30.017147     1.2594      7.328   195.3961 1.4154e+03     0.4224      0.017      0.026    28.2583   996.1780 0.0000e+00
      0.022      0.032     4.4094     56.635     27.969  29.817301     1.2619      7.293   179.7416 1.4156e+03     0.4379      0.020      0.029    28.2732   996.1738 0.0000e+00
      0.029      0.052     4.4758     57.435     27.917  29.734984     1.2621      7.242   169.6596 1.4080e+03     0.4494      0.026      0.039    28.2840   996.1707 0.0000e+00
      0.039      0.073     4.7021     60.238     27.952  29.719771     1.2526      7.201   166.7627 1.4299e+03     0.4297      0.037      0.054    28.2996   996.1663 0.0000e+00
      0.057      0.089     5.1511     65.943     27.894  29.633272     1.2430      7.181   165.1064 1.5546e+03     0.3961      0.050      0.071    28.2974   996.1670 0.0000e+00
      0.091      0.099     5.7775     73.969     27.839  29.577380     1.1804      7.180   163.8302 1.6758e+03     0.4369      0.085      0.123    28.3132   996.1625 0.0000e+00
      0.133      0.104     6.4467     82.474     27.894  29.615046     1.0508      7.194   162.9471 1.5787e+03     0.5620      0.136      0.198    28.2850   996.1708 0.0000e+00
      0.165      0.107     7.0192     89.630     27.977  29.644517     0.9671      7.208   162.4308 1.3532e+03     0.6314      0.167      0.242    28.1232   996.2173 0.0000e+00
      0.184      0.107     7.4215     94.579     28.012  29.616366     0.9492      7.215   162.2341 1.1161e+03     0.6199      0.182      0.263    28.0781   996.2301 0.0000e+00
      0.201      0.105     7.6338     97.159     28.028  29.591824     0.9822      7.212   162.2036 9.1403e+02     0.6202      0.195      0.282    28.1467   996.2106 0.0000e+00
      0.224      0.101     7.6619     97.471     28.052  29.601508     1.0452      7.198   162.0624 8.3022e+02     0.6342      0.215      0.312    28.1089   996.2215 0.0000e+00
      0.255      0.096     7.5331     95.831     28.057  29.606537     1.0688      7.181   161.6447 8.3277e+02     0.6260      0.249      0.361    27.9745   996.2599 0.0000e+00
      0.289      0.089     7.2975     92.839     28.039  29.589175     1.0688      7.173   161.1113 9.8119e+02     0.6194      0.286      0.415    27.8398   996.2982 0.0000e+00
      0.319      0.077     7.0222     89.329     28.035  29.581938     1.0888      7.176   160.7759 1.1228e+03     0.6529      0.317      0.461    27.7655   996.3194 0.0000e+00
      0.337      0.062     6.7656     86.034     28.045  29.582481     1.1282      7.181   160.6014 1.0853e+03     0.7031      0.335      0.485    27.7465   996.3248 0.0000e+00
      0.343      0.050     6.5569     83.322     28.019  29.532271     1.1453      7.183   160.6358 1.0709e+03     0.7014      0.338      0.491    27.7564   996.3220 0.0000e+00
      0.344      0.045     6.4005     81.263     27.998  29.482409     1.1393      7.175   160.8468 1.0862e+03     0.6319      0.335      0.487    27.7617   996.3204 0.0000e+00
      0.348      0.049     6.3003     79.898     28.037  29.487157     1.1872      7.159   160.7443 1.0275e+03     0.5840      0.339      0.492    27.7557   996.3222 0.0000e+00
      0.359      0.058     6.2582     79.271     28.049  29.462719     1.2734      7.145   160.4279 8.1813e+02     0.6148      0.349      0.505    27.7449   996.3253 0.0000e+00
      0.379      0.067     6.2630     79.291     28.044  29.440670     1.3140      7.135   160.2052 5.2321e+02     0.6428      0.366      0.531    27.6917   996.3403 0.0000e+00
      0.408      0.072     6.3074     79.840     28.081  29.474330     1.3220      7.133   160.0302 3.5766e+02     0.6279      0.402      0.582    27.6490   996.3525 0.0000e+00
      0.434      0.074     6.3870     80.816     28.107  29.489010     1.3539      7.137   160.0322 3.0368e+02     0.6316      0.429      0.623    27.5899   996.3691 0.0000e+00
      0.451      0.073     6.4900     82.077     28.124  29.491240     1.4137      7.141   160.2305 2.9659e+02     0.6543      0.443      0.642    27.4856   996.3984 0.0000e+00
      0.462      0.071     6.5984     83.409     28.148  29.501260     1.4465      7.142   160.3622 3.7537e+02     0.6404      0.454      0.658    27.4782   996.4006 0.0000e+00
      0.474      0.067     6.6906     84.543     28.142  29.483243     1.4466      7.139   160.4204 4.6841e+02     0.5952      0.462      0.671    27.4866   996.3983 0.0000e+00
      0.491      0.064     6.7513     85.290     28.130  29.463729     1.4408      7.131   160.3319 4.7420e+02     0.5665      0.479      0.695    27.4531   996.4077 0.0000e+00
      0.513      0.063     6.7744     85.565     28.129  29.455654     1.4284      7.122   159.9812 5.0285e+02     0.5876      0.504      0.731    27.4224   996.4164 0.0000e+00
      0.534      0.060     6.7592     85.341     28.133  29.449045     1.4276      7.119   159.7927 6.3564e+02     0.6549      0.525      0.762    27.3960   996.4239 0.0000e+00
      0.550      0.057     6.7087     84.659     28.147  29.447258     1.4316      7.121   159.7733 7.5714e+02     0.6917      0.541      0.784    27.3750   996.4297 0.0000e+00
      0.560      0.055     6.6305     83.620     28.153  29.434025     1.4244      7.125   159.6613 8.0885e+02     0.6712      0.549      0.798    27.3617   996.4335 0.0000e+00
      0.568      0.055     6.5340     82.345     28.158  29.415911     1.4177      7.124   159.7288 8.8545e+02     0.6376      0.555      0.805    27.3578   996.4346 0.0000e+00
      0.579      0.059     6.4329     81.000     28.187  29.418552     1.4284      7.118   159.9016 9.5852e+02     0.6131      0.566      0.821    27.3350   996.4410 0.0000e+00
      0.595      0.064     6.3407     79.762     28.200  29.402472     1.4424      7.109   159.9434 9.3301e+02     0.6041      0.582      0.844    27.3042   996.4496 0.0000e+00
      0.615      0.068     6.2636     78.723     28.175  29.348337     1.4391      7.104   159.9759 8.7361e+02     0.5935      0.602      0.873    27.2698   996.4592 0.0000e+00
      0.638      0.071     6.2081     77.971     28.183  29.334997     1.4581      7.101   160.0359 8.3453e+02     0.6163      0.626      0.909    27.2300   996.4704 0.0000e+00
      0.659      0.072     6.1793     77.557     28.236  29.368044     1.5165      7.098   160.1524 8.3193e+02     0.6833      0.648      0.940    27.1815   996.4840 0.0000e+00
      0.674      0.070     6.1692     77.355     28.264  29.367187     1.5637      7.093   160.2659 8.4636e+02     0.6822      0.661      0.959    27.1235   996.5000 0.0000e+00
      0.688      0.067     6.1578     77.129     28.256  29.324591     1.5776      7.085   160.2903 8.1835e+02     0.6365      0.674      0.977    27.0715   996.5144 0.0000e+00
      0.705      0.063     6.1367     76.809     28.251  29.297101     1.5983      7.080   160.3614 7.8604e+02     0.6225      0.691      1.003    27.0354   996.5244 0.0000e+00
      0.724      0.060     6.1150     76.519     28.250  29.288559     1.6408      7.077   160.5242 7.7864e+02     0.6104      0.710      1.031    27.0071   996.5323 0.0000e+00
      0.741      0.059     6.0952     76.258     28.252  29.284752     1.6660      7.076   160.7095 7.9239e+02     0.6223      0.728      1.056    26.9501   996.5481 0.0000e+00
      0.753      0.060     6.0691     75.892     28.297  29.314517     1.6771      7.073   160.7955 8.2777e+02     0.6344      0.739      1.072    26.8750   996.5687 0.0000e+00
      0.764      0.061     6.0315     75.369     28.334  29.331178     1.7239      7.069   160.7891 8.2450e+02     0.6249      0.748      1.085    26.8330   996.5802 0.0000e+00
      0.778      0.063     5.9840     74.736     28.316  29.295816     1.8071      7.063   160.8037 7.9950e+02     0.6069      0.761      1.104    26.8306   996.5809 0.0000e+00
      0.796      0.066     5.9375     74.136     28.296  29.267616     1.8596      7.058   160.8001 8.0649e+02     0.5800      0.779      1.131    26.8336   996.5802 0.0000e+00
      0.816      0.068     5.9030     73.699     28.276  29.244011     1.8643      7.053   160.8311 8.0795e+02     0.5953      0.801      1.162    26.7970   996.5903 0.0000e+00
      0.836      0.068     5.8803     73.409     28.237  29.200741     1.8636      7.050   160.9215 7.6890e+02     0.6278      0.821      1.190    26.7484   996.6037 0.0000e+00
      0.854      0.066     5.8721     73.294     28.231  29.188585     1.9041      7.048   161.0321 7.3076e+02     0.6133      0.839      1.216    26.7184   996.6119 0.0000e+00
      0.870      0.062     5.8870     73.469     28.269  29.223919     1.9891      7.048   161.1364 7.3093e+02     0.6162      0.854      1.238    26.7072   996.6150 0.0000e+00
      0.884      0.058     5.9203     73.879     28.294  29.247262     2.0496      7.049   161.1505 7.4723e+02     0.6624      0.868      1.258    26.7078   996.6149 0.0000e+00
      0.898      0.054     5.9587     74.355     28.266  29.217026     2.0641      7.050   161.2015 7.4956e+02     0.6805      0.881      1.279    26.7026   996.6164 0.0000e+00
      0.911      0.053     6.0008     74.873     28.228  29.175581     2.0858      7.050   161.4093 7.2107e+02     0.6714      0.894      1.297    26.6906   996.6197 0.0000e+00
      0.923      0.054     6.0468     75.436     28.247  29.190287     2.1295      7.046   161.6848 6.7931e+02     0.6503      0.905      1.312    26.6791   996.6229 0.0000e+00
      0.935      0.055     6.0801     75.826     28.271  29.204482     2.1591      7.040   161.8650 6.4530e+02     0.6558      0.917      1.329    26.6794   996.6229 0.0000e+00
      0.950      0.056     6.0882     75.888     28.240  29.156845     2.1751      7.033   161.8674 6.3581e+02     0.7041      0.931      1.350    26.6776   996.6235 0.0000e+00
      0.966      0.057     6.0765     75.712     28.219  29.121878     2.1939      7.028   161.7998 6.5537e+02     0.6770      0.947      1.374    26.6700   996.6255 0.0000e+00
      0.982      0.059     6.0532     75.404     28.266  29.162365     2.2125      7.022   161.8218 6.6615e+02     0.5907      0.963      1.397    26.6691   996.6258 0.0000e+00
      0.997      0.061     6.0224     75.000     28.312  29.202221     2.2265      7.016   161.9616 6.5905e+02     0.5777      0.978      1.419    26.6491   996.6314 0.0000e+00
      1.011      0.061     5.9822     74.475     28.280  29.159621     2.2337      7.012   162.0268 6.4811e+02     0.6185      0.991      1.438    26.6110   996.6418 0.0000e+00
      1.025      0.061     5.9314     73.830     28.220  29.091417     2.2208      7.012   162.0073 6.2847e+02     0.6254      1.004      1.458    26.5891   996.6478 0.0000e+00
      1.042      0.061     5.8799     73.188     28.205  29.075493     2.1838      7.011   162.0699 6.0521e+02     0.5952      1.022      1.482    26.5805   996.6502 0.0000e+00
      1.060      0.061     5.8410     72.698     28.225  29.093978     2.1596      7.010   162.0954 5.9503e+02     0.6143      1.040      1.509    26.5675   996.6538 0.0000e+00
      1.075      0.060     5.8136     72.335     28.203  29.061129     2.1612      7.010   162.0579 6.0373e+02     0.6600      1.055      1.530    26.5433   996.6604 0.0000e+00
      1.090      0.059     5.7924     72.049     28.149  28.995544     2.1516      7.012   162.2194 6.1230e+02     0.6558      1.069      1.549    26.5319   996.6636 0.0000e+00
      1.105      0.057     5.7877     71.981     28.156  28.998899     2.1217      7.012   162.4991 5.9913e+02     0.6291      1.084      1.572    26.5397   996.6615 0.0000e+00
      1.119      0.057     5.8030     72.148     28.204  29.038249     2.1024      7.011   162.6871 5.6864e+02     0.5996      1.099      1.593    26.5402   996.6614 0.0000e+00
      1.132      0.057     5.8223     72.335     28.215  29.027169     2.1011      7.010   162.8574 5.3812e+02     0.5932      1.110      1.610    26.5176   996.6677 0.0000e+00
      1.146      0.057     5.8362     72.465     28.198  28.991788     2.1055      7.011   162.9238 5.2955e+02     0.6176      1.122      1.629    26.4881   996.6755 0.0000e+00
      1.162      0.056     5.8540     72.672     28.203  28.991116     2.1380      7.014   162.8870 5.3741e+02     0.5994      1.140      1.653    26.4967   996.6733 0.0000e+00
      1.177      0.055     5.8824     73.022     28.232  29.019042     2.1990      7.015   163.0155 5.4780e+02     0.5706      1.155      1.676    26.4873   996.6760 0.0000e+00
      1.191      0.054     5.9159     73.425     28.231  29.012207     2.2361      7.015   163.1860 5.6532e+02     0.5971      1.168      1.695    26.4259   996.6927 0.0000e+00
      1.204      0.053     5.9467     73.796     28.196  28.971906     2.2403      7.014   163.2278 5.6322e+02     0.6240      1.181      1.713    26.3898   996.7025 0.0000e+00
      1.217      0.053     5.9735     74.132     28.198  28.975896     2.2331      7.011   163.2635 5.4077e+02     0.6334      1.193      1.731    26.3875   996.7031 0.0000e+00
      1.230      0.054     5.9971     74.435     28.215  28.996997     2.2271      7.007   163.2730 5.3624e+02     0.6462      1.206      1.749    26.3930   996.7017 0.0000e+00
      1.243      0.056     6.0140     74.647     28.191  28.973247     2.2279      7.004   163.2561 5.3834e+02     0.6477      1.219      1.768    26.3789   996.7055 0.0000e+00
      1.257      0.058     6.0218     74.742     28.162  28.942534     2.2341      7.003   163.3174 5.3023e+02     0.6504      1.232      1.786    26.3632   996.7098 0.0000e+00
      1.273      0.058     6.0274     74.815     28.161  28.942891     2.2592      7.001   163.4976 5.2339e+02     0.6791      1.247      1.810    26.3704   996.7079 0.0000e+00
      1.291      0.058     6.0393     74.963     28.133  28.914119     2.2892      7.000   163.7142 5.1411e+02     0.7000      1.266      1.837    26.3822   996.7049 0.0000e+00
      1.307      0.057     6.0574     75.176     28.074  28.848437     2.2927      7.000   163.8718 4.9466e+02     0.6745      1.282      1.859    26.3838   996.7045 0.0000e+00
      1.321      0.054     6.0825     75.470     28.079  28.846655     2.2927      7.001   163.9398 4.7650e+02     0.6657      1.296      1.879    26.3770   996.7063 0.0000e+00
      1.334      0.052     6.1147     75.853     28.130  28.892559     2.3058      7.001   163.9345 4.7372e+02     0.6916      1.308      1.897    26.3820   996.7051 0.0000e+00
      1.344      0.051     6.1450     76.211     28.140  28.895868     2.3048      6.997   163.9799 4.7630e+02     0.6599      1.318      1.912    26.3892   996.7032 0.0000e+00
      1.355      0.053     6.1604     76.386     28.137  28.886650     2.2975      6.991   164.1447 4.7444e+02     0.6094      1.329      1.928    26.3752   996.7069 0.0000e+00
      1.367      0.056     6.1511     76.268     28.159  28.907993     2.2956      6.985   164.2928 4.7031e+02     0.6051      1.340      1.944    26.3593   996.7113 0.0000e+00
      1.382      0.059     6.1182     75.868     28.149  28.900136     2.2909      6.982   164.3078 4.6365e+02     0.6085      1.354      1.963    26.3522   996.7134 0.0000e+00
      1.401      0.061     6.0680     75.261     28.099  28.855100     2.3005      6.982   164.3257 4.5923e+02     0.6183      1.374      1.992    26.3344   996.7182 0.0000e+00
      1.420      0.061     6.0070     74.517     28.047  28.807602     2.3162      6.983   164.4234 4.5281e+02     0.6251      1.393      2.021    26.3200   996.7221 0.0000e+00
      1.436      0.061     5.9437     73.740     28.007  28.769980     2.3163      6.983   164.5425 4.4267e+02     0.6251      1.409      2.044    26.3197   996.7223 0.0000e+00
      1.449      0.060     5.8875     73.044     28.017  28.780906     2.3196      6.982   164.6481 4.3507e+02     0.6509      1.422      2.063    26.3278   996.7202 0.0000e+00
      1.461      0.058     5.8437     72.495     28.050  28.812822     2.3565      6.979   164.6669 4.2892e+02     0.6748      1.433      2.078    26.3394   996.7172 0.0000e+00
      1.475      0.056     5.8109     72.075     28.019  28.775192     2.4062      6.977   164.7697 4.2417e+02     0.6524      1.446      2.097    26.3507   996.7141 0.0000e+00
      1.492      0.056     5.7874     71.767     27.959  28.706588     2.4259      6.976   165.1171 4.1688e+02     0.6098      1.462      2.121    26.3570   996.7124 0.0000e+00
      1.508      0.056     5.7798     71.656     28.003  28.744689     2.4216      6.974   165.4255 4.1307e+02     0.6182      1.481      2.147    26.3584   996.7122 0.0000e+00
      1.522      0.055     5.7909     71.766     28.062  28.791732     2.4155      6.970   165.4874 4.1556e+02     0.6551      1.494      2.166    26.3550   996.7132 0.0000e+00
      1.535      0.052     5.8073     71.927     27.994  28.704327     2.4125      6.968   165.4352 4.1279e+02     0.6301      1.504      2.182    26.3441   996.7161 0.0000e+00
      1.548      0.050     5.8220     72.083     27.942  28.639563     2.4112      6.967   165.4826 4.0622e+02     0.5780      1.518      2.202    26.3272   996.7207 0.0000e+00
      1.560      0.049     5.8452     72.360     28.012  28.706586     2.4087      6.965   165.6311 4.0122e+02     0.5825      1.531      2.221    26.3200   996.7227 0.0000e+00
      1.571      0.050     5.8741     72.690     28.068  28.753321     2.3815      6.962   165.6815 3.9762e+02     0.6188      1.540      2.234    26.3022   996.7276 0.0000e+00
      1.582      0.051     5.8891     72.835     28.030  28.697039     2.3337      6.959   165.6611 3.9380e+02     0.6241      1.550      2.248    26.2547   996.7403 0.0000e+00
      1.595      0.053     5.8821     72.727     28.004  28.660520     2.3075      6.956   165.7283 3.9214e+02     0.6133      1.563      2.268    26.2349   996.7456 0.0000e+00
      1.611      0.056     5.8645     72.507     28.036  28.692441     2.2987      6.952   165.8927 3.9297e+02     0.6188      1.581      2.292    26.2421   996.7438 0.0000e+00
      1.626      0.058     5.8442     72.254     28.046  28.702312     2.2278      6.949   166.0139 3.9120e+02     0.6252      1.595      2.314    26.2204   996.7497 0.0000e+00
      1.640      0.059     5.8177     71.916     28.002  28.652984     2.1092      6.949   166.0749 3.8635e+02     0.6259      1.607      2.330    26.1748   996.7620 0.0000e+00
      1.656      0.059     5.7879     71.540     27.957  28.603587     2.0622      6.950   166.2004 3.8109e+02     0.6269      1.624      2.356    26.1568   996.7668 0.0000e+00
      1.673      0.059     5.7657     71.267     27.965  28.612616     2.0744      6.950   166.3274 3.7424e+02     0.6380      1.642      2.381    26.1690   996.7637 0.0000e+00
      1.688      0.059     5.7618     71.228     27.984  28.635261     2.1793      6.949   166.4057 3.6730e+02     0.6611      1.656      2.401    26.1673   996.7642 0.0000e+00
      1.702      0.060     5.7823     71.492     27.968  28.623609     2.3772      6.945   166.4591 3.6417e+02     0.6767      1.669      2.420    26.1538   996.7678 0.0000e+00
      1.715      0.061     5.8249     72.026     27.940  28.598635     2.4814      6.943   166.5424 3.5924e+02     0.6637      1.681      2.438    26.1483   996.7694 0.0000e+00
      1.730      0.062     5.8864     72.794     27.925  28.587098     2.4856      6.939   166.7242 3.5434e+02     0.6341      1.695      2.459    26.1484   996.7694 0.0000e+00
      1.748      0.063     5.9629     73.750     27.945  28.611011     2.4886      6.935   166.9369 3.5454e+02     0.6136      1.714      2.486    26.1578   996.7670 0.0000e+00
      1.766      0.062     6.0420     74.743     27.962  28.633976     2.5341      6.932   167.1345 3.5279e+02     0.6127      1.732      2.512    26.1681   996.7643 0.0000e+00
      1.783      0.061     6.1074     75.567     27.934  28.610993     2.6197      6.931   167.2208 3.4872e+02     0.6233      1.748      2.536    26.1723   996.7632 0.0000e+00
      1.799      0.058     6.1508     76.112     27.907  28.586923     2.6662      6.932   167.1199 3.4524e+02     0.6104      1.765      2.560    26.1775   996.7619 0.0000e+00
      1.813      0.055     6.1754     76.409     27.919  28.596742     2.6626      6.933   167.1189 3.4089e+02     0.5884      1.779      2.580    26.1841   996.7603 0.0000e+00
      1.824      0.052     6.1821     76.476     27.931  28.602816     2.6541      6.936   167.2951 3.3762e+02     0.5859      1.789      2.594    26.1937   996.7577 0.0000e+00
      1.836      0.050     6.1649     76.243     27.934  28.596906     2.6592      6.940   167.4434 3.3514e+02     0.6129      1.801      2.611    26.2082   996.7538 0.0000e+00
      1.850      0.048     6.1249     75.733     27.931  28.588708     2.6720      6.942   167.5355 3.3105e+02     0.6529      1.815      2.632    26.2160   996.7518 0.0000e+00
      1.863      0.048     6.0736     75.098     27.911  28.567136     2.6785      6.943   167.5485 3.2799e+02     0.6445      1.827      2.650    26.2103   996.7534 0.0000e+00
      1.875      0.048     6.0216     74.459     27.870  28.526418     2.7034      6.946   167.5147 3.2599e+02     0.6097      1.839      2.667    26.1981   996.7567 0.0000e+00
      1.887      0.049     5.9731     73.863     27.820  28.477074     2.7559      6.947   167.5567 3.2241e+02     0.5916      1.851      2.684    26.1787   996.7619 0.0000e+00
      1.898      0.051     5.9332     73.369     27.821  28.478096     2.7853      6.946   167.7125 3.1881e+02     0.5894      1.861      2.699    26.1664   996.7652 0.0000e+00
      1.910      0.054     5.9025     72.988     27.881  28.538773     2.7893      6.944   167.9353 3.1585e+02     0.6167      1.872      2.717    26.1670   996.7653 0.0000e+00
      1.924      0.058     5.8752     72.645     27.920  28.576256     2.8479      6.941   168.1855 3.1252e+02     0.6587      1.886      2.737    26.1725   996.7638 0.0000e+00
      1.940      0.060     5.8481     72.295     27.901  28.550617     2.9565      6.938   168.3282 3.0799e+02     0.6709      1.903      2.760    26.1772   996.7626 0.0000e+00
      1.958      0.061     5.8201     71.930     27.843  28.482552     3.0189      6.937   168.4562 3.0334e+02     0.6664      1.920      2.785    26.1736   996.7636 0.0000e+00
      1.976      0.060     5.7928     71.577     27.818  28.451175     3.0466      6.934   168.7005 2.9902e+02     0.6699      1.938      2.811    26.1737   996.7637 0.0000e+00
      1.992      0.056     5.7695     71.277     27.860  28.488464     3.2055      6.929   168.7869 2.9628e+02     0.7139      1.954      2.835    26.1735   996.7639 0.0000e+00
      2.006      0.050     5.7480     71.001     27.865  28.489276     3.4754      6.925   168.6404 2.9383e+02     0.8039      1.968      2.855    26.1588   996.7678 0.0000e+00
      2.018      0.045     5.7248     70.702     27.843  28.460989     3.6134      6.926   168.5642 2.8889e+02     0.8737      1.979      2.870    26.1422   996.7723 0.0000e+00
      2.028      0.043     5.7045     70.441     27.850  28.463668     3.6250      6.928   168.7263 2.8723e+02     0.9024      1.990      2.887    26.1303   996.7755 0.0000e+00
      2.035      0.046     5.6920     70.271     27.851  28.458216     3.6413      6.928   168.9655 2.8603e+02     0.8885      1.997      2.896    26.1217   996.7779 0.0000e+00
      2.042      0.051     5.6829     70.136     27.861  28.458505     3.7847      6.924   169.1333 2.8019e+02     0.8369      2.001      2.901    26.1150   996.7796 0.0000e+00
      2.053      0.057     5.6727     69.983     27.881  28.467147     4.0407      6.920   169.2062 2.7189e+02     0.8027      2.011      2.917    26.1037   996.7827 0.0000e+00
      2.072      0.062     5.6574     69.769     27.861  28.435790     4.1789      6.918   169.2451 2.6189e+02     0.8358      2.031      2.946    26.0967   996.7847 0.0000e+00
      2.095      0.067     5.6380     69.513     27.830  28.396584     4.2070      6.918   169.3452 2.5579e+02     0.8767      2.054      2.979    26.0877   996.7872 0.0000e+00
      2.116      0.070     5.6232     69.323     27.811  28.373781     4.3375      6.918   169.4695 2.5364e+02     0.8711      2.077      3.012    26.0677   996.7926 0.0000e+00
      2.133      0.071     5.6136     69.198     27.791  28.350415     4.5690      6.916   169.6292 2.5349e+02     0.8669      2.093      3.036    26.0452   996.7987 0.0000e+00
      2.148      0.070     5.6013     69.035     27.813  28.367846     4.7005      6.912   169.8998 2.5531e+02     0.8906      2.106      3.055    26.0229   996.8047 0.0000e+00
      2.164      0.069     5.5845     68.811     27.846  28.394191     4.7219      6.907   170.0747 2.5479e+02     0.8959      2.121      3.077    26.0086   996.8085 0.0000e+00
      2.181      0.069     5.5650     68.555     27.811  28.351707     4.7939      6.903   170.1090 2.5134e+02     0.8650      2.138      3.101    26.0043   996.8097 0.0000e+00
      2.201      0.069     5.5457     68.303     27.765  28.298289     4.9206      6.902   170.2285 2.4847e+02     0.8445      2.158      3.130    26.0036   996.8100 0.0000e+00
      2.220      0.068     5.5381     68.184     27.797  28.319323     4.9875      6.902   170.4005 2.4725e+02     0.8452      2.178      3.159    25.9933   996.8129 0.0000e+00
      2.238      0.065     5.5447     68.209     27.854  28.352227     5.0216      6.902   170.5547 2.4445e+02     0.8733      2.196      3.185    25.9772   996.8172 0.0000e+00
      2.254      0.062     5.5509     68.215     27.849  28.315416     5.1762      6.902   170.7157 2.4089e+02     0.8888      2.210      3.205    25.9646   996.8205 0.0000e+00
      2.268      0.058     5.5507     68.160     27.812  28.254867     5.4098      6.902   170.8852 2.3944e+02     0.8695      2.224      3.225    25.9539   996.8235 0.0000e+00
      2.281      0.056     5.5524     68.149     27.826  28.254554     5.5222      6.902   171.0551 2.3775e+02     0.8693      2.237      3.244    25.9451   996.8259 0.0000e+00
      2.295      0.056     5.5623     68.235     27.898  28.311619     5.5379      6.900   171.3071 2.3465e+02     0.8866      2.250      3.264    25.8946   996.8393 0.0000e+00
      2.308      0.056     5.5720     68.300     27.920  28.310346     5.5911      6.896   171.6949 2.3183e+02     0.9150      2.264      3.283    25.8219   996.8586 0.0000e+00
      2.323      0.056     5.5725     68.258     27.872  28.239131     5.6714      6.895   172.0454 2.2836e+02     0.9173      2.278      3.303    25.7822   996.8691 0.0000e+00
      2.340      0.056     5.5775     68.299     27.854  28.211874     5.7119      6.896   172.1886 2.2410e+02     0.8814      2.294      3.329    25.7645   996.8738 0.0000e+00
      2.355      0.057     5.6063     68.648     27.878  28.234558     5.7162      6.897   172.2216 2.2132e+02     0.8737      2.310      3.352    25.7436   996.8795 0.0000e+00
      2.367      0.058     5.6575     69.255     27.911  28.259614     5.7064      6.897   172.2728 2.1960e+02     0.8901      2.321      3.366    25.6920   996.8932 0.0000e+00
      2.378      0.059     5.7143     69.915     27.927  28.261024     5.6104      6.896   172.4630 2.1656e+02     0.8833      2.331      3.381    25.6388   996.9071 0.0000e+00
      2.393      0.061     5.7613     70.460     27.931  28.251587     5.4476      6.893   172.7155 2.1368e+02     0.8578      2.346      3.402    25.6293   996.9096 0.0000e+00
      2.412      0.062     5.7973     70.876     27.962  28.272382     5.3601      6.888   172.7437 2.1128e+02     0.8433      2.366      3.430    25.6412   996.9066 0.0000e+00
      2.430      0.062     5.8259     71.198     27.960  28.258655     5.3502      6.884   172.7185 2.0759e+02     0.8393      2.384      3.458    25.6234   996.9114 0.0000e+00
      2.447      0.060     5.8430     71.383     27.925  28.212485     5.3623      6.883   172.8402 2.0411e+02     0.8426      2.400      3.482    25.5864   996.9212 0.0000e+00
      2.463      0.057     5.8505     71.464     27.939  28.221693     5.3849      6.884   173.0116 2.0093e+02     0.8496      2.417      3.506    25.5651   996.9268 0.0000e+00
      2.476      0.055     5.8575     71.549     27.960  28.243097     5.3989      6.885   173.1552 1.9777e+02     0.8260      2.430      3.524    25.5507   996.9306 0.0000e+00
      2.486      0.054     5.8639     71.619     27.937  28.217494     5.4091      6.885   173.2862 1.9533e+02     0.8192      2.437      3.535    25.5292   996.9363 0.0000e+00
      2.498      0.054     5.8675     71.653     27.891  28.165915     5.3965      6.884   173.4769 1.9318e+02     0.8659      2.448      3.551    25.5027   996.9432 0.0000e+00
      2.513      0.055     5.8775     71.770     27.855  28.127005     5.3502      6.884   173.6549 1.9054e+02     0.8995      2.464      3.573    25.4973   996.9448 0.0000e+00
      2.529      0.058     5.9039     72.087     27.858  28.127705     5.3169      6.883   173.8030 1.8688e+02     0.8977      2.480      3.597    25.5058   996.9426 0.0000e+00
      2.545      0.059     5.9425     72.549     27.908  28.174374     5.3060      6.882   173.9770 1.8335e+02     0.8768      2.497      3.621    25.4956   996.9453 0.0000e+00
      2.560      0.059     5.9769     72.949     27.925  28.183714     5.3313      6.880   174.0383 1.8075e+02     0.8762      2.511      3.642    25.4838   996.9485 0.0000e+00
      2.575      0.057     5.9934     73.120     27.869  28.113727     5.3975      6.880   173.9418 1.7784e+02     0.8896      2.525      3.662    25.4821   996.9490 0.0000e+00
      2.590      0.055     5.9951     73.116     27.854  28.089486     5.4304      6.881   173.9288 1.7465e+02     0.8749      2.541      3.685    25.4789   996.9498 0.0000e+00
      2.605      0.053     5.9966     73.111     27.918  28.144384     5.4258      6.881   174.0526 1.7233e+02     0.8620      2.556      3.707    25.4745   996.9511 0.0000e+00
      2.617      0.053     5.9969     73.085     27.929  28.143025     5.4888      6.881   174.2343 1.7058e+02     0.8650      2.568      3.723    25.4623   996.9543 0.0000e+00
      2.628      0.054     5.9815     72.890     27.863  28.073037     5.6291      6.879   174.4904 1.6858e+02     0.8792      2.576      3.737    25.4287   996.9631 0.0000e+00
      2.641      0.056     5.9585     72.615     27.847  28.059512     5.7176      6.878   174.7412 1.6662e+02     0.9027      2.589      3.756    25.4139   996.9670 0.0000e+00
      2.656      0.058     5.9444     72.423     27.902  28.106389     5.7269      6.877   175.0289 1.6462e+02     0.8870      2.605      3.777    25.4061   996.9692 0.0000e+00
      2.672      0.061     5.9322     72.228     27.947  28.132251     5.7154      6.875   175.3874 1.6232e+02     0.8529      2.620      3.800    25.3664   996.9795 0.0000e+00
      2.690      0.062     5.9114     71.936     27.949  28.118400     5.6738      6.871   175.6344 1.6037e+02     0.8511      2.638      3.826    25.3612   996.9809 0.0000e+00
      2.707      0.062     5.8880     71.631     27.906  28.065780     5.6218      6.869   175.6928 1.5860e+02     0.8648      2.655      3.851    25.3872   996.9742 0.0000e+00
      2.723      0.060     5.8800     71.519     27.851  28.003570     5.6074      6.869   175.6624 1.5661e+02     0.8878      2.670      3.873    25.3672   996.9796 0.0000e+00
      2.738      0.058     5.9135     71.919     27.851  28.000667     5.6128      6.868   175.6975 1.5523e+02     0.8671      2.687      3.897    25.3186   996.9922 0.0000e+00
      2.752      0.057     5.9991     72.958     27.882  28.030674     5.6688      6.866   175.7739 1.5452e+02     0.8431      2.701      3.917    25.2896   996.9998 0.0000e+00
      2.764      0.057     6.1110     74.335     27.830  27.985705     5.7740      6.864   175.8977 1.5334e+02     0.8927      2.710      3.931    25.2797   997.0024 0.0000e+00
      2.777      0.057     6.2230     75.744     27.728  27.901080     5.8275      6.863   176.1607 1.5146e+02     0.9100      2.722      3.948    25.2646   997.0063 0.0000e+00
      2.794      0.058     6.3482     77.284     27.717  27.895731     5.8461      6.862   176.4591 1.4979e+02     0.8889      2.740      3.974    25.2626   997.0069 0.0000e+00
      2.810      0.060     6.4917     78.977     27.762  27.921055     6.0246      6.861   176.7529 1.4856e+02     0.9650      2.758      4.000    25.2592   997.0079 0.0000e+00
      2.825      0.063     6.6174     80.426     27.760  27.890007     6.3565      6.857   176.9591 1.4728e+02     1.1093      2.771      4.019    25.2553   997.0089 0.0000e+00
      2.839      0.067     6.7050     81.433     27.730  27.837505     6.5472      6.852   177.0602 1.4604e+02     1.1593      2.784      4.037    25.3148   996.9935 0.0000e+00
      2.854      0.070     6.7693     82.177     27.763  27.857223     6.5703      6.848   177.2865 1.4446e+02     1.1101      2.798      4.058    25.3434   996.9862 0.0000e+00
      2.874      0.074     6.8257     82.837     27.853  27.938058     6.6353      6.844   177.5443 1.4231e+02     1.0720      2.818      4.087    25.2847   997.0016 0.0000e+00
      2.896      0.078     6.8746     83.414     27.848  27.926645     6.7693      6.841   177.5968 1.4041e+02     1.0582      2.841      4.121    25.2179   997.0189 0.0000e+00
      2.917      0.081     6.9070     83.796     27.771  27.846105     6.8469      6.837   177.6621 1.3859e+02     1.0743      2.860      4.149    25.1835   997.0278 0.0000e+00
      2.938      0.082     6.9223     83.979     27.779  27.852485     6.8634      6.831   177.9034 1.3637e+02     1.1037      2.881      4.179    25.1598   997.0341 0.0000e+00
      2.960      0.081     6.9261     84.007     27.809  27.876885     6.9685      6.826   178.1916 1.3428e+02     1.0864      2.904      4.210    25.1445   997.0382 0.0000e+00
      2.980      0.079     6.9101     83.787     27.766  27.823893     7.1554      6.823   178.4795 1.3253e+02     1.0619      2.922      4.237    25.1369   997.0401 0.0000e+00
      3.001      0.076     6.8680     83.271     27.727  27.782748     7.2586      6.821   178.7179 1.3078e+02     1.0688      2.942      4.267    25.1227   997.0438 0.0000e+00
      3.021      0.071     6.8153     82.612     27.775  27.823516     7.2715      6.818   178.9222 1.2923e+02     1.1038      2.965      4.299    25.1338   997.0411 0.0000e+00
      3.038      0.065     6.7612     81.897     27.845  27.872689     7.2685      6.815   179.1431 1.2806e+02     1.1249      2.980      4.322    25.1213   997.0445 0.0000e+00
      3.054      0.057     6.7009     81.109     27.800  27.806264     7.2913      6.813   179.3241 1.2690e+02     1.0953      2.995      4.344    25.0848   997.0540 0.0000e+00
      3.069      0.051     6.6494     80.465     27.720  27.718232     7.3476      6.815   179.3894 1.2577e+02     1.0725      3.011      4.368    25.1007   997.0499 0.0000e+00
      3.081      0.049     6.6362     80.300     27.764  27.759953     7.3861      6.818   179.4173 1.2536e+02     1.0794      3.023      4.385    25.0963   997.0510 0.0000e+00
      3.089      0.051     6.6613     80.581     27.816  27.803156     7.4007      6.819   179.4897 1.2549e+02     1.0801      3.030      4.395    25.0427   997.0649 0.0000e+00
      3.097      0.055     6.6907     80.933     27.747  27.733024     7.4033      6.819   179.4897 1.2489e+02     1.0146      3.034      4.401    24.9910   997.0782 0.0000e+00
      3.111      0.061     6.7030     81.116     27.675  27.673321     7.4003      6.818   179.5035 1.2326e+02     0.9109      3.048      4.420    24.9839   997.0799 0.0000e+00
      3.132      0.068     6.7097     81.211     27.712  27.715761     7.3996      6.816   179.6567 1.2141e+02     0.8759      3.071      4.454    24.9998   997.0760 0.0000e+00
      3.153      0.076     6.7209     81.312     27.748  27.738606     7.4124      6.811   179.8792 1.1986e+02     0.8852      3.092      4.485    24.9650   997.0852 0.0000e+00
      3.173      0.082     6.7297     81.382     27.719  27.695747     7.6503      6.807   180.1277 1.1840e+02     0.9251      3.110      4.511    24.9515   997.0885 0.0000e+00
      3.194      0.084     6.7347     81.426     27.734  27.705088     8.0903      6.804   180.4252 1.1644e+02     0.9985      3.131      4.541    25.0003   997.0762 0.0000e+00
      3.216      0.084     6.7371     81.436     27.760  27.724658     8.3202      6.800   180.7224 1.1443e+02     1.0514      3.154      4.575    25.0190   997.0715 0.0000e+00
      3.238      0.080     6.7285     81.316     27.719  27.678573     8.3396      6.798   180.8825 1.1270e+02     1.0734      3.175      4.606    24.9755   997.0827 0.0000e+00
      3.261      0.075     6.7150     81.161     27.693  27.655422     8.3511      6.796   180.8982 1.1073e+02     1.1006      3.198      4.639    24.9432   997.0911 0.0000e+00
      3.283      0.069     6.7233     81.272     27.732  27.698519     8.3547      6.795   180.8252 1.0932e+02     1.1506      3.221      4.672    24.9472   997.0901 0.0000e+00
      3.299      0.062     6.7589     81.704     27.725  27.692113     8.3487      6.793   180.7747 1.0864e+02     1.1533      3.237      4.696    24.9305   997.0945 0.0000e+00
      3.311      0.057     6.8032     82.249     27.608  27.577958     8.3395      6.792   180.8902 1.0782e+02     1.1333      3.247      4.709    24.9098   997.0999 0.0000e+00
      3.321      0.056     6.8614     82.963     27.550  27.523723     8.2964      6.789   181.1031 1.0688e+02     1.1388      3.255      4.721    24.9272   997.0954 0.0000e+00
      3.333      0.059     6.9509     84.020     27.643  27.607359     8.2174      6.785   181.2843 1.0618e+02     1.1216      3.269      4.742    24.9380   997.0927 0.0000e+00
      3.346      0.066     7.0549     85.257     27.680  27.637533     8.1721      6.781   181.4463 1.0533e+02     1.0885      3.281      4.758    24.9299   997.0949 0.0000e+00
      3.362      0.075     7.1546     86.513     27.597  27.571321     8.1651      6.778   181.5991 1.0349e+02     1.0665      3.293      4.775    24.9343   997.0938 0.0000e+00
      3.386      0.081     7.2519     87.748     27.573  27.568143     8.1499      6.774   181.7551 1.0121e+02     1.0854      3.319      4.814    24.9625   997.0867 0.0000e+00
      3.413      0.086     7.3337     88.731     27.606  27.599152     8.0752      6.771   181.9560 9.9312e+01     1.1192      3.350      4.858    24.9333   997.0943 0.0000e+00
      3.437      0.089     7.3822     89.259     27.592  27.565574     7.9475      6.768   182.2217 9.7601e+01     1.1152      3.372      4.890    24.8871   997.1062 0.0000e+00
      3.457      0.090     7.3885     89.266     27.593  27.542782     7.8720      6.765   182.3859 9.5994e+01     1.1026      3.390      4.917    24.9479   997.0907 0.0000e+00
      3.478      0.089     7.3428     88.653     27.648  27.577312     7.8550      6.761   182.3916 9.4477e+01     1.0982      3.411      4.947    25.0060   997.0759 0.0000e+00
      3.500      0.087     7.2445     87.416     27.690  27.602390     7.7336      6.758   182.4636 9.2808e+01     1.0951      3.433      4.978    24.9946   997.0791 0.0000e+00
      3.525      0.085     7.1074     85.722     27.694  27.592190     7.4971      6.754   182.5684 9.1041e+01     1.0974      3.456      5.013    24.9468   997.0913 0.0000e+00
      3.549      0.083     6.9563     83.875     27.692  27.580852     7.3536      6.752   182.6262 8.9472e+01     1.0925      3.481      5.048    24.8985   997.1037 0.0000e+00
      3.570      0.080     6.8188     82.198     27.710  27.592182     7.3080      6.752   182.6461 8.8284e+01     1.0694      3.503      5.079    24.8666   997.1120 0.0000e+00
      3.589      0.077     6.7039     80.786     27.730  27.602272     7.0835      6.752   182.6363 8.7229e+01     1.0798      3.521      5.107    24.8320   997.1209 0.0000e+00
      3.606      0.075     6.6061     79.576     27.716  27.575950     6.6780      6.750   182.6793 8.5972e+01     1.1201      3.536      5.128    24.8063   997.1275 0.0000e+00
      3.623      0.074     6.5195     78.508     27.677  27.527680     6.4536      6.746   182.7370 8.4760e+01     1.1314      3.552      5.151    24.7924   997.1311 0.0000e+00
      3.642      0.075     6.4386     77.518     27.681  27.526181     6.4247      6.742   182.7323 8.3657e+01     1.1183      3.571      5.180    24.7853   997.1330 0.0000e+00
      3.662      0.078     6.3641     76.603     27.720  27.557822     6.3197      6.738   182.7075 8.2307e+01     1.0589      3.590      5.207    24.7663   997.1380 0.0000e+00
      3.682      0.080     6.2973     75.775     27.701  27.529576     6.1289      6.736   182.7818 8.0822e+01     0.9700      3.610      5.235    24.7373   997.1454 0.0000e+00
      3.705      0.080     6.2356     75.010     27.682  27.501865     6.0253      6.735   182.9428 7.9445e+01     0.8957      3.633      5.269    24.7223   997.1493 0.0000e+00
      3.726      0.078     6.1807     74.328     27.729  27.539970     6.0123      6.734   183.1049 7.8156e+01     0.8500      3.655      5.300    24.7151   997.1512 0.0000e+00
      3.745      0.075     6.1356     73.753     27.749  27.546177     5.9808      6.732   183.1924 7.6953e+01     0.9088      3.673      5.327    24.7057   997.1537 0.0000e+00
      3.764      0.070     6.0985     73.275     27.729  27.513459     5.9298      6.732   183.2270 7.5792e+01     1.0489      3.691      5.354    24.6834   997.1594 0.0000e+00
      3.782      0.067     6.0674     72.875     27.752  27.525022     5.9073      6.732   183.2655 7.4830e+01     1.1344      3.709      5.380    24.6661   997.1638 0.0000e+00
      3.798      0.065     6.0447     72.565     27.802  27.559081     5.9083      6.731   183.2274 7.4211e+01     1.1558      3.725      5.403    24.6568   997.1662 0.0000e+00
      3.811      0.063     6.0293     72.325     27.810  27.544579     5.8894      6.729   183.1107 7.3428e+01     1.1446      3.738      5.421    24.6301   997.1731 0.0000e+00
      3.826      0.060     6.0133     72.080     27.763  27.476524     5.7484      6.727   183.0591 7.2302e+01     1.0651      3.751      5.440    24.6002   997.1807 0.0000e+00
      3.844      0.057     5.9933     71.804     27.736  27.434082     5.5037      6.726   183.1194 7.1313e+01     0.9479      3.769      5.467    24.5883   997.1838 0.0000e+00
      3.861      0.054     5.9777     71.589     27.790  27.475506     5.3668      6.726   183.1519 7.0489e+01     0.8754      3.788      5.494    24.5665   997.1895 0.0000e+00
      3.875      0.054     5.9753     71.530     27.861  27.533252     5.3420      6.725   183.1934 6.9858e+01     0.8433      3.801      5.514    24.5125   997.2031 0.0000e+00
      3.885      0.055     5.9816     71.567     27.905  27.561271     5.2820      6.721   183.2773 6.9533e+01     0.8214      3.810      5.526    24.4727   997.2131 0.0000e+00
      3.894      0.058     5.9853     71.582     27.917  27.560482     5.1879      6.716   183.3067 6.9043e+01     0.8406      3.817      5.536    24.4480   997.2193 0.0000e+00
      3.906      0.060     5.9815     71.524     27.886  27.523696     5.1404      6.712   183.2902 6.7986e+01     0.9113      3.828      5.553    24.4283   997.2244 0.0000e+00
      3.926      0.060     5.9746     71.438     27.861  27.497146     5.1329      6.709   183.2493 6.6560e+01     0.9216      3.848      5.582    24.4105   997.2290 0.0000e+00
      3.949      0.059     5.9731     71.412     27.860  27.493248     5.1397      6.708   183.2429 6.5376e+01     0.8667      3.875      5.620    24.3746   997.2380 0.0000e+00
      3.968      0.058     5.9769     71.439     27.850  27.476557     5.1709      6.708   183.2980 6.4755e+01     0.8711      3.896      5.649    24.3499   997.2443 0.0000e+00
      3.980      0.056     5.9783     71.430     27.870  27.485661     5.1979      6.707   183.3130 6.4425e+01     0.9088      3.904      5.662    24.3447   997.2457 0.0000e+00
      3.987      0.055     5.9733     71.347     27.935  27.539851     5.1973      6.706   183.3386 6.4000e+01     0.9299      3.909      5.670    24.3423   997.2462 0.0000e+00
      3.996      0.055     5.9618     71.193     27.963  27.560765     5.1028      6.704   183.5222 6.3314e+01     0.9615      3.917      5.681    24.3412   997.2465 0.0000e+00
      4.010      0.058     5.9446     70.982     27.953  27.548180     4.9306      6.702   183.6392 6.2440e+01     1.0295      3.931      5.702    24.3262   997.2504 0.0000e+00
      4.030      0.062     5.9227     70.724     27.917  27.514579     4.8406      6.700   183.5497 6.1481e+01     1.0958      3.951      5.732    24.3017   997.2566 0.0000e+00
      4.050      0.064     5.8984     70.439     27.872  27.471716     4.8309      6.698   183.4714 6.0503e+01     1.1083      3.971      5.760    24.2857   997.2608 0.0000e+00
      4.069      0.064     5.8751     70.168     27.871  27.474034     4.8209      6.697   183.4666 5.9678e+01     1.0824      3.990      5.787    24.2704   997.2647 0.0000e+00
      4.085      0.062     5.8583     69.978     27.872  27.479169     4.7636      6.696   183.4064 5.9069e+01     1.0783      4.007      5.812    24.2660   997.2658 0.0000e+00
      4.098      0.061     5.8582     69.982     27.861  27.470365     4.6585      6.693   183.4315 5.8491e+01     1.1242      4.020      5.830    24.2736   997.2639 0.0000e+00
      4.110      0.062     5.8842     70.274     27.893  27.494473     4.6077      6.688   183.5989 5.7943e+01     1.1783      4.031      5.846    24.2752   997.2636 0.0000e+00
      4.124      0.065     5.9274     70.750     27.933  27.516878     4.6092      6.684   183.7084 5.7353e+01     1.1749      4.043      5.863    24.2805   997.2623 0.0000e+00
      4.141      0.069     5.9696     71.221     27.917  27.487457     4.5724      6.681   183.7238 5.6423e+01     1.0500      4.058      5.885    24.2906   997.2599 0.0000e+00
      4.162      0.072     6.0130     71.728     27.890  27.455944     4.5090      6.677   183.6991 5.5317e+01     0.9138      4.081      5.919    24.3011   997.2573 0.0000e+00
      4.185      0.074     6.0657     72.341     27.893  27.453066     4.4842      6.673   183.7545 5.4400e+01     0.9044      4.106      5.954    24.2908   997.2600 0.0000e+00
      4.205      0.074     6.1146     72.893     27.905  27.452650     4.4899      6.670   183.7912 5.3667e+01     0.9369      4.124      5.981    24.2445   997.2717 0.0000e+00
      4.222      0.074     6.1445     73.225     27.914  27.450899     4.4912      6.665   183.7127 5.2986e+01     0.9787      4.140      6.005    24.2155   997.2789 0.0000e+00
      4.239      0.073     6.1558     73.345     27.901  27.431880     4.4826      6.660   183.7508 5.2296e+01     1.0493      4.157      6.029    24.2193   997.2780 0.0000e+00
      4.255      0.070     6.1506     73.261     27.891  27.413019     4.4808      6.656   183.9085 5.1527e+01     1.1027      4.172      6.050    24.2116   997.2801 0.0000e+00
      4.274      0.067     6.1312     73.010     27.899  27.413164     4.4954      6.654   183.8125 5.0671e+01     1.1321      4.191      6.076    24.1782   997.2885 0.0000e+00
      4.295      0.063     6.1149     72.818     27.919  27.433622     4.5299      6.654   183.5370 4.9898e+01     1.1098      4.214      6.110    24.1601   997.2931 0.0000e+00
      4.313      0.060     6.1276     72.970     27.956  27.470046     4.5769      6.652   183.4165 4.9396e+01     1.0632      4.233      6.138    24.1581   997.2936 0.0000e+00
      4.325      0.059     6.1713     73.455     27.973  27.472898     4.6040      6.649   183.3876 4.9070e+01     1.0602      4.242      6.153    24.1386   997.2985 0.0000e+00
      4.335      0.060     6.2213     74.006     27.987  27.468093     4.6061      6.645   183.3593 4.8679e+01     1.0730      4.249      6.163    24.1139   997.3047 0.0000e+00
      4.346      0.062     6.2620     74.464     28.005  27.475353     4.5069      6.641   183.3332 4.8125e+01     1.0861      4.259      6.178    24.1222   997.3026 0.0000e+00
      4.362      0.064     6.2903     74.789     27.967  27.433781     4.3062      6.638   183.3296 4.7383e+01     1.0884      4.275      6.201    24.1403   997.2983 0.0000e+00
      4.385      0.064     6.3104     75.029     27.943  27.409545     4.1911      6.636   183.3157 4.6529e+01     1.0678      4.299      6.235    24.1014   997.3080 0.0000e+00
      4.408      0.062     6.3353     75.325     27.970  27.436093     4.1815      6.634   183.2513 4.5850e+01     1.0668      4.325      6.272    24.0571   997.3190 0.0000e+00
      4.425      0.057     6.3684     75.706     27.976  27.437561     4.1987      6.632   183.1536 4.5455e+01     1.1092      4.341      6.296    24.0470   997.3217 0.0000e+00
      4.435      0.052     6.4017     76.086     27.972  27.427281     4.2348      6.631   183.0808 4.5206e+01     1.1207      4.350      6.310    24.0372   997.3241 0.0000e+00
      4.444      0.047     6.4322     76.436     27.989  27.438671     4.2538      6.629   183.0589 4.4994e+01     1.0750      4.358      6.321    24.0387   997.3237 0.0000e+00
      4.451      0.047     6.4634     76.787     28.007  27.448383     4.2544      6.627   182.9753 4.4698e+01     1.0812      4.365      6.331    24.0475   997.3217 0.0000e+00
      4.460      0.049     6.4927     77.103     27.988  27.417815     4.3123      6.625   182.8438 4.4257e+01     1.1306      4.373      6.342    24.0332   997.3253 0.0000e+00
      4.474      0.053     6.5182     77.374     27.968  27.386275     4.9613      6.624   182.6738 4.3712e+01     1.2456      4.386      6.361    24.0165   997.3294 0.0000e+00
      4.493      0.057     6.5532     77.769     27.974  27.384233     6.1455      6.623   182.4682 4.3120e+01     1.4232      4.406      6.390    24.0143   997.3300 0.0000e+00
      4.511      0.061     6.6077     78.388     27.994  27.393114     6.7871      6.620   182.4236 4.2560e+01     1.5080      4.425      6.418    24.0034   997.3327 0.0000e+00
      4.526      0.065     6.6710     79.082     28.054  27.430199     6.8492      6.615   182.6501 4.2118e+01     1.5499      4.440      6.439    23.9743   997.3400 0.0000e+00
      4.539      0.066     6.7207     79.593     28.107  27.451921     6.9487      6.608   182.9696 4.1716e+01     1.6025      4.451      6.456    23.9490   997.3463 0.0000e+00
      4.554      0.066     6.7409     79.749     28.087  27.401944     7.1145      6.602   183.1044 4.1191e+01     1.5866      4.464      6.474    23.9417   997.3481 0.0000e+00
      4.573      0.065     6.7351     79.594     28.050  27.333426     7.1985      6.598   183.0748 4.0533e+01     1.5550      4.483      6.502    23.9308   997.3509 0.0000e+00
      4.595      0.064     6.7302     79.419     28.083  27.321310     7.2184      6.594   183.0423 3.9916e+01     1.5811      4.508      6.538    23.8868   997.3619 0.0000e+00
      4.613      0.063     6.7489     79.433     28.226  27.382276     7.3284      6.590   183.0553 3.9496e+01     1.6725      4.527      6.565    23.8290   997.3761 0.0000e+00
      4.626      0.062     6.7792     79.509     28.457  27.499457     7.5232      6.586   183.1449 3.9164e+01     1.8075      4.537      6.580    23.7742   997.3896 0.0000e+00
      4.638      0.060     6.8145     79.625     28.674  27.595997     7.6319      6.582   183.1801 3.8723e+01     1.8700      4.548      6.595    23.7186   997.4032 0.0000e+00
      4.652      0.060     6.8800     80.039     28.947  27.724605     7.6809      6.578   183.0510 3.8231e+01     1.8377      4.562      6.616    23.6652   997.4163 0.0000e+00
      4.668      0.061     6.9825     80.830     29.502  28.102587     8.1588      6.574   182.9609 3.7769e+01     1.8107      4.577      6.638    23.5257   997.4503 0.0000e+00
      4.684      0.062     7.1032     81.876     30.112  28.549507     9.0308      6.570   183.2090 3.7280e+01     1.8064      4.593      6.661    23.3026   997.5042 0.0000e+00
      4.702      0.063     7.2334     83.076     30.579  28.877190     9.4939      6.567   183.9850 3.6791e+01     1.7852      4.612      6.689    23.1299   997.5457 0.0000e+00
      4.719      0.062     7.3671     84.261     31.277  29.399621     9.5369      6.565   185.0310 3.6390e+01     1.7508      4.630      6.715    22.9134   997.5969 0.0000e+00
      4.734      0.060     7.4867     85.236     32.057  29.980345     9.6976      6.563   185.7030 3.6018e+01     1.7515      4.643      6.735    22.6007   997.6705 0.0000e+00
      4.748      0.060     7.5846     85.992     32.564  30.314801    11.3936      6.560   185.7439 3.5619e+01     1.9246      4.657      6.754    22.3831   997.7214 0.0000e+00
      4.762      0.060     7.6650     86.580     33.063  30.651435    14.4894      6.557   185.6108 3.5257e+01     2.2056      4.670      6.773    22.2344   997.7556 0.0000e+00
      4.777      0.060     7.7225     86.915     33.578  31.004596    16.1774      6.554   185.6418 3.4872e+01     2.2970      4.683      6.793    22.0129   997.8065 0.0000e+00
      4.793      0.061     7.7483     86.953     33.921  31.221581    16.4215      6.551   185.6030 3.4386e+01     2.2755      4.700      6.817    21.7423   997.8679 0.0000e+00
      4.810      0.062     7.7497     86.798     34.158  31.371177    17.5277      6.549   185.4854 3.3906e+01     2.4380      4.718      6.844    21.5313   997.9152 0.0000e+00
      4.827      0.062     7.7409     86.546     34.346  31.480687    19.5213      6.546   185.5974 3.3494e+01     2.7209      4.733      6.865    21.3613   997.9530 0.0000e+00
      4.842      0.061     7.7270     86.242     34.465  31.530266    20.6113      6.543   185.8378 3.3112e+01     2.8779      4.749      6.887    21.1472   998.0002 0.0000e+00
      4.857      0.060     7.7083     85.902     34.520  31.526355    20.7803      6.541   185.8975 3.2737e+01     2.9284      4.763      6.909    20.9910   998.0343 0.0000e+00
      4.872      0.060     7.6855     85.498     34.555  31.496785    21.5298      6.538   185.8029 3.2334e+01     3.0361      4.777      6.928    20.9217   998.0494 0.0000e+00
      4.887      0.060     7.6653     85.090     34.560  31.426473    22.8943      6.536   185.7260 3.1905e+01     3.2293      4.792      6.951    20.8240   998.0706 0.0000e+00
      4.902      0.060     7.6562     84.772     34.531  31.310686    23.6487      6.535   185.7430 3.1445e+01     3.3627      4.807      6.972    20.7291   998.0911 0.0000e+00
      4.919      0.059     7.6600     84.574     34.491  31.175452    23.7842      6.533   185.7496 3.0933e+01     3.3710      4.823      6.995    20.6670   998.1043 0.0000e+00
      4.935      0.059     7.6843     84.602     34.472  31.060360    24.5156      6.531   185.8052 3.0488e+01     3.4289      4.841      7.022    20.5777   998.1234 0.0000e+00
      4.950      0.060     7.7390     84.972     34.508  30.997736    25.8508      6.528   185.9859 3.0137e+01     3.6039      4.856      7.043    20.4689   998.1466 0.0000e+00
      4.962      0.062     7.8125     85.550     34.530  30.925794    26.5845      6.525   185.9559 2.9742e+01     3.7496      4.866      7.058    20.3387   998.1741 0.0000e+00
      4.976      0.062     7.8792     86.061     34.516  30.824936    26.6760      6.523   185.7860 2.9254e+01     3.7808      4.877      7.074    20.1868   998.2058 0.0000e+00
      4.994      0.061     7.9155     86.251     34.503  30.729986    27.0009      6.521   185.8250 2.8697e+01     3.7522      4.896      7.101    20.0448   998.2353 0.0000e+00
      5.014      0.059     7.8801     85.658     34.525  30.666025    27.5911      6.518   185.9115 2.8144e+01     3.7313      4.918      7.133    19.9089   998.2635 0.0000e+00
      5.031      0.054     7.7408     83.936     34.574  30.622567    27.9071      6.515   185.9712 2.7719e+01     3.7243      4.937      7.160    19.7738   998.2912 0.0000e+00
      5.044      0.048     7.4871     80.993     34.625  30.585152    27.9354      6.514   186.1158 2.7384e+01     3.7338      4.948      7.176    19.6443   998.3175 0.0000e+00
      5.054      0.042     7.1054     76.683     34.729  30.594269    27.8993      6.513   186.1980 2.7079e+01     3.7144      4.957      7.190    19.5290   998.3408 0.0000e+00
      5.062      0.038     6.6166     71.211     34.853  30.605786    27.3402      6.513   186.1907 2.6863e+01     3.6209      4.965      7.202    19.4076   998.3653 0.0000e+00
      5.067      0.038     6.0681     65.114     34.959  30.597370    26.3076      6.511   186.1129 2.6641e+01     3.5536      4.969      7.206    19.2790   998.3909 0.0000e+00
      5.075      0.043     5.4914     58.784     35.078  30.619280    25.7404      6.507   185.9462 2.6306e+01     3.5565      4.975      7.216    19.1570   998.4151 0.0000e+00
      5.085      0.050     4.9278     52.649     35.153  30.616773    25.5709      6.505   185.8959 2.5900e+01     3.5575      4.985      7.232    19.0550   998.4354 0.0000e+00
      5.099      0.057     4.4552     47.520     35.158  30.566973    24.1799      6.503   186.0209 2.5360e+01     3.4675      4.998      7.248    18.9121   998.4632 0.0000e+00
      5.118      0.062     4.1189     43.875     35.162  30.524719    21.6324      6.500   186.1674 2.4675e+01     3.2546      5.018      7.278    18.7347   998.4977 0.0000e+00
      5.138      0.065     3.8863     41.337     35.177  30.486558    20.2324      6.497   186.2042 2.4006e+01     3.1136      5.040      7.310    18.6383   998.5166 0.0000e+00
      5.157      0.067     3.7009     39.299     35.242  30.486222    19.9283      6.496   186.1215 2.3421e+01     3.1070      5.057      7.335    18.5380   998.5357 0.0000e+00
      5.173      0.067     3.4689     36.779     35.345  30.520582    17.8255      6.495   186.0275 2.2902e+01     3.1086      5.074      7.359    18.4546   998.5517 0.0000e+00
      5.187      0.067     3.0924     32.745     35.399  30.521208    13.9688      6.493   186.1006 2.2400e+01     3.1009      5.086      7.377    18.4117   998.5600 0.0000e+00
      5.201      0.067     2.5864     27.356     35.416  30.493732    11.8603      6.491   186.3166 2.1746e+01     3.0787      5.099      7.396    18.3311   998.5752 0.0000e+00
      5.220      0.067     2.0221     21.358     35.416  30.442143    11.6314      6.488   186.4031 2.0937e+01     3.0697      5.118      7.423    18.2484   998.5909 0.0000e+00
      5.240      0.066     1.4411     15.194     35.453  30.405014    11.1758      6.486   186.3715 2.0165e+01     3.0250      5.140      7.455    18.1668   998.6063 0.0000e+00
      5.260      0.064     0.8983      9.453     35.563  30.425442    10.3741      6.486   186.3653 1.9524e+01     2.9319      5.159      7.483    18.1007   998.6186 0.0000e+00
      5.276      0.061     0.4492      4.720     35.653  30.435224     9.9398      6.486   186.4139 1.9012e+01     2.8935      5.175      7.505    18.0534   998.6275 0.0000e+00
      5.289      0.057     0.1282      1.346     35.683  30.396294     9.9033      6.485   186.5286 1.8563e+01     2.8892      5.187      7.523    17.9840   998.6404 0.0000e+00
      5.300      0.056    -0.0402     -0.419     35.689  30.335389     9.9682      6.482   186.6341 1.8113e+01     2.9458      5.196      7.537    17.8784   998.6599 0.0000e+00
      5.312      0.057    -0.0756     -0.789     35.692  30.269828    10.1097      6.480   186.6568 1.7601e+01     3.0531      5.209      7.555    17.7675   998.6803 0.0000e+00
      5.327      0.058    -0.0372     -0.388     35.732  30.238059    10.1921      6.478   186.6308 1.6971e+01     3.1041      5.224      7.576    17.6772   998.6968 0.0000e+00
      5.343      0.060     0.0259      0.269     35.845  30.268463    10.1930      6.477   186.6643 1.6288e+01     3.1051      5.239      7.599    17.5909   998.7124 0.0000e+00
      5.360      0.060     0.0909      0.943     35.982  30.320092    10.1895      6.476   186.7169 1.5650e+01     3.0644      5.257      7.624    17.4952   998.7297 0.0000e+00
      5.377      0.060     0.1437      1.488     36.097  30.354583    10.1496      6.474   186.7504 1.5102e+01     3.0380      5.274      7.650    17.3994   998.7469 0.0000e+00
      5.393      0.060     0.1808      1.869     36.182  30.368142    10.0493      6.472   186.8118 1.4648e+01     3.0807      5.290      7.672    17.3072   998.7634 0.0000e+00
      5.406      0.060     0.2073      2.140     36.230  30.357043     9.9731      6.470   186.8565 1.4222e+01     3.0890      5.302      7.690    17.2165   998.7795 0.0000e+00
      5.419      0.060     0.2230      2.299     36.273  30.347238     9.8960      6.468   186.8610 1.3743e+01     3.0735      5.313      7.706    17.1280   998.7951 0.0000e+00
      5.434      0.061     0.2317      2.386     36.358  30.376448     9.2737      6.466   186.7796 1.3193e+01     3.2213      5.327      7.727    17.0408   998.8106 0.0000e+00
      5.451      0.063     0.2411      2.480     36.507  30.456340     8.1457      6.463   186.6475 1.2664e+01     3.4343      5.347      7.754    16.9588   998.8249 0.0000e+00
      5.468      0.066     0.2537      2.606     36.682  30.551697     7.5190      6.461   186.6397 1.2220e+01     3.4854      5.363      7.777    16.8886   998.8370 0.0000e+00
      5.484      0.068     0.2687      2.755     36.854  30.640980     7.4097      6.458   186.7717 1.1769e+01     3.4789      5.376      7.797    16.8255   998.8480 0.0000e+00
      5.501      0.069     0.2838      2.906     37.077  30.774325     6.9283      6.455   186.8664 1.1309e+01     3.6171      5.395      7.824    16.7710   998.8575 0.0000e+00
      5.520      0.070     0.2970      3.036     37.360  30.958237     6.0681      6.452   186.8390 1.0921e+01     3.8457      5.415      7.853    16.7147   998.8672 0.0000e+00
      5.539      0.071     0.3091      3.155     37.577  31.087827     5.6008      6.450   186.8711 1.0583e+01     3.9494      5.431      7.878    16.6415   998.8799 0.0000e+00
      5.557      0.073     0.3197      3.259     37.696  31.135449     5.5610      6.445   186.9966 1.0276e+01     3.9529      5.450      7.904    16.5656   998.8928 0.0000e+00
      5.574      0.075     0.3277      3.337     37.933  31.280149     5.6906      6.441   186.9795 9.9818e+00     3.9208      5.467      7.928    16.4962   998.9046 0.0000e+00
      5.592      0.075     0.3332      3.387     38.344  31.568172     5.9551      6.439   186.9223 9.6616e+00     3.8236      5.482      7.951    16.4292   998.9160 0.0000e+00
      5.613      0.074     0.3345      3.396     38.716  31.825712     6.1058      6.437   186.9072 9.3320e+00     3.7609      5.504      7.982    16.3608   998.9276 0.0000e+00
      5.636      0.071     0.3315      3.362     38.956  31.982558     6.0992      6.437   186.8824 9.0565e+00     3.7527      5.528      8.017    16.2931   998.9390 0.0000e+00
      5.656      0.068     0.3275      3.319     39.100  32.068431     5.8314      6.436   186.7954 8.8587e+00     3.6917      5.547      8.046    16.2283   998.9498 0.0000e+00
      5.671      0.066     0.3251      3.293     39.328  32.229375     5.3394      6.432   186.1130 8.7237e+00     3.5797      5.563      8.068    16.1595   998.9615 0.0000e+00
      5.684      0.066     0.3239      3.278     39.965  32.722740     5.0741      6.428   184.6545 8.6057e+00     3.5462      5.574      8.085    16.0941   998.9724 0.0000e+00
      5.696      0.066     0.3249      3.284     40.924  33.464378     5.0602      6.424   182.4963 8.4180e+00     3.5478      5.584      8.099    16.0410   998.9811 0.0000e+00
      5.713      0.067     0.3278      3.308     41.679  34.025085     5.0679      6.421   179.2057 8.1529e+00     3.5016      5.599      8.122    16.0001   998.9879 0.0000e+00
      5.733      0.068     0.3298      3.323     42.084  34.298055     5.1067      6.419   175.1534 7.8865e+00     3.4795      5.622      8.154    15.9722   998.9925 0.0000e+00
      5.754      0.068     0.3291      3.312     42.369  34.479993     5.1821      6.416   171.3574 7.6562e+00     3.5088      5.644      8.186    15.9424   998.9976 0.0000e+00
      5.773      0.067     0.3258      3.276     42.614  34.638138     5.2255      6.413   167.8107 7.4838e+00     3.5612      5.663      8.213    15.8911   999.0064 0.0000e+00
      5.789      0.065     0.3209      3.224     42.877  34.813837     5.2315      6.410   164.3627 7.3741e+00     3.5888      5.679      8.235    15.8154   999.0190 0.0000e+00
      5.802      0.065     0.3147      3.158     43.257  35.081068     5.1775      6.408   161.2451 7.2597e+00     3.6136      5.690      8.253    15.7406   999.0310 0.0000e+00
      5.816      0.065     0.3082      3.090     43.621  35.330395     5.0580      6.406   158.1644 7.0950e+00     3.6964      5.702      8.270    15.6831   999.0403 0.0000e+00
      5.831      0.066     0.3000      3.003     43.865  35.480006     4.9919      6.403   155.1638 6.9045e+00     3.7711      5.717      8.292    15.6359   999.0479 0.0000e+00
      5.850      0.068     0.2881      2.881     44.177  35.684008     4.9944      6.399   152.8415 6.7157e+00     3.7962      5.736      8.320    15.5964   999.0543 0.0000e+00
      5.870      0.069     0.2753      2.751     44.574  35.956240     4.9052      6.396   151.2507 6.5441e+00     3.8022      5.758      8.351    15.5486   999.0621 0.0000e+00
      5.890      0.069     0.2627      2.621     44.894  36.169141     4.7108      6.392   149.9541 6.4010e+00     3.7788      5.777      8.379    15.4922   999.0712 0.0000e+00
      5.907      0.066     0.2503      2.495     45.177  36.353964     4.6038      6.389   148.6084 6.2672e+00     3.7425      5.793      8.402    15.4391   999.0796 0.0000e+00
      5.923      0.062     0.2398      2.388     45.463  36.540568     4.6081      6.386   147.0245 6.1327e+00     3.7573      5.809      8.425    15.3844   999.0883 0.0000e+00
      5.938      0.060     0.2312      2.299     45.733  36.711508     4.6594      6.382   145.2584 6.0263e+00     3.8259      5.824      8.447    15.3284   999.0972 0.0000e+00
      5.952      0.059     0.2228      2.214     46.023  36.897353     4.7388      6.377   143.6878 5.9484e+00     3.8845      5.837      8.466    15.2769   999.1053 0.0000e+00
      5.964      0.059     0.2155      2.139     46.303  37.073718     4.7790      6.373   142.4895 5.8614e+00     3.9408      5.848      8.482    15.2324   999.1122 0.0000e+00
      5.978      0.060     0.2115      2.096     46.512  37.193511     4.7727      6.369   141.5252 5.7546e+00     3.9825      5.862      8.502    15.1847   999.1197 0.0000e+00
      5.995      0.062     0.2086      2.066     46.656  37.266619     4.7319      6.366   140.7176 5.6452e+00     4.0276      5.879      8.527    15.1333   999.1277 0.0000e+00
      6.013      0.062     0.2034      2.012     46.770  37.322848     4.6586      6.361   139.8661 5.5397e+00     4.1266      5.897      8.552    15.0838   999.1354 0.0000e+00
      6.030      0.062     0.1976      1.953     46.863  37.365522     4.6141      6.357   138.8883 5.4442e+00     4.1959      5.913      8.576    15.0302   999.1438 0.0000e+00
      6.046      0.060     0.1932      1.909     46.943  37.401690     4.6106      6.354   138.0150 5.3624e+00     4.2426      5.931      8.602    14.9758   999.1522 0.0000e+00
      6.061      0.058     0.1905      1.881     47.028  37.442728     4.5989      6.351   137.0505 5.2804e+00     4.4289      5.945      8.623    14.9316   999.1588 0.0000e+00
      6.075      0.056     0.1882      1.858     47.116  37.480815     4.5584      6.348   135.6578 5.1925e+00     4.7448      5.958      8.641    14.8968   999.1641 0.0000e+00
      6.087      0.056     0.1837      1.811     47.246  37.544776     4.5115      6.345   133.8247 5.1095e+00     4.9159      5.970      8.658    14.8611   999.1696 0.0000e+00
      6.101      0.057     0.1779      1.752     47.504  37.708215     4.4833      6.340   131.8353 5.0234e+00     4.8921      5.982      8.677    14.8323   999.1739 0.0000e+00
      6.116      0.059     0.1728      1.700     47.924  37.996903     4.4596      6.336   130.0168 4.9326e+00     4.8829      5.998      8.699    14.8091   999.1775 0.0000e+00
      6.132      0.061     0.1669      1.640     48.379  38.305655     4.3381      6.333   128.2703 4.8501e+00     4.9681      6.014      8.722    14.7736   999.1829 0.0000e+00
      6.149      0.063     0.1600      1.570     48.722  38.521212     4.1241      6.330   126.5506 4.7496e+00     5.0703      6.030      8.746    14.7297   999.1894 0.0000e+00
      6.165      0.063     0.1543      1.512     49.011  38.698722     4.0135      6.327   125.0546 4.6334e+00     5.1027      6.046      8.769    14.6868   999.1959 0.0000e+00
      6.182      0.063     0.1500      1.469     49.361  38.928319     4.0070      6.324   123.6916 4.5340e+00     5.0973      6.062      8.793    14.6442   999.2024 0.0000e+00
      6.197      0.062     0.1470      1.438     49.773  39.202317     4.0279      6.322   122.0305 4.4364e+00     5.1696      6.077      8.815    14.5895   999.2107 0.0000e+00
      6.213      0.060     0.1451      1.419     50.186  39.472260     4.0837      6.320   119.9403 4.3407e+00     5.3210      6.093      8.837    14.5241   999.2203 0.0000e+00
      6.229      0.058     0.1431      1.397     50.492  39.652787     4.1184      6.317   117.7787 4.2591e+00     5.4210      6.110      8.861    14.4738   999.2277 0.0000e+00
      6.244      0.056     0.1407      1.371     50.596  39.670934     4.1177      6.314   115.7692 4.1878e+00     5.4279      6.124      8.882    14.4316   999.2341 0.0000e+00
      6.258      0.056     0.1387      1.350     50.531  39.564639     4.0834      6.310   114.0557 4.1246e+00     5.3393      6.136      8.900    14.3788   999.2418 0.0000e+00
      6.271      0.056     0.1368      1.330     50.509  39.510218     4.0250      6.308   112.6348 4.0618e+00     5.2342      6.148      8.919    14.3248   999.2497 0.0000e+00
      6.284      0.056     0.1337      1.299     50.724  39.647730     4.0009      6.306   111.1505 3.9885e+00     5.2060      6.162      8.937    14.2645   999.2585 0.0000e+00
      6.298      0.057     0.1307      1.269     51.089  39.894091     4.0097      6.303   109.4446 3.8980e+00     5.1617      6.176      8.956    14.1973   999.2681 0.0000e+00
      6.314      0.058     0.1277      1.239     51.383  40.076495     4.0277      6.300   107.5821 3.7995e+00     5.0588      6.191      8.980    14.1377   999.2766 0.0000e+00
      6.329      0.059     0.1238      1.200     51.687  40.265986     4.0524      6.296   105.4946 3.7104e+00     4.9458      6.208      9.005    14.1044   999.2813 0.0000e+00
      6.344      0.059     0.1208      1.169     52.092  40.534514     4.0654      6.293   103.2205 3.6533e+00     4.8765      6.222      9.024    14.0843   999.2843 0.0000e+00
      6.359      0.059     0.1188      1.148     52.481  40.783744     4.0638      6.291   100.9071 3.5978e+00     4.8768      6.235      9.044    14.0445   999.2901 0.0000e+00
      6.374      0.060     0.1183      1.143     52.990  41.120781     4.0153      6.289    98.6039 3.5175e+00     4.8841      6.250      9.066    13.9923   999.2975 0.0000e+00
      6.389      0.063     0.1189      1.148     53.636  41.562086     3.9223      6.285    96.7109 3.4515e+00     4.8666      6.266      9.088    13.9469   999.3039 0.0000e+00
      6.404      0.065     0.1199      1.155     54.193  41.929161     3.8752      6.281    95.3121 3.3943e+00     4.8614      6.279      9.108    13.9081   999.3095 0.0000e+00
      6.420      0.066     0.1210      1.165     54.624  42.193981     3.8789      6.278    93.7370 3.3105e+00     4.8868      6.294      9.129    13.8538   999.3171 0.0000e+00
      6.440      0.066     0.1223      1.176     55.084  42.478222     3.8814      6.276    91.8627 3.1980e+00     4.9115      6.315      9.159    13.7969   999.3252 0.0000e+00
      6.461      0.066     0.1238      1.189     55.785  42.953094     3.8964      6.273    90.2017 3.1039e+00     4.9307      6.338      9.193    13.7436   999.3327 0.0000e+00
      6.477      0.066     0.1242      1.191     56.566  43.490953     3.9292      6.269    88.7962 3.0624e+00     4.9226      6.354      9.216    13.6835   999.3412 0.0000e+00
      6.490      0.065     0.1238      1.186     57.104  43.838245     3.9402      6.265    87.5172 3.0193e+00     4.8785      6.364      9.230    13.6201   999.3499 0.0000e+00
      6.504      0.064     0.1224      1.170     57.456  44.040777     3.9255      6.261    86.6122 2.9401e+00     4.8894      6.376      9.248    13.5511   999.3593 0.0000e+00
      6.521      0.062     0.1196      1.142     57.699  44.161735     3.9078      6.259    86.0267 2.8565e+00     4.9883      6.395      9.275    13.4948   999.3671 0.0000e+00
      6.540      0.060     0.1162      1.109     57.854  44.221207     3.8911      6.256    85.3424 2.7818e+00     5.0916      6.415      9.304    13.4421   999.3745 0.0000e+00
      6.557      0.059     0.1133      1.080     57.955  44.251790     3.8791      6.253    84.2747 2.7206e+00     5.1222      6.432      9.329    13.3813   999.3827 0.0000e+00
      6.572      0.058     0.1120      1.066     58.030  44.277469     3.8843      6.250    83.0112 2.6779e+00     5.1286      6.446      9.349    13.3221   999.3908 0.0000e+00
      6.584      0.058     0.1115      1.062     58.230  44.404649     3.9890      6.247    81.9393 2.6350e+00     5.2996      6.457      9.365    13.2644   999.3985 0.0000e+00
      6.594      0.060     0.1100      1.047     58.673  44.710001     4.1829      6.244    80.9513 2.5700e+00     5.6170      6.466      9.378    13.2115   999.4053 0.0000e+00
      6.608      0.063     0.1085      1.031     59.588  45.365931     4.2947      6.240    80.0128 2.4884e+00     5.7876      6.478      9.396    13.1682   999.4110 0.0000e+00
      6.627      0.065     0.1077      1.023     60.983  46.366194     4.3172      6.236    79.3690 2.4155e+00     5.7892      6.498      9.425    13.1453   999.4141 0.0000e+00
      6.648      0.066     0.1071      1.015     62.392  47.341940     4.3779      6.234    78.7598 2.3525e+00     5.6039      6.520      9.457    13.1293   999.4163 0.0000e+00
      6.669      0.065     0.1081      1.022     63.687  48.209081     4.4829      6.232    77.8088 2.2978e+00     5.2837      6.540      9.488    13.0994   999.4203 0.0000e+00
      6.686      0.063     0.1090      1.029     64.844  48.975358     4.5458      6.229    76.7331 2.2603e+00     5.1614      6.558      9.512    13.0680   999.4247 0.0000e+00
      6.699      0.059     0.1073      1.012     65.744  49.556959     4.5569      6.225    75.9057 2.2206e+00     5.1746      6.570      9.529    13.0257   999.4308 0.0000e+00
      6.710      0.057     0.1062      1.000     66.582  50.096408     4.5650      6.221    75.2043 2.1738e+00     5.2141      6.579      9.543    12.9436   999.4416 0.0000e+00
      6.723      0.055     0.1067      1.003     67.466  50.670433     4.5839      6.218    74.3607 2.1363e+00     5.3107      6.592      9.561    12.8423   999.4547 0.0000e+00
      6.738      0.055     0.1062      0.996     68.241  51.161826     4.6024      6.214    73.4500 2.0976e+00     5.3602      6.607      9.583    12.7572   999.4658 0.0000e+00
      6.754      0.056     0.1044      0.978     68.766  51.464291     4.6073      6.212    72.5386 2.0501e+00     5.3534      6.624      9.607    12.6862   999.4750 0.0000e+00
      6.769      0.057     0.1039      0.971     69.144  51.659540     4.6001      6.209    71.5147 2.0076e+00     5.3279      6.639      9.629    12.6174   999.4837 0.0000e+00
      6.784      0.059     0.1049      0.980     69.789  52.061466     4.6011      6.205    70.4489 1.9741e+00     5.1495      6.653      9.648    12.5498   999.4923 0.0000e+00
      6.798      0.061     0.1070      0.998     70.921  52.830057     4.6199      6.200    69.4607 1.9419e+00     4.8350      6.666      9.668    12.4836   999.5007 0.0000e+00
      6.811      0.063     0.1079      1.006     72.206  53.710578     4.6365      6.196    68.6006 1.9033e+00     4.6716      6.678      9.686    12.4162   999.5090 0.0000e+00
      6.827      0.063     0.1058      0.985     73.213  54.385647     4.6370      6.192    67.8783 1.8420e+00     4.6480      6.693      9.707    12.3512   999.5169 0.0000e+00
      6.846      0.062     0.1028      0.956     73.903  54.829827     4.6267      6.188    67.0950 1.7694e+00     4.5820      6.714      9.738    12.2950   999.5238 0.0000e+00
      6.866      0.062     0.1021      0.949     74.578  55.269176     4.6160      6.184    66.0985 1.7189e+00     4.4966      6.734      9.767    12.2433   999.5304 0.0000e+00
      6.881      0.063     0.1029      0.955     75.491  55.885731     4.6113      6.180    64.9508 1.6924e+00     4.4674      6.750      9.789    12.1902   999.5372 0.0000e+00
      6.893      0.063     0.1027      0.953     76.581  56.629862     4.6050      6.176    63.8011 1.6684e+00     4.4581      6.759      9.804    12.1377   999.5437 0.0000e+00
      6.906      0.063     0.1026      0.951     77.633  57.340833     4.5830      6.172    62.6080 1.6289e+00     4.4835      6.770      9.819    12.0914   999.5493 0.0000e+00
      6.922      0.063     0.1022      0.946     78.536  57.937447     4.5623      6.167    60.8494 1.5810e+00     4.5774      6.788      9.845    12.0509   999.5543 0.0000e+00
      6.942      0.064     0.1019      0.941     79.321  58.442420     4.5545      6.163    57.8534 1.5402e+00     4.6426      6.807      9.873    12.0140   999.5589 0.0000e+00
      6.961      0.065     0.1034      0.955     80.092  58.934805     4.5480      6.159    54.0881 1.5067e+00     4.6491      6.826      9.901    11.9728   999.5641 0.0000e+00
      6.977      0.065     0.1049      0.967     80.968  59.506185     4.5274      6.155    50.9435 1.4697e+00     4.5912      6.843      9.925    11.9276   999.5696 0.0000e+00
      6.991      0.064     0.1031      0.951     81.929  60.140045     4.4956      6.152    48.8275 1.4267e+00     4.4670      6.857      9.944    11.8844   999.5749 0.0000e+00
      7.006      0.064     0.1003      0.924     82.952  60.815821     4.4848      6.147    47.3465 1.3967e+00     4.3926      6.870      9.963    11.8371   999.5806 0.0000e+00
      7.022      0.064     0.0987      0.908     84.094  61.576035     4.4834      6.142    46.1149 1.3736e+00     4.4122      6.886      9.987    11.7884   999.5864 0.0000e+00
      7.040      0.063     0.0968      0.890     85.154  62.277319     4.4355      6.139    44.8634 1.3305e+00     4.3442      6.904     10.013    11.7443   999.5916 0.0000e+00
      7.057      0.061     0.0967      0.888     85.894  62.748816     4.3471      6.136    43.6578 1.2717e+00     4.1265      6.920     10.037    11.7005   999.5969 0.0000e+00
      7.075      0.058     0.0981      0.900     86.441  63.082093     4.2992      6.133    42.1203 1.2218e+00     3.9766      6.938     10.063    11.6553   999.6023 0.0000e+00
      7.091      0.055     0.0976      0.895     87.286  63.637447     4.2992      6.130    39.9541 1.1898e+00     3.9737      6.955     10.087    11.6080   999.6080 0.0000e+00
      7.102      0.054     0.0968      0.886     88.987  64.823617     4.2692      6.127    38.0301 1.1730e+00     3.9609      6.967     10.103    11.5634   999.6134 0.0000e+00
      7.111      0.055     0.0959      0.878     91.085  66.300348     4.2139      6.124    36.8401 1.1667e+00     3.8871      6.972     10.113    11.5236   999.6179 0.0000e+00
      7.121      0.058     0.0951      0.870     92.914  67.571539     4.1935      6.119    35.8036 1.1378e+00     3.8352      6.981     10.124    11.4847   999.6223 0.0000e+00
      7.137      0.062     0.0949      0.867     94.990  69.005120     4.1882      6.115    34.5329 1.0807e+00     3.7920      6.998     10.148    11.4494   999.6263 0.0000e+00
      7.158      0.064     0.0947      0.865     97.045  70.409825     4.1665      6.111    33.1773 1.0264e+00     3.7253      7.020     10.181    11.4194   999.6303 0.0000e+00
      7.178      0.065     0.0944      0.861     98.445  71.331335     4.0438      6.110    31.6298 9.8193e-01     3.5199      7.040     10.211    11.3939   999.6341 0.0000e+00
      7.197      0.064     0.0939      0.856     99.774  72.199166     3.8228      6.108    29.6758 9.5625e-01     3.2094      7.059     10.238    11.3637   999.6378 0.0000e+00
      7.212      0.063     0.0953      0.868    100.851  72.890726     3.7057      6.103    27.7056 9.5042e-01     3.0844      7.074     10.260    11.3229   999.6430 0.0000e+00
      7.223      0.063     0.0972      0.884    101.404  73.206938     3.7031      6.099    26.1356 9.4189e-01     3.1228      7.083     10.273    11.2758   999.6490 0.0000e+00
      7.235      0.063     0.0974      0.884    102.262  73.733156     3.7140      6.095    24.9742 9.0675e-01     3.1501      7.094     10.288    11.2264   999.6543 0.0000e+00
      7.252      0.063     0.0949      0.862    103.456  74.483707     3.7326      6.092    23.9022 8.6141e-01     3.1193      7.110     10.314    11.1773   999.6601 0.0000e+00
      7.272      0.063     0.0908      0.823    104.474  75.095686     3.7380      6.090    22.7243 8.3591e-01     3.0455      7.133     10.345    11.1340   999.6653 0.0000e+00
      7.292      0.064     0.0905      0.819    105.337  75.599653     3.7439      6.087    21.5736 8.1189e-01     3.0113      7.153     10.374    11.0961   999.6692 0.0000e+00
      7.308      0.065     0.0930      0.841    106.564  76.379613     3.7954      6.084    20.3996 7.8508e-01     3.0008      7.168     10.397    11.0525   999.6741 0.0000e+00
      7.320      0.067     0.0945      0.853    108.558  77.720794     3.8578      6.080    19.3697 7.7385e-01     2.9504      7.179     10.412    10.9971   999.6803 0.0000e+00
      7.332      0.070     0.0961      0.866    110.701  79.158666     3.8748      6.077    18.7586 7.6365e-01     2.8947      7.188     10.426    10.9369   999.6867 0.0000e+00
      7.349      0.073     0.0985      0.887    112.349  80.216608     3.8533      6.074    18.1737 7.3057e-01     2.8839      7.205     10.450    10.8794   999.6928 0.0000e+00
      7.373      0.074     0.1003      0.902    113.502  80.907039     3.6672      6.072    17.1156 6.8695e-01     2.9836      7.230     10.487    10.8316   999.6980 0.0000e+00
      7.398      0.074     0.0996      0.895    114.102  81.208766     3.3324      6.071    15.6879 6.6360e-01     3.1492      7.257     10.525    10.7967   999.7024 0.0000e+00
      7.420      0.072     0.0971      0.871    114.122  81.129212     3.1515      6.069    14.3328 6.4975e-01     3.2149      7.278     10.556    10.7562   999.7074 0.0000e+00
      7.436      0.067     0.0949      0.851    114.213  81.153745     3.1362      6.067    13.3795 6.2426e-01     3.2215      7.294     10.579    10.6995   999.7135 0.0000e+00
      7.449      0.063     0.0937      0.841    115.604  82.141489     3.0866      6.065    12.6800 6.0023e-01     3.0980      7.305     10.595    10.6379   999.7200 0.0000e+00
      7.460      0.062     0.0915      0.822    118.227  83.974360     2.9769      6.064    11.8108 5.8778e-01     2.7382      7.314     10.609    10.5795   999.7258 0.0000e+00
      7.475      0.064     0.0873      0.782    120.438  85.437155     2.9107      6.063    10.7860 5.8266e-01     2.4761      7.328     10.629    10.5326   999.7304 0.0000e+00
      7.493      0.067     0.0848      0.758    121.202  85.830453     2.9009      6.060     9.7535 5.7627e-01     2.4517      7.348     10.658    10.5154   999.7319 0.0000e+00
      7.513      0.070     0.0846      0.756    120.883  85.484486     2.8325      6.058     8.8777 5.5883e-01     2.4107      7.368     10.686    10.5300   999.7311 0.0000e+00
      7.533      0.070     0.0863      0.771    120.834  85.389872     2.6912      6.057     8.2839 5.3576e-01     2.2748      7.388     10.714    10.5276   999.7327 0.0000e+00
      7.552      0.067     0.0883      0.789    121.693  85.959028     2.5972      6.056     7.5641 5.1666e-01     2.1846      7.407     10.743    10.4740   999.7387 0.0000e+00
      7.569      0.063     0.0868      0.775    123.118  86.893895     2.5800      6.055     6.7146 5.0570e-01     2.1723      7.424     10.768    10.4003   999.7460 0.0000e+00
      7.584      0.061     0.0855      0.763    124.879  88.039214     2.5872      6.053     6.0996 5.0843e-01     2.1922      7.438     10.788    10.3441   999.7510 0.0000e+00
      7.596      0.059     0.0868      0.773    126.161  88.861559     2.5450      6.052     5.6347 5.0918e-01     2.1954      7.449     10.803    10.3263   999.7525 0.0000e+00
      7.609      0.059     0.0875      0.779    126.454  89.009339     2.4340      6.051     5.2232 4.9087e-01     2.1131      7.459     10.818    10.3243   999.7533 0.0000e+00
      7.625      0.058     0.0870      0.774    126.502  88.998675     2.3558      6.051     4.9106 4.6761e-01     1.9837      7.476     10.844    10.2916   999.7568 0.0000e+00
      7.643      0.057     0.0856      0.761    126.793  89.178060     2.3268      6.051     4.3494 4.4712e-01     1.9086      7.496     10.872    10.2426   999.7621 0.0000e+00
      7.659      0.056     0.0842      0.748    127.212  89.459942     2.2487      6.051     3.1699 4.2605e-01     1.8927      7.512     10.895    10.2119   999.7656 0.0000e+00
      7.673      0.056     0.0834      0.742    127.980  89.988522     2.1218      6.050     1.7486 4.0678e-01     1.8577      7.526     10.915    10.1914   999.7674 0.0000e+00
      7.685      0.058     0.0831      0.740    129.412  90.986762     2.0587      6.048     0.5875 3.9168e-01     1.8127      7.537     10.931    10.1707   999.7694 0.0000e+00
      7.695      0.061     0.0821      0.730    131.215  92.237345     2.0494      6.047    -0.1140 3.8356e-01     1.8080      7.545     10.942    10.1621   999.7704 0.0000e+00
      7.708      0.062     0.0808      0.718    132.655  93.206985     1.9659      6.046    -0.7111 3.7676e-01     1.8004      7.556     10.959    10.1605   999.7707 0.0000e+00
      7.728      0.062     0.0809      0.719    133.131  93.481152     1.8211      6.046    -1.6415 3.6551e-01     1.7540      7.576     10.988    10.1537   999.7715 0.0000e+00
      7.752      0.059     0.0803      0.713    133.075  93.388042     1.7468      6.045    -2.5875 3.5349e-01     1.7387      7.603     11.027    10.1516   999.7725 0.0000e+00
      7.772      0.055     0.0780      0.693    133.263  93.481522     1.7349      6.044    -3.4589 3.5112e-01     1.7463      7.626     11.061    10.1500   999.7734 0.0000e+00
      7.782      0.051     0.0772      0.686    133.365  93.529257     1.6857      6.044    -4.5198 3.5819e-01     1.6815      7.635     11.073    10.1322   999.7757 0.0000e+00
      7.786      0.050     0.0777      0.690    133.361  93.519597     1.6026      6.044    -5.5201 3.6060e-01     1.5784      7.634     11.072    10.1041   999.7783 0.0000e+00
      7.792      0.052     0.0782      0.694    134.146  94.064902     1.5629      6.043    -6.0891 3.5238e-01     1.5487      7.638     11.079    10.0842   999.7800 0.0000e+00
      7.804      0.057     0.0787      0.698    135.572  95.029981     1.5618      6.042    -6.2378 3.3530e-01     1.5845      7.652     11.099    10.0701   999.7815 0.0000e+00
      7.822      0.065     0.0782      0.694    136.637  95.703298     1.5623      6.041    -6.2856 3.0884e-01     1.6515      7.671     11.125    10.0600   999.7825 0.0000e+00
      7.844      0.072     0.0765      0.678    137.133  95.967253     1.5775      6.041    -6.5805 2.7634e-01     1.7354      7.693     11.157    10.0588   999.7826 0.0000e+00
      7.868      0.072     0.0741      0.656    137.451  96.120542     1.5978      6.041    -7.0504 2.5174e-01     1.7799      7.717     11.193    10.0628   999.7825 0.0000e+00
      7.888      0.067     0.0740      0.654    137.663  96.219715     1.6093      6.042    -7.6644 2.4313e-01     1.7951      7.738     11.223    10.0526   999.7843 0.0000e+00
      7.905      0.058     0.0762      0.674    137.704  96.211363     1.6031      6.043    -8.6702 2.4018e-01     1.7886      7.752     11.244    10.0194   999.7877 0.0000e+00
      7.919      0.051     0.0778      0.688    137.754  96.210508     1.5834      6.042    -9.7474 2.3322e-01     1.7669      7.767     11.265     9.9856   999.7908 0.0000e+00
      7.930      0.049     0.0783      0.692    138.079  96.400328     1.5707      6.041   -10.6220 2.2959e-01     1.7621      7.780     11.283     9.9602   999.7933 0.0000e+00
      7.935      0.053     0.0781      0.691    138.773  96.851169     1.5630      6.041   -11.3293 2.3094e-01     1.7637      7.781     11.285     9.9434   999.7949 0.0000e+00
      7.941      0.058     0.0770      0.681    139.599  97.396043     1.5418      6.041   -12.0184 2.2633e-01     1.7529      7.783     11.289     9.9320   999.7958 0.0000e+00
      7.957      0.061     0.0769      0.680    140.010  97.640411     1.5048      6.042   -13.1896 2.1475e-01     1.7299      7.800     11.313     9.9196   999.7969 0.0000e+00
      7.983      0.061     0.0778      0.688    139.806  97.450100     1.4804      6.042   -14.6487 1.9758e-01     1.7145      7.828     11.353     9.9047   999.7985 0.0000e+00
      8.010      0.062     0.0783      0.691    139.583  97.259629     1.4803      6.042   -15.7223 1.8150e-01     1.6988      7.859     11.398     9.8920   999.8000 0.0000e+00
      8.027      0.066     0.0787      0.695    140.135  97.629418     1.4773      6.041   -16.4483 1.8401e-01     1.6383      7.879     11.426     9.8841   999.8012 0.0000e+00
      8.031      0.071     0.0786      0.695    141.641  98.674066     1.4531      6.040   -17.0593 1.9190e-01     1.5723      7.876     11.424     9.8679   999.8028 0.0000e+00
      8.035      0.075     0.0793      0.700    143.052  99.639591     1.4307      6.041   -17.6046 1.7656e-01     1.5566      7.872     11.417     9.8468   999.8045 0.0000e+00
      8.054      0.079     0.0812      0.717    143.476  99.880182     1.4317      6.042   -18.5669 1.4746e-01     1.5470      7.892     11.447     9.8344   999.8055 0.0000e+00
      8.089      0.082     0.0821      0.724    143.395  99.736485     1.4307      6.042   -20.0043 1.3027e-01     1.5217      7.933     11.506     9.8299   999.8061 0.0000e+00
      8.124      0.084     0.0806      0.710    143.531  99.748624     1.4017      6.042   -21.1308 1.2646e-01     1.5134      7.972     11.562     9.8315   999.8069 0.0000e+00
      8.148      0.083     0.0788      0.693    144.001 100.026859     1.3670      6.044   -21.8636 1.2873e-01     1.5123      7.996     11.597     9.8298   999.8079 0.0000e+00
      8.160      0.078     0.0770      0.678    144.591 100.426222     1.3578      6.046   -22.6699 1.3298e-01     1.5076      8.003     11.608     9.8101   999.8096 0.0000e+00
      8.169      0.072     0.0747      0.657    145.053 100.756746     1.3593      6.047   -23.4797 1.3107e-01     1.5226      8.007     11.614     9.7736   999.8126 0.0000e+00
      8.184      0.070     0.0729      0.642    145.441 101.030430     1.3602      6.049   -23.9982 1.2569e-01     1.5951      8.023     11.637     9.7408   999.8156 0.0000e+00
      8.206      0.070     0.0718      0.632    145.860 101.315559     1.3686      6.051   -24.5497 1.2356e-01     1.7291      8.048     11.672     9.7244   999.8172 0.0000e+00
      8.229      0.071     0.0720      0.634    145.896 101.338681     1.3732      6.051   -25.6739 1.2337e-01     1.8307      8.070     11.706     9.7221   999.8177 0.0000e+00
      8.251      0.075     0.0741      0.653    145.576 101.118962     1.3723      6.052   -26.9220 1.2343e-01     1.8409      8.092     11.737     9.7301   999.8174 0.0000e+00
      8.268      0.081     0.0755      0.665    145.702 101.206099     1.3749      6.053   -27.5947 1.2346e-01     1.7874      8.112     11.765     9.7323   999.8174 0.0000e+00
      8.280      0.086     0.0760      0.670    146.407 101.691751     1.3797      6.054   -27.8715 1.2343e-01     1.7410      8.119     11.776     9.7264   999.8182 0.0000e+00
      8.296      0.088     0.0763      0.671    146.905 102.023941     1.3785      6.054   -28.8055 1.2336e-01     1.7381      8.129     11.791     9.7271   999.8182 0.0000e+00
      8.325      0.086     0.0744      0.654    146.958 102.038602     1.3775      6.054   -30.8002 1.2330e-01     1.7528      8.160     11.836     9.7292   999.8178 0.0000e+00
      8.361      0.081     0.0725      0.638    146.933 101.996360     1.3846      6.055   -32.6312 1.2330e-01     1.7874      8.203     11.897     9.7281   999.8182 0.0000e+00
      8.391      0.075     0.0709      0.624    146.995 102.022615     1.3870      6.058   -33.7352 1.2332e-01     1.8289      8.236     11.944     9.7284   999.8188 0.0000e+00
      8.404      0.067     0.0699      0.615    147.110 102.101305     1.3886      6.059   -34.6843 1.2337e-01     1.8283      8.246     11.959     9.7234   999.8194 0.0000e+00
      8.407      0.058     0.0725      0.638    147.220 102.183610     1.3863      6.060   -35.6749 1.2342e-01     1.8128      8.244     11.955     9.7149   999.8201 0.0000e+00
      8.413      0.052     0.0754      0.663    147.317 102.253590     1.3499      6.061   -36.6788 1.2341e-01     1.8384      8.247     11.961     9.7051   999.8209 0.0000e+00
      8.428      0.053     0.0757      0.665    147.327 102.246935     1.3044      6.063   -37.7020 1.2339e-01     1.9086      8.265     11.988     9.6979   999.8216 0.0000e+00
      8.446      0.058     0.0754      0.663    147.076 102.039449     1.2954      6.065   -38.8404 1.2344e-01     1.9734      8.284     12.014     9.6990   999.8216 0.0000e+00
      8.462      0.064     0.0756      0.664    146.599 101.655283     1.3031      6.067   -40.1175 1.2349e-01     1.9984      8.298     12.035     9.7025   999.8214 0.0000e+00
      8.479      0.066     0.0753      0.661    146.365 101.422774     1.2755      6.068   -41.3563 1.2346e-01     2.0153      8.315     12.060     9.7052   999.8213 0.0000e+00
      8.498      0.064     0.0744      0.653    146.415 101.393249     1.2214      6.069   -42.4616 1.2342e-01     2.0130      8.335     12.088     9.7009   999.8218 0.0000e+00
      8.516      0.060     0.0727      0.638    146.336 101.298230     1.1954      6.069   -43.4155 1.2339e-01     2.0033      8.353     12.115     9.6891   999.8228 0.0000e+00
      8.531      0.054     0.0716      0.628    146.278 101.229054     1.1954      6.070   -44.4578 1.2334e-01     1.9963      8.367     12.135     9.6721   999.8240 0.0000e+00
      8.544      0.049     0.0725      0.636    146.453 101.320964     1.2039      6.072   -45.6858 1.2333e-01     1.9289      8.379     12.152     9.6443   999.8263 0.0000e+00
      8.556      0.047     0.0737      0.648    146.584 101.390617     1.2197      6.074   -46.6475 1.2336e-01     1.8104      8.392     12.171     9.6186   999.8287 0.0000e+00
      8.565      0.047     0.0745      0.654    146.377 101.243367     1.2308      6.075   -47.2230 1.2340e-01     1.7434      8.401     12.184     9.6084   999.8294 0.0000e+00
      8.571      0.051     0.0745      0.654    145.940 100.941505     1.2344      6.077   -47.8268 1.2342e-01     1.7420      8.404     12.188     9.6000   999.8301 0.0000e+00
      8.582      0.057     0.0727      0.638    145.570 100.670022     1.2460      6.080   -48.4409 1.2344e-01     1.7935      8.413     12.202     9.5883   999.8312 0.0000e+00
      8.601      0.066     0.0709      0.622    145.291 100.444283     1.2752      6.082   -48.6259 1.2344e-01     1.9073      8.434     12.233     9.5793   999.8322 0.0000e+00
      8.621      0.076     0.0708      0.622    145.061 100.249723     1.3017      6.082   -48.3419 1.2339e-01     1.9717      8.456     12.264     9.5796   999.8322 0.0000e+00
      8.640      0.084     0.0686      0.602    144.994 100.164174     1.3146      6.083   -47.8473 1.2336e-01     1.9817      8.472     12.287     9.5843   999.8317 0.0000e+00
      8.662      0.087     0.0664      0.582    145.074 100.173978     1.3188      6.085   -47.4636 1.2336e-01     1.9956      8.492     12.317     9.5780   999.8321 0.0000e+00
      8.690      0.087     0.0694      0.608    145.232 100.240860     1.3008      6.086   -47.4017 1.2341e-01     1.9422      8.522     12.360     9.5634   999.8334 0.0000e+00
      8.717      0.084     0.0727      0.636    145.427 100.336046     1.2610      6.088   -47.6156 1.2340e-01     1.8286      8.551     12.402     9.5527   999.8343 0.0000e+00
      8.738      0.082     0.0723      0.633    145.614 100.433365     1.2374      6.091   -47.8124 1.2332e-01     1.7687      8.571     12.432     9.5399   999.8354 0.0000e+00
      8.754      0.081     0.0718      0.629    145.865 100.589716     1.2406      6.093   -47.7160 1.2332e-01     1.7752      8.586     12.452     9.5217   999.8371 0.0000e+00
      8.769      0.079     0.0714      0.625    146.139 100.761894     1.2560      6.093   -47.4835 1.2340e-01     1.7760      8.598     12.471     9.5082   999.8382 0.0000e+00
      8.787      0.077     0.0715      0.626    146.325 100.859539     1.2847      6.094   -47.6680 1.2346e-01     1.7789      8.615     12.496     9.4945   999.8395 0.0000e+00
      8.811      0.075     0.0733      0.641    146.399 100.878830     1.3105      6.096   -48.5695 1.2346e-01     1.7767      8.640     12.531     9.4807   999.8408 0.0000e+00
      8.837      0.074     0.0727      0.637    146.404 100.867752     1.3167      6.096   -49.4357 1.2337e-01     1.7500      8.668     12.571     9.4778   999.8413 0.0000e+00
      8.858      0.074     0.0700      0.612    146.475 100.916608     1.3073      6.097   -49.6235 1.2331e-01     1.7506      8.690     12.603     9.4759   999.8417 0.0000e+00
      8.871      0.075     0.0702      0.614    146.627 101.023803     1.2918      6.098   -49.4642 1.2333e-01     1.7521      8.699     12.618     9.4620   999.8429 0.0000e+00
      8.882      0.076     0.0710      0.621    146.898 101.208666     1.2862      6.098   -49.3158 1.2335e-01     1.7350      8.706     12.628     9.4484   999.8441 0.0000e+00
      8.900      0.076     0.0695      0.607    147.233 101.432449     1.2910      6.099   -49.2922 1.2335e-01     1.7401      8.724     12.653     9.4448   999.8444 0.0000e+00
      8.925      0.077     0.0693      0.606    147.352 101.500772     1.2973      6.101   -49.4369 1.2340e-01     1.7814      8.752     12.695     9.4457   999.8445 0.0000e+00
      8.952      0.077     0.0706      0.617    147.322 101.461637     1.3113      6.103   -49.7752 1.2347e-01     1.8409      8.781     12.738     9.4479   999.8445 0.0000e+00
      8.974      0.077     0.0711      0.621    147.542 101.596040     1.3293      6.104   -50.1990 1.2344e-01     1.8369      8.803     12.768     9.4468   999.8448 0.0000e+00
      8.989      0.075     0.0710      0.621    148.216 102.043250     1.3337      6.105   -50.5174 1.2334e-01     1.7984      8.816     12.787     9.4446   999.8452 0.0000e+00
      9.002      0.072     0.0715      0.625    148.779 102.411125     1.3038      6.106   -50.8713 1.2330e-01     1.7351      8.827     12.803     9.4406   999.8457 0.0000e+00
      9.019      0.071     0.0729      0.637    148.714 102.350455     1.2617      6.107   -51.4668 1.2332e-01     1.6294      8.842     12.824     9.4319   999.8464 0.0000e+00
      9.040      0.073     0.0746      0.652    148.423 102.137545     1.2499      6.107   -52.0381 1.2334e-01     1.5685      8.864     12.856     9.4274   999.8468 0.0000e+00
      9.061      0.076     0.0740      0.646    148.150 101.938346     1.2484      6.107   -52.3591 1.2337e-01     1.5565      8.887     12.890     9.4226   999.8476 0.0000e+00
      9.080      0.080     0.0708      0.619    147.861 101.725023     1.2605      6.109   -52.4223 1.2339e-01     1.5826      8.905     12.915     9.4141   999.8487 0.0000e+00
      9.099      0.082     0.0687      0.601    147.708 101.596031     1.3009      6.111   -52.2006 1.2337e-01     1.6214      8.922     12.940     9.4090   999.8490 0.0000e+00
      9.120      0.082     0.0682      0.596    147.744 101.588606     1.3207      6.113   -52.0015 1.2336e-01     1.6319      8.943     12.971     9.4055   999.8494 0.0000e+00
      9.143      0.079     0.0693      0.606    147.859 101.635212     1.3091      6.113   -52.0794 1.2333e-01     1.6117      8.966     13.004     9.4015   999.8497 0.0000e+00
      9.166      0.074     0.0702      0.613    147.915 101.650074     1.2996      6.114   -52.3684 1.2327e-01     1.5741      8.990     13.038     9.3979   999.8499 0.0000e+00
      9.187      0.067     0.0689      0.602    147.917 101.640913     1.3006      6.115   -52.7426 1.2332e-01     1.5376      9.011     13.069     9.3904   999.8506 0.0000e+00
      9.204      0.059     0.0681      0.595    147.937 101.651800     1.3036      6.117   -53.1619 1.2344e-01     1.4991      9.029     13.095     9.3777   999.8517 0.0000e+00
      9.215      0.054     0.0693      0.605    147.944 101.654348     1.3020      6.119   -53.5664 1.2350e-01     1.4678      9.038     13.109     9.3658   999.8528 0.0000e+00
      9.223      0.054     0.0710      0.619    147.974 101.671708     1.2978      6.121   -53.7613 1.2349e-01     1.4868      9.044     13.117     9.3569   999.8536 0.0000e+00
      9.232      0.059     0.0697      0.608    148.080 101.734338     1.2972      6.122   -53.8836 1.2346e-01     1.5979      9.052     13.129     9.3544   999.8538 0.0000e+00
      9.245      0.065     0.0655      0.572    148.160 101.774779     1.3026      6.124   -54.1853 1.2342e-01     1.7303      9.062     13.144     9.3547   999.8538 0.0000e+00
      9.265      0.070     0.0634      0.553    148.177 101.778591     1.3114      6.124   -54.7420 1.2336e-01     1.7763      9.082     13.173     9.3534   999.8540 0.0000e+00
      9.292      0.073     0.0630      0.550    148.179 101.780420     1.3169      6.125   -55.4516 1.2333e-01     1.7605      9.113     13.217     9.3532   999.8542 0.0000e+00
      9.317      0.074     0.0627      0.546    148.204 101.796886     1.3177      6.128   -56.0537 1.2329e-01     1.7038      9.140     13.256     9.3498   999.8546 0.0000e+00
      9.334      0.074     0.0638      0.556    148.302 101.850316     1.3123      6.129   -56.4295 1.2328e-01     1.6145      9.155     13.279     9.3425   999.8553 0.0000e+00
      9.346      0.072     0.0643      0.561    148.538 101.980659     1.3028      6.129   -56.6397 1.2333e-01     1.5657      9.165     13.293     9.3401   999.8556 0.0000e+00
      9.360      0.068     0.0643      0.561    148.948 102.226564     1.2980      6.130   -56.7887 1.2337e-01     1.5407      9.178     13.312     9.3415   999.8555 0.0000e+00
      9.378      0.065     0.0669      0.583    149.330 102.467273     1.2889      6.130   -56.8542 1.2338e-01     1.5082      9.195     13.336     9.3426   999.8555 0.0000e+00
      9.399      0.063     0.0684      0.596    149.442 102.534801     1.2629      6.131   -56.8297 1.2336e-01     1.5005      9.218     13.370     9.3398   999.8558 0.0000e+00
      9.419      0.061     0.0681      0.593    149.358 102.469892     1.2437      6.133   -56.8364 1.2339e-01     1.5130      9.240     13.401     9.3263   999.8571 0.0000e+00
      9.434      0.058     0.0696      0.606    149.340 102.446646     1.2472      6.135   -57.1082 1.2346e-01     1.5284      9.253     13.421     9.3116   999.8585 0.0000e+00
      9.445      0.054     0.0719      0.626    149.540 102.572131     1.2619      6.136   -57.5352 1.2352e-01     1.5233      9.262     13.433     9.3055   999.8591 0.0000e+00
      9.455      0.052     0.0720      0.628    149.763 102.713455     1.2832      6.137   -57.6970 1.2352e-01     1.4833      9.271     13.447     9.3036   999.8594 0.0000e+00
      9.467      0.052     0.0689      0.601    149.846 102.754355     1.2959      6.137   -57.7731 1.2340e-01     1.4383      9.282     13.463     9.3022   999.8595 0.0000e+00
      9.481      0.054     0.0665      0.579    150.053 102.875571     1.2943      6.138   -58.1121 1.2333e-01     1.4377      9.297     13.485     9.2978   999.8599 0.0000e+00
      9.497      0.058     0.0656      0.571    150.588 103.223790     1.2809      6.139   -58.6113 1.2338e-01     1.5419      9.314     13.507     9.2931   999.8605 0.0000e+00
      9.512      0.062     0.0640      0.556    151.330 103.716704     1.2642      6.139   -59.1630 1.2338e-01     1.6818      9.329     13.529     9.2908   999.8608 0.0000e+00
      9.527      0.066     0.0628      0.546    152.042 104.186280     1.2577      6.139   -59.8782 1.2335e-01     1.7528      9.342     13.549     9.2851   999.8613 0.0000e+00
      9.543      0.069     0.0628      0.546    152.542 104.506970     1.2545      6.140   -60.8061 1.2337e-01     1.7784      9.357     13.571     9.2770   999.8620 0.0000e+00
      9.562      0.071     0.0628      0.546    152.979 104.791832     1.2514      6.141   -61.8640 1.2335e-01     1.7610      9.378     13.601     9.2704   999.8629 0.0000e+00
      9.582      0.073     0.0629      0.547    153.697 105.273992     1.2456      6.141   -62.9467 1.2332e-01     1.7071      9.397     13.629     9.2672   999.8636 0.0000e+00
      9.602      0.073     0.0655      0.570    154.608 105.878357     1.2448      6.141   -64.0031 1.2333e-01     1.6846      9.416     13.657     9.2611   999.8644 0.0000e+00
      9.622      0.072     0.0700      0.609    155.186 106.239447     1.2507      6.142   -65.0860 1.2333e-01     1.7179      9.436     13.686     9.2512   999.8655 0.0000e+00
      9.640      0.070     0.0730      0.635    155.181 106.200432     1.2567      6.142   -66.3176 1.2337e-01     1.7490      9.454     13.712     9.2475   999.8659 0.0000e+00
      9.657      0.067     0.0713      0.620    154.970 106.043534     1.2822      6.142   -67.7094 1.2341e-01     1.7652      9.470     13.735     9.2465   999.8663 0.0000e+00
      9.673      0.063     0.0684      0.595    154.883 105.998445     1.3082      6.142   -69.0077 1.2341e-01     1.7822      9.486     13.759     9.2410   999.8673 0.0000e+00
      9.690      0.059     0.0694      0.604    154.998 106.101139     1.3107      6.142   -70.1417 1.2340e-01     1.7911      9.503     13.783     9.2281   999.8686 0.0000e+00
      9.705      0.057     0.0705      0.614    155.493 106.457190     1.2944      6.143   -71.1823 1.2338e-01     1.8073      9.518     13.805     9.2123   999.8698 0.0000e+00
      9.718      0.057     0.0680      0.592    156.283 106.991317     1.2676      6.143   -72.0397 1.2337e-01     1.8146      9.530     13.823     9.2083   999.8701 0.0000e+00
      9.729      0.058     0.0645      0.561    157.027 107.463552     1.2556      6.143   -72.6779 1.2339e-01     1.7816      9.541     13.838     9.2161   999.8695 0.0000e+00
      9.743      0.059     0.0623      0.542    157.549 107.771784     1.2449      6.143   -73.2199 1.2337e-01     1.7359      9.553     13.855     9.2246   999.8689 0.0000e+00
      9.760      0.060     0.0622      0.541    157.924 107.979048     1.2332      6.143   -73.9470 1.2335e-01     1.7204      9.571     13.881     9.2330   999.8685 0.0000e+00
      9.778      0.060     0.0640      0.557    158.204 108.122219     1.2531      6.143   -74.9308 1.2336e-01     1.7256      9.590     13.909     9.2320   999.8691 0.0000e+00
      9.795      0.061     0.0654      0.568    158.413 108.228807     1.2854      6.145   -75.9950 1.2339e-01     1.7330      9.607     13.934     9.2166   999.8706 0.0000e+00
      9.810      0.063     0.0650      0.565    158.841 108.503357     1.3024      6.146   -76.8328 1.2340e-01     1.7446      9.621     13.954     9.1999   999.8721 0.0000e+00
      9.822      0.065     0.0652      0.567    159.520 108.957389     1.3122      6.146   -77.1452 1.2337e-01     1.7681      9.632     13.970     9.1851   999.8735 0.0000e+00
      9.836      0.065     0.0679      0.591    160.170 109.386718     1.3342      6.146   -77.1047 1.2339e-01     1.8191      9.644     13.988     9.1682   999.8750 0.0000e+00
      9.855      0.065     0.0699      0.607    160.629 109.681006     1.3608      6.147   -77.1174 1.2346e-01     1.9034      9.663     14.014     9.1553   999.8761 0.0000e+00
      9.877      0.066     0.0695      0.603    160.979 109.903686     1.3657      6.149   -77.1270 1.2346e-01     1.9681      9.688     14.051     9.1514   999.8766 0.0000e+00
      9.896      0.069     0.0691      0.600    161.945 110.550177     1.3587      6.149   -76.8770 1.2340e-01     1.9787      9.708     14.081     9.1509   999.8770 0.0000e+00
      9.909      0.071     0.0665      0.578    163.945 111.891331     1.3282      6.149   -76.5039 1.2338e-01     1.9661      9.717     14.093     9.1457   999.8777 0.0000e+00
      9.921      0.071     0.0639      0.555    165.616 112.994986     1.2733      6.150   -76.2289 1.2340e-01     1.9784      9.724     14.104     9.1379   999.8786 0.0000e+00
      9.942      0.068     0.0642      0.557    166.142 113.318054     1.2502      6.153   -76.0477 1.2339e-01     2.0295      9.746     14.135     9.1333   999.8790 0.0000e+00
      9.968      0.067     0.0638      0.553    166.736 113.694940     1.2491      6.155   -75.7750 1.2339e-01     2.0594      9.778     14.182     9.1311   999.8796 0.0000e+00
      9.988      0.067     0.0626      0.542    167.757 114.365974     1.2246      6.156   -75.5138 1.2344e-01     2.0451      9.798     14.213     9.1247   999.8812 0.0000e+00
     10.000      0.068     0.0628      0.544    169.095 115.250753     1.1965      6.156   -75.4705 1.2349e-01     2.0204      9.808     14.225     9.1110   999.8832 0.0000e+00
     10.010      0.069     0.0643      0.557    171.052 116.554873     1.1956      6.155   -75.5949 1.2344e-01     2.0238      9.815     14.236     9.0990   999.8838 0.0000e+00
     10.023      0.070     0.0656      0.569    172.888 117.771240     1.2061      6.154   -75.9857 1.2335e-01     2.0524      9.826     14.251     9.0921   999.8846 0.0000e+00
     10.043      0.072     0.0667      0.579    173.815 118.359257     1.2105      6.154   -76.5818 1.2327e-01     2.0387      9.847     14.282     9.0851   999.8858 0.0000e+00
     10.070      0.072     0.0660      0.572    174.104 118.502331     1.2138      6.155   -77.2956 1.2326e-01     1.9899      9.877     14.325     9.0765   999.8868 0.0000e+00
     10.095      0.071     0.0642      0.556    174.342 118.608826     1.2197      6.155   -78.2491 1.2326e-01     1.9538      9.903     14.363     9.0685   999.8885 0.0000e+00
     10.112      0.068     0.0642      0.555    174.807 118.882019     1.2299      6.153   -79.3361 1.2326e-01     1.9298      9.919     14.387     9.0588   999.8901 0.0000e+00
     10.124      0.063     0.0642      0.556    175.492 119.319813     1.2675      6.153   -80.5435 1.2333e-01     1.9292      9.928     14.399     9.0465   999.8913 0.0000e+00
     10.135      0.059     0.0641      0.554    175.977 119.631887     1.3279      6.153   -82.0064 1.2337e-01     1.9797      9.937     14.412     9.0307   999.8927 0.0000e+00
     10.148      0.057     0.0646      0.559    175.942 119.595952     1.3613      6.153   -83.4295 1.2336e-01     2.0482      9.950     14.432     9.0123   999.8942 0.0000e+00
     10.165      0.057     0.0654      0.566    176.035 119.650152     1.3679      6.153   -84.5862 1.2335e-01     2.0692      9.968     14.459     9.0001   999.8953 0.0000e+00
     10.182      0.060     0.0670      0.580    177.356 120.542136     1.3563      6.153   -85.6667 1.2331e-01     2.0042      9.987     14.485     8.9929   999.8962 0.0000e+00
     10.197      0.064     0.0694      0.600    179.655 122.094672     1.3332      6.154   -86.5998 1.2331e-01     1.8850     10.000     14.504     8.9880   999.8968 0.0000e+00
     10.211      0.066     0.0709      0.613    181.674 123.442403     1.3227      6.155   -87.1779 1.2336e-01     1.8073     10.013     14.522     8.9852   999.8971 0.0000e+00
     10.227      0.067     0.0700      0.605    182.484 123.960843     1.3162      6.155   -87.4080 1.2338e-01     1.7868     10.028     14.544     8.9818   999.8972 0.0000e+00
     10.246      0.065     0.0680      0.587    182.056 123.645657     1.3237      6.154   -87.4890 1.2339e-01     1.7675     10.047     14.571     8.9811   999.8979 0.0000e+00
     10.266      0.061     0.0665      0.575    181.696 123.392712     1.3529      6.154   -87.7274 1.2342e-01     1.7382     10.068     14.602     8.9802   999.8991 0.0000e+00
     10.285      0.056     0.0650      0.562    182.056 123.643760     1.3652      6.155   -88.1396 1.2342e-01     1.7275     10.088     14.631     8.9727   999.9006 0.0000e+00
     10.299      0.049     0.0633      0.548    182.757 124.131111     1.3597      6.155   -88.5155 1.2337e-01     1.7365     10.102     14.652     8.9616   999.9020 0.0000e+00
     10.307      0.040     0.0610      0.528    183.767 124.822746     1.3917      6.156   -88.8300 1.2333e-01     1.8142     10.109     14.662     8.9540   999.9020 0.0000e+00
     10.314      0.033     0.0593      0.513    184.964 125.631068     1.4567      6.157   -89.1031 1.2330e-01     1.9453     10.115     14.670     8.9521   999.9020 0.0000e+00
     10.321      0.028     0.0593      0.513    186.272 126.509021     1.4956      6.158   -89.3229 1.2331e-01     2.0103     10.121     14.679     8.9551   999.9022 0.0000e+00
     10.327      0.025     0.0605      0.524    187.704 127.468372     1.5063      6.158   -89.5940 1.2336e-01     2.0110     10.127     14.688     8.9592   999.9020 0.0000e+00
     10.334      0.024     0.0618      0.534    188.871 128.240389     1.4991      6.159   -89.8870 1.2338e-01     1.9870     10.134     14.698     8.9615   999.9024 0.0000e+00
     10.340      0.023     0.0618      0.534    189.491 128.638336     1.4613      6.161   -90.0252 1.2336e-01     1.9158     10.140     14.707     8.9593   999.9030 0.0000e+00
     10.345      0.022     0.0620      0.536    189.138 128.390304     1.4045      6.161   -89.9746 1.2335e-01     1.8387     10.145     14.714     8.9557   999.9036 0.0000e+00
     10.350      0.021     0.0617      0.533    187.677 127.409349     1.3680      6.162   -89.8768 1.2332e-01     1.8091     10.151     14.722     8.9535   999.9045 0.0000e+00
     10.355      0.019     0.0616      0.533    186.441 126.596994     1.3580      6.164   -89.9623 1.2335e-01     1.7870     10.155     14.729     8.9475   999.9054 0.0000e+00
     10.360      0.018     0.0630      0.545    186.394 126.602067     1.3345      6.165   -90.1475 1.2346e-01     1.8007     10.160     14.736     8.9394   999.9063 0.0000e+00
     10.365      0.017     0.0622      0.538    186.392 126.641887     1.3095      6.167   -90.1369 1.2351e-01     1.8767     10.164     14.742     8.9366   999.9065 0.0000e+00
     10.369      0.017     0.0604      0.523    185.673 126.185841     1.3075      6.167   -90.0920 1.2342e-01     1.9187     10.169     14.748     8.9405   999.9054 0.0000e+00
     10.373      0.016     0.0615      0.533    185.186 125.869904     1.3006      6.167   -90.2940 1.2335e-01     1.9157     10.172     14.754     8.9479   999.9042 0.0000e+00
     10.377      0.014     0.0630      0.546    185.013 125.754816     1.2868      6.169   -90.7725 1.2331e-01     1.8731     10.176     14.760     8.9580   999.9037 0.0000e+00
     10.381      0.012     0.0629      0.545    184.910 125.686882     1.2888      6.171   -91.4035 1.2332e-01     1.7970     10.180     14.765     8.9706   999.9030 0.0000e+00
     10.384      0.010     0.0629      0.544    185.267 125.941091     1.3074      6.172   -91.8136 1.2337e-01     1.7823     10.184     14.770     8.9803   999.9016 0.0000e+00
     10.386      0.009     0.0632      0.547    185.739 126.278215     1.3218      6.172   -91.8598 1.2337e-01     1.8262     10.186     14.773     8.9840   999.9014 0.0000e+00
     10.388      0.007     0.0629      0.545    185.977 126.447709     1.3320      6.172   -91.7902 1.2335e-01     1.8363     10.187     14.775     8.9831   999.9014 0.0000e+00
     10.389      0.007     0.0631      0.547    186.185 126.587778     1.3526      6.172   -91.8322 1.2335e-01     1.8058     10.188     14.776     8.9823   999.9012 0.0000e+00
     10.390      0.007     0.0626      0.542    186.540 126.824121     1.3627      6.173   -91.9380 1.2335e-01     1.7852     10.189     14.778     8.9863   999.9013 0.0000e+00
     10.392      0.007     0.0611      0.530    187.009 127.137509     1.3588      6.176   -91.9503 1.2339e-01     1.7511     10.191     14.780     8.9925   999.9011 0.0000e+00
     10.393      0.007     0.0612      0.530    187.928 127.762793     1.3578      6.178   -91.8949 1.2344e-01     1.7211     10.192     14.782     8.9945   999.9010 0.0000e+00
     10.396      0.007     0.0612      0.529    190.249 129.347184     1.3584      6.178   -91.7837 1.2344e-01     1.7181     10.195     14.787     8.9933   999.9011 0.0000e+00
     10.399      0.007     0.0615      0.532    193.408 131.500369     1.3576      6.178   -91.7248 1.2339e-01     1.7151     10.199     14.792     8.9919   999.9013 0.0000e+00
     10.400      0.007     0.0629      0.544    196.181 133.390441     1.3569      6.179   -91.7848 1.2333e-01     1.7501     10.199     14.793     8.9892   999.9018 0.0000e+00
     10.401      0.006     0.0629      0.544    197.475 134.278744     1.3586      6.182   -91.9075 1.2334e-01     1.9115     10.200     14.794     8.9897   999.9018 0.0000e+00
     10.403      0.005     0.0616      0.533    197.538 134.331814     1.3612      6.184   -92.2622 1.2339e-01     2.1594     10.202     14.796     8.9924   999.9026 0.0000e+00
     10.404      0.005     0.0616      0.533    200.368 136.264555     1.3617      6.184   -92.8038 1.2339e-01     2.2895     10.203     14.798     8.9935   999.9039 0.0000e+00
     10.405      0.005     0.0616      0.534    207.428 141.061899     1.3647      6.184   -93.2078 1.2339e-01     2.2723     10.204     14.799     8.9942   999.9049 0.0000e+00
     10.406      0.005     0.0620      0.536    214.189 145.635226     1.3548      6.185   -93.5327 1.2339e-01     2.1476     10.205     14.801     8.9962   999.9056 0.0000e+00
     10.407      0.006     0.0628      0.543    217.134 147.596686     1.3288      6.186   -93.8931 1.2338e-01     1.9621     10.206     14.802     8.9999   999.9044 0.0000e+00
     10.409      0.006     0.0616      0.533    217.676 147.930771     1.3187      6.187   -94.1227 1.2334e-01     1.8641     10.207     14.804     9.0018   999.9049 0.0000e+00
     10.411      0.007     0.0594      0.514    217.632 147.887479     1.3201      6.186   -94.3306 1.2335e-01     1.8474     10.209     14.807     9.0026   999.9084 0.0000e+00
     10.413      0.009     0.0583      0.504    217.832 148.030623     1.3199      6.186   -94.7726 1.2339e-01     1.8261     10.211     14.810     8.9969   999.9121 0.0000e+00
     10.414      0.010     0.0579      0.501    218.981 148.831763     1.3246      6.187   -95.7670 1.2339e-01     1.7705     10.213     14.814     8.9841   999.9136 0.0000e+00
     10.417      0.012     0.0587      0.508    220.821 150.106215     1.3245      6.189   -97.4920 1.2339e-01     1.7318     10.215     14.816     8.9756   999.9142 0.0000e+00
     10.420      0.014     0.0609      0.528    223.122 151.695176     1.3104      6.189   -99.5401 1.2342e-01     1.7521     10.218     14.820     8.9726   999.9145 0.0000e+00
     10.424      0.014     0.0627      0.543    225.832 153.553286     1.3096      6.190  -101.3429 1.2345e-01     1.7532     10.223     14.827     8.9749   999.9142 0.0000e+00
     10.429      0.014     0.0637      0.551    228.740 155.527181     1.3321      6.190  -102.5974 1.2342e-01     1.7455     10.227     14.833     8.9807   999.9144 0.0000e+00
     10.433      0.013     0.0635      0.549    231.562 157.429166     1.3484      6.191  -103.4382 1.2337e-01     1.7573     10.232     14.841     8.9856   999.9147 0.0000e+00
     10.437      0.011     0.0616      0.533    234.258 159.246223     1.3596      6.191  -104.1951 1.2340e-01     1.7317     10.236     14.846     8.9922   999.9150 0.0000e+00
     10.439      0.009     0.0608      0.527    236.881 161.021765     1.3546      6.191  -105.2102 1.2345e-01     1.7642     10.237     14.848     8.9969   999.9157 0.0000e+00
     10.440      0.007     0.0603      0.522    239.312 162.675811     1.3231      6.191  -106.2467 1.2344e-01     1.8876     10.238     14.849     8.9954   999.9170 0.0000e+00
     10.441      0.006     0.0581      0.502    241.502 164.172224     1.2994      6.193  -106.6615 1.2340e-01     1.9460     10.238     14.849     8.9906   999.9184 0.0000e+00
     10.442      0.006     0.0566      0.490    243.546 165.573613     1.2935      6.194  -106.6978 1.2337e-01     1.9458     10.240     14.852     8.9865   999.9197 0.0000e+00
     10.444      0.007     0.0580      0.501    245.486 166.908143     1.3039      6.194  -106.8572 1.2332e-01     1.9498     10.242     14.855     8.9852   999.9208 0.0000e+00
     10.445      0.008     0.0609      0.526    247.222 168.106399     1.3301      6.193  -107.2982 1.2329e-01     1.9299     10.243     14.857     8.9858   999.9217 0.0000e+00
     10.447      0.010     0.0625      0.541    248.802 169.201015     1.3493      6.193  -108.2452 1.2332e-01     1.9347     10.245     14.859     8.9875   999.9224 0.0000e+00
     10.450      0.011     0.0623      0.540    250.389 170.304018     1.3542      6.194  -109.4452 1.2337e-01     2.0075     10.247     14.861     8.9900   999.9229 0.0000e+00
     10.453      0.011     0.0610      0.529    251.980 171.411464     1.3552      6.194  -110.3642 1.2338e-01     2.0560     10.251     14.867     8.9931   999.9235 0.0000e+00
     10.458      0.011     0.0596      0.516    253.533 172.495382     1.3690      6.193  -110.9244 1.2339e-01     2.0290     10.256     14.875     8.9967   999.9239 0.0000e+00
     10.462      0.011     0.0587      0.508    255.068 173.568972     1.3919      6.193  -111.2283 1.2341e-01     2.0091     10.259     14.881     9.0009   999.9242 0.0000e+00
     10.464      0.010     0.0586      0.507    256.560 174.614910     1.3975      6.194  -111.5424 1.2343e-01     2.0130     10.261     14.883     9.0055   999.9244 0.0000e+00
     10.465      0.008     0.0595      0.515    257.895 175.555731     1.4027      6.195  -111.8839 1.2343e-01     2.0104     10.262     14.884     9.0105   999.9246 0.0000e+00
     10.466      0.007     0.0596      0.517    258.965 176.316560     1.4282      6.196  -112.0013 1.2334e-01     2.0427     10.264     14.886     9.0159   999.9248 0.0000e+00
     10.468      0.006     0.0604      0.524    259.695 176.847591     1.4539      6.196  -112.0157 1.2328e-01     2.0752     10.266     14.890     9.0218   999.9249 0.0000e+00
     10.470      0.006     0.0636      0.551    260.139 177.182834     1.4624      6.196  -111.8862 1.2331e-01     2.0435     10.268     14.892     9.0277   999.9251 0.0000e+00
     10.471      0.006     0.0658      0.571    260.453 177.429862     1.4611      6.197  -111.5545 1.2330e-01     1.9872     10.269     14.893     9.0339   999.9251 0.0000e+00
     10.473      0.006     0.0656      0.568    260.746 177.661241     1.4382      6.200  -111.2745 1.2329e-01     1.9515     10.270     14.895     9.0404   999.9251 0.0000e+00
     10.474      0.006     0.0647      0.561    261.007 177.871158     1.3852      6.202  -111.2541 1.2337e-01     1.9399     10.271     14.897     9.0468   999.9249 0.0000e+00
     10.475      0.006     0.0642      0.557    261.223 178.050429     1.3502      6.203  -111.4797 1.2347e-01     1.9451     10.273     14.900     9.0532   999.9244 0.0000e+00
     10.477      0.006     0.0631      0.548    261.441 178.230842     1.3524      6.203  -111.7643 1.2348e-01     1.9812     10.275     14.902     9.0597   999.9242 0.0000e+00
     10.479      0.006     0.0620      0.538    261.629 178.390647     1.3779      6.204  -111.9422 1.2346e-01     2.0160     10.277     14.905     9.0657   999.9238 0.0000e+00
     10.481      0.006     0.0613      0.532    261.760 178.512482     1.4074      6.205  -112.0817 1.2346e-01     2.0059     10.279     14.908     9.0718   999.9235 0.0000e+00
     10.483      0.005     0.0606      0.526    261.868 178.617324     1.4136      6.207  -112.3331 1.2346e-01     1.9897     10.280     14.910     9.0780   999.9231 0.0000e+00
     10.484      0.005     0.0602      0.522    261.943 178.699506     1.4092      6.208  -112.5729 1.2348e-01     1.9844     10.281     14.911     9.0841   999.9227 0.0000e+00
     10.485      0.004     0.0595      0.517    262.049 178.803034     1.3982      6.208  -112.8290 1.2348e-01     2.0078     10.282     14.913     9.0902   999.9223 0.0000e+00
     10.486      0.003     0.0590      0.512    262.254 178.974192     1.3758      6.209  -113.2785 1.2347e-01     2.0432     10.283     14.914     9.0963   999.9219 0.0000e+00
     10.486      0.003     0.0586      0.509    262.496 179.170948     1.3636      6.211  -113.7064 1.2342e-01     2.0513     10.283     14.915     9.1022   999.9215 0.0000e+00
     10.487      0.003     0.0578      0.502    262.773 179.392201     1.3626      6.212  -113.7870 1.2340e-01     2.0400     10.284     14.916     9.1081   999.9210 0.0000e+00
     10.488      0.002     0.0580      0.504    263.131 179.667750     1.3734      6.213  -113.5645 1.2337e-01     2.0047     10.285     14.917     9.1141   999.9207 0.0000e+00
     10.488      0.002     0.0601      0.522    263.492 179.945655     1.3898      6.215  -113.3399 1.2330e-01     1.9852     10.285     14.917     9.1200   999.9202 0.0000e+00
     10.488      0.002     0.0601      0.523    263.812 180.195371     1.3957      6.217  -113.2220 1.2334e-01     1.9684     10.285     14.917     9.1262   999.9199 0.0000e+00
     10.489      0.002     0.0581      0.505    264.142 180.449682     1.4016      6.218  -113.1719 1.2343e-01     1.9323     10.286     14.919     9.1322   999.9196 0.0000e+00
     10.489      0.001     0.0585      0.508    264.496 180.719183     1.4001      6.221  -113.3362 1.2347e-01     1.9088     10.287     14.920     9.1383   999.9193 0.0000e+00
     10.489      0.001     0.0605      0.526    264.904 181.024682     1.3781      6.223  -113.6599 1.2347e-01     1.8484     10.286     14.919     9.1443   999.9189 0.0000e+00
     10.490      0.001     0.0614      0.534    265.407 181.394550     1.3611      6.224  -113.8160 1.2342e-01     1.7585     10.287     14.920     9.1500   999.9186 0.0000e+00
     10.490      0.001     0.0618      0.536    265.965 181.802997     1.3595      6.225  -113.7607 1.2337e-01     1.7071     10.287     14.921     9.1555   999.9183 0.0000e+00
     10.490      0.001     0.0619      0.537    266.587 182.255247     1.3668      6.227  -113.7658 1.2341e-01     1.7526     10.286     14.919     9.1608   999.9180 0.0000e+00
     10.490      0.001     0.0616      0.536    267.301 182.771053     1.3888      6.229  -113.9636 1.2351e-01     1.8812     10.287     14.920     9.1657   999.9178 0.0000e+00
     10.490      0.000     0.0625      0.544    268.047 183.308525     1.4092      6.229  -114.2596 1.2354e-01     1.9519     10.287     14.921     9.1706   999.9176 0.0000e+00
     10.491      0.000     0.0634      0.552    268.417 183.575070     1.4145      6.229  -114.4193 1.2344e-01     1.9524     10.288     14.921     9.1757   999.9174 0.0000e+00
     10.491 -9.990e-29 -9.990e-29 -9.990e-29 -9.990e-29 -9.990e-29 -9.990e-29 -9.990e-29 -9.990e-29 1.2338e-01 -9.990e-29     10.288     14.921     9.1811   999.9172 0.0000e+00
     10.490 -9.990e-29 -9.990e-29 -9.990e-29 -9.990e-29 -9.990e-29 -9.990e-29 -9.990e-29 -9.990e-29 1.2339e-01 -9.990e-29     10.287     14.921     9.1858   999.9172 0.0000e+00
     10.490 -9.990e-29 -9.990e-29 -9.990e-29 -9.990e-29 -9.990e-29 -9.990e-29 -9.990e-29 -9.990e-29 1.2336e-01 -9.990e-29     10.287     14.920     9.1919   999.9170 0.0000e+00
     10.490 -9.990e-29 -9.990e-29 -9.990e-29 -9.990e-29 -9.990e-29 -9.990e-29 -9.990e-29 -9.990e-29 1.2333e-01 -9.990e-29     10.288     14.921     9.1961   999.9169 0.0000e+00
