* Sea-Bird SBE19plus  Data File:
* FileName = C:\R\Reservoirs\Data\DataNotYetUploadedToEDI\Raw_CTD\RawDownloads\090924_fcr40_S7809_0001.hex
* Software version 2.8.0.119
* Temperature SN = 7809
* Conductivity SN = 7809
* System UpLoad Time = Sep 09 2024 17:05:19
* <ApplicationData>
* <Seaterm232>
* <SoftwareVersion>2.8.0.119</SoftwareVersion>
* <BuildDate>07-Nov-2018</BuildDate>
* </Seaterm232>
* </ApplicationData>
* <InstrumentState>
* <HardwareData DeviceType='SBE19plus' SerialNumber='01907809'>
*
*    <Manufacturer>Sea-Bird Electronics, Inc.</Manufacturer>
*
*    <FirmwareVersion>3.1.8</FirmwareVersion>
*
*    <FirmwareDate>Mar  9 2016 16:22:29</FirmwareDate>
*
*    <CommandSetVersion>1.4</CommandSetVersion>
*
*    <PCBAssembly PCBSerialNum='120721' AssemblyNum='41054J'/>
*
*    <PCBAssembly PCBSerialNum='120715' AssemblyNum='41967A'/>
*
*    <PCBAssembly PCBSerialNum='116699' AssemblyNum='41606'/>
*
*    <PCBAssembly PCBSerialNum='120719' AssemblyNum='41059D'/>
*
*    <MfgDate>28-Apr-2017</MfgDate>
*
*    <InternalSensors>
*
*       <Sensor id='Main Temperature'>
*
*          <type>temperature0</type>
*
*          <SerialNumber>01907809</SerialNumber>
*
*       </Sensor>
*
*       <Sensor id='Main Conductivity'>
*
*          <type>conductivity-0</type>
*
*          <SerialNumber>01907809</SerialNumber>
*
*       </Sensor>
*
*       <Sensor id='Main Pressure'>
*
*          <type>strain-0</type>
*
*          <SerialNumber>10586018</SerialNumber>
*
*       </Sensor>
*
*    </InternalSensors>
*
*    <ExternalSensors>
*
*       <Sensor id='volt 0'>
*
*          <type>pH</type>
*
*          <SerialNumber>27-0363</SerialNumber>
*
*       </Sensor>
*
*       <Sensor id='volt 1'>
*
*          <type>ORP</type>
*
*          <SerialNumber>27-0363</SerialNumber>
*
*       </Sensor>
*
*       <Sensor id='volt 2'>
*
*          <type>OXY</type>
*
*          <SerialNumber>43-0434</SerialNumber>
*
*       </Sensor>
*
*       <Sensor id='volt 3'>
*
*          <type>PAR</type>
*
*          <SerialNumber>1122</SerialNumber>
*
*       </Sensor>
*
*       <Sensor id='volt 4'>
*
*          <type>ECO AFL/FL</type>
*
*          <SerialNumber>FLNTURT-2496</SerialNumber>
*
*       </Sensor>
*
*       <Sensor id='volt 5'>
*
*          <type>ECO-NTU</type>
*
*          <SerialNumber>FLNTURT-2496</SerialNumber>
*
*       </Sensor>
*
*       <Sensor id='serial'>
*
*          <type>not assigned</type>
*
*          <SerialNumber>not assigned</SerialNumber>
*
*       </Sensor>
*
*    </ExternalSensors>
*
* </HardwareData>
* <StatusData DeviceType='SBE19plus' SerialNumber='01907809'>
*
*    <DateTime>2024-09-09T17:04:38</DateTime>
*
*    <LoggingState>not logging</LoggingState>
*
*    <EventSummary numEvents='0'/>
*
*    <Power>
*
*       <vMain>12.3</vMain>
*
*       <vLith>8.4</vLith>
*
*       <iMain>63.1</iMain>
*
*       <iPump>44.3</iPump>
*
*       <iExt01>20.8</iExt01>
*
*       <iExt2345>39.5</iExt2345>
*
*    </Power>
*
*    <MemorySummary>
*
*       <Bytes>79856</Bytes>
*
*       <Samples>3472</Samples>
*
*       <SamplesFree>2857316</SamplesFree>
*
*       <SampleLength>23</SampleLength>
*
*       <Profiles>5</Profiles>
*
*    </MemorySummary>
*
* </StatusData>
* <ConfigurationData DeviceType='SBE19plus' SerialNumber='01907809'>
*
*    <ProfileMode>
*
*       <ScansToAverage>1</ScansToAverage>
*
*       <MinimumCondFreq>0</MinimumCondFreq>
*
*       <PumpDelay>45</PumpDelay>
*
*       <AutoRun>no</AutoRun>
*
*       <IgnoreSwitch>no</IgnoreSwitch>
*
*    </ProfileMode>
*
*    <Battery>
*
*       <Type>alkaline</Type>
*
*       <CutOff>7.5</CutOff>
*
*    </Battery>
*
*    <DataChannels>
*
*       <ExtVolt0>yes</ExtVolt0>
*
*       <ExtVolt1>yes</ExtVolt1>
*
*       <ExtVolt2>yes</ExtVolt2>
*
*       <ExtVolt3>yes</ExtVolt3>
*
*       <ExtVolt4>yes</ExtVolt4>
*
*       <ExtVolt5>yes</ExtVolt5>
*
*       <SBE38>no</SBE38>
*
*       <WETLABS>no</WETLABS>
*
*       <OPTODE>no</OPTODE>
*
*       <SBE63>no</SBE63>
*
*       <SeaFET>no</SeaFET>
*
*       <GTD>no</GTD>
*
*    </DataChannels>
*
*    <EchoCharacters>yes</EchoCharacters>
*
*    <OutputExecutedTag>yes</OutputExecutedTag>
*
*    <OutputFormat>raw HEX</OutputFormat>
*
* </ConfigurationData>
* <CalibrationCoefficients DeviceType='SBE19plus' SerialNumber='01907809'>
*
*    <Calibration format='TEMP1' id='Main Temperature'>
*
*       <SerialNum>01907809</SerialNum>
*
*       <CalDate>31-Jan-23</CalDate>
*
*       <TA0>1.218232e-03</TA0>
*
*       <TA1>2.815090e-04</TA1>
*
*       <TA2>-1.578887e-06</TA2>
*
*       <TA3>1.972343e-07</TA3>
*
*       <TOFFSET>0.000000e+00</TOFFSET>
*
*    </Calibration>
*
*    <Calibration format='WBCOND0' id='Main Conductivity'>
*
*       <SerialNum>01907809</SerialNum>
*
*       <CalDate>31-Jan-23</CalDate>
*
*       <G>-1.005652e+00</G>
*
*       <H>1.267963e-01</H>
*
*       <I>-1.561708e-04</I>
*
*       <J>2.645944e-05</J>
*
*       <CPCOR>-9.570000e-08</CPCOR>
*
*       <CTCOR>3.250000e-06</CTCOR>
*
*       <CSLOPE>1.000000e+00</CSLOPE>
*
*    </Calibration>
*
*    <Calibration format='STRAIN0' id='Main Pressure'>
*
*       <SerialNum>10586018</SerialNum>
*
*       <CalDate>20-Jan-23</CalDate>
*
*       <PA0>4.416439e-02</PA0>
*
*       <PA1>4.850502e-04</PA1>
*
*       <PA2>-3.090426e-12</PA2>
*
*       <PTCA0>5.254757e+05</PTCA0>
*
*       <PTCA1>1.050255e+01</PTCA1>
*
*       <PTCA2>-2.922435e-01</PTCA2>
*
*       <PTCB0>2.516687e+01</PTCB0>
*
*       <PTCB1>3.750000e-04</PTCB1>
*
*       <PTCB2>0.000000e+00</PTCB2>
*
*       <PTEMPA0>-5.470820e+01</PTEMPA0>
*
*       <PTEMPA1>5.485421e+01</PTEMPA1>
*
*       <PTEMPA2>-3.446578e-01</PTEMPA2>
*
*       <POFFSET>8.500000e-01</POFFSET>
*
*       <PRANGE>1.600000e+02</PRANGE>
*
*    </Calibration>
*
*    <Calibration format='VOLT0' id='Volt 0'>
*
*       <OFFSET>-4.920000e-02</OFFSET>
*
*       <SLOPE>1.248122e+00</SLOPE>
*
*    </Calibration>
*
*    <Calibration format='VOLT0' id='Volt 1'>
*
*       <OFFSET>-4.784000e-02</OFFSET>
*
*       <SLOPE>1.248871e+00</SLOPE>
*
*    </Calibration>
*
*    <Calibration format='VOLT0' id='Volt 2'>
*
*       <OFFSET>-4.864632e-02</OFFSET>
*
*       <SLOPE>1.248714e+00</SLOPE>
*
*    </Calibration>
*
*    <Calibration format='VOLT0' id='Volt 3'>
*
*       <OFFSET>-4.743790e-02</OFFSET>
*
*       <SLOPE>1.248571e+00</SLOPE>
*
*    </Calibration>
*
*    <Calibration format='VOLT0' id='Volt 4'>
*
*       <OFFSET>-4.671263e-02</OFFSET>
*
*       <SLOPE>1.248951e+00</SLOPE>
*
*    </Calibration>
*
*    <Calibration format='VOLT0' id='Volt 5'>
*
*       <OFFSET>-4.871053e-02</OFFSET>
*
*       <SLOPE>1.249136e+00</SLOPE>
*
*    </Calibration>
*
*    <Calibration format='FREQ0' id='external frequency channel'>
*
*       <EXTFREQSF>1.000014e+00</EXTFREQSF>
*
*    </Calibration>
*
* </CalibrationCoefficients>
* <EventCounters DeviceType='SBE19plus' SerialNumber='01907809'>
*
*    <EventSummary numEvents='0'/>
*
* </EventCounters></InstrumentState>
* <Headers>
*
* cast   1 09 Sep 2024 10:09:50 samples 1 to 419, avg = 1, stop = mag switch
*
# nquan = 15
# nvalues = 419                         
# units = specified
# name 0 = depFM: Depth [fresh water, m]
# name 1 = dz/dtM: Descent Rate [m/s]
# name 2 = sbeox0Mg/L: Oxygen, SBE 43 [mg/l]
# name 3 = sbeox0PS: Oxygen, SBE 43 [% saturation]
# name 4 = specc: Specific Conductance [uS/cm]
# name 5 = c0uS/cm: Conductivity [uS/cm]
# name 6 = flECO-AFL: Fluorescence, WET Labs ECO-AFL/FL [mg/m^3]
# name 7 = ph: pH
# name 8 = orp: Oxidation Reduction Potential [mV]
# name 9 = par/sat/log: PAR/Logarithmic, Satlantic
# name 10 = turbWETntu0: Turbidity, WET Labs ECO [NTU]
# name 11 = prdM: Pressure, Strain Gauge [db]
# name 12 = prdE: Pressure, Strain Gauge [psi]
# name 13 = tv290C: Temperature [ITS-90, deg C]
# name 14 = flag:  0.000e+00
# span 0 =     -0.592,      2.292       
# span 1 =     -0.318,      0.157       
# span 2 =     4.1934,     8.7901       
# span 3 =     46.557,     97.906       
# span 4 =      5.236,     43.071       
# span 5 =   4.808558,  39.512957       
# span 6 =     2.0895,   227.9385       
# span 7 =      6.566,      7.553       
# span 8 =    57.1005,   294.7604       
# span 9 = 2.9143e+01, 1.0347e+03       
# span 10 =    -6.0126,   164.8876      
# span 11 =     -0.581,      2.250      
# span 12 =     -0.842,      3.263      
# span 13 =    19.0960,    21.0669      
# span 14 = 0.0000e+00, 0.0000e+00      
# interval = seconds: 0.25
# start_time = Sep 09 2024 10:09:50 [Instrument's time stamp, header]
# bad_flag = -9.990e-29
# <Sensors count="9" >
#   <sensor Channel="1" >
#     <!-- Count, Temperature -->
#     <TemperatureSensor SensorID="58" >
#       <SerialNumber>7809</SerialNumber>
#       <CalibrationDate>31-Jan-23</CalibrationDate>
#       <A0>1.21823180e-003</A0>
#       <A1>2.81508993e-004</A1>
#       <A2>-1.57888696e-006</A2>
#       <A3>1.97234302e-007</A3>
#       <Slope>1.00000000</Slope>
#       <Offset>0.0000</Offset>
#     </TemperatureSensor>
#   </sensor>
#   <sensor Channel="2" >
#     <!-- Frequency 0, Conductivity -->
#     <ConductivitySensor SensorID="3" >
#       <SerialNumber>7809</SerialNumber>
#       <CalibrationDate>31-Jan-23</CalibrationDate>
#       <UseG_J>1</UseG_J>
#       <!-- Cell const and series R are applicable only for wide range sensors. -->
#       <SeriesR>0.0000</SeriesR>
#       <CellConst>2000.0000</CellConst>
#       <ConductivityType>0</ConductivityType>
#       <Coefficients equation="0" >
#         <A>0.00000000e+000</A>
#         <B>0.00000000e+000</B>
#         <C>0.00000000e+000</C>
#         <D>0.00000000e+000</D>
#         <M>0.0</M>
#         <CPcor>-9.57000000e-008</CPcor>
#       </Coefficients>
#       <Coefficients equation="1" >
#         <G>-1.00565232e+000</G>
#         <H>1.26796307e-001</H>
#         <I>-1.56170788e-004</I>
#         <J>2.64594368e-005</J>
#         <CPcor>-9.57000000e-008</CPcor>
#         <CTcor>3.2500e-006</CTcor>
#         <!-- WBOTC not applicable unless ConductivityType = 1. -->
#         <WBOTC>0.00000000e+000</WBOTC>
#       </Coefficients>
#       <Slope>1.00000000</Slope>
#       <Offset>0.00000</Offset>
#     </ConductivitySensor>
#   </sensor>
#   <sensor Channel="3" >
#     <!-- Count, Pressure, Strain Gauge -->
#     <PressureSensor SensorID="46" >
#       <SerialNumber>7809</SerialNumber>
#       <CalibrationDate>20-Jan-23</CalibrationDate>
#       <PA0>4.41643944e-002</PA0>
#       <PA1>4.85050239e-004</PA1>
#       <PA2>-3.09042623e-012</PA2>
#       <PTEMPA0>-5.47081996e+001</PTEMPA0>
#       <PTEMPA1>5.48542136e+001</PTEMPA1>
#       <PTEMPA2>-3.44657813e-001</PTEMPA2>
#       <PTCA0>5.25475731e+005</PTCA0>
#       <PTCA1>1.05025484e+001</PTCA1>
#       <PTCA2>-2.92243463e-001</PTCA2>
#       <PTCB0>2.51668750e+001</PTCB0>
#       <PTCB1>3.75000000e-004</PTCB1>
#       <PTCB2>0.00000000e+000</PTCB2>
#       <Offset>0.000000</Offset>
#     </PressureSensor>
#   </sensor>
#   <sensor Channel="4" >
#     <!-- A/D voltage 0, Oxygen, SBE 43 -->
#     <OxygenSensor SensorID="38" >
#       <SerialNumber>0434</SerialNumber>
#       <CalibrationDate>18-Feb-23</CalibrationDate>
#       <Use2007Equation>1</Use2007Equation>
#       <CalibrationCoefficients equation="0" >
#         <!-- Coefficients for Owens-Millard equation. -->
#         <Boc>0.0000</Boc>
#         <Soc>0.0000e+000</Soc>
#         <offset>0.0000</offset>
#         <Pcor>0.00e+000</Pcor>
#         <Tcor>0.0000</Tcor>
#         <Tau>0.0</Tau>
#       </CalibrationCoefficients>
#       <CalibrationCoefficients equation="1" >
#         <!-- Coefficients for Sea-Bird equation - SBE calibration in 2007 and later. -->
#         <Soc>5.1878e-001</Soc>
#         <offset>-0.5046</offset>
#         <A>-4.2788e-003</A>
#         <B> 1.5372e-004</B>
#         <C>-2.1853e-006</C>
#         <D0> 2.5826e+000</D0>
#         <D1> 1.92634e-004</D1>
#         <D2>-4.64803e-002</D2>
#         <E> 3.6000e-002</E>
#         <Tau20> 0.9900</Tau20>
#         <H1>-3.3000e-002</H1>
#         <H2> 5.0000e+003</H2>
#         <H3> 1.4500e+003</H3>
#       </CalibrationCoefficients>
#     </OxygenSensor>
#   </sensor>
#   <sensor Channel="5" >
#     <!-- A/D voltage 1, PAR/Logarithmic, Satlantic -->
#     <PARLog_SatlanticSensor SensorID="76" >
#       <SerialNumber>1122</SerialNumber>
#       <CalibrationDate>08-Sep-2021</CalibrationDate>
#       <a0>9.6751e-001</a0>
#       <a1>8.0992e-001</a1>
#       <Im>1.3589e+000</Im>
#       <Multiplier>1.0000e+000</Multiplier>
#     </PARLog_SatlanticSensor>
#   </sensor>
#   <sensor Channel="6" >
#     <!-- A/D voltage 2, pH -->
#     <pH_Sensor SensorID="43" >
#       <SerialNumber>0363</SerialNumber>
#       <CalibrationDate>28-Feb-23</CalibrationDate>
#       <Slope>4.7364</Slope>
#       <Offset>2.5433</Offset>
#     </pH_Sensor>
#   </sensor>
#   <sensor Channel="7" >
#     <!-- A/D voltage 3, Oxidation Reduction Potential -->
#     <OxidationReductionPotentialSensor SensorID="41" >
#       <SerialNumber>0363</SerialNumber>
#       <CalibrationDate>28-Feb-23</CalibrationDate>
#       <B>2.499480</B>
#       <M>-0.496195</M>
#       <Offset>0.0</Offset>
#     </OxidationReductionPotentialSensor>
#   </sensor>
#   <sensor Channel="8" >
#     <!-- A/D voltage 4, Fluorometer, WET Labs ECO-AFL/FL -->
#     <FluoroWetlabECO_AFL_FL_Sensor SensorID="20" >
#       <SerialNumber>FLNTURT-2496</SerialNumber>
#       <CalibrationDate>02-Sep-2021</CalibrationDate>
#       <ScaleFactor>4.80000000e+001</ScaleFactor>
#       <!-- Dark output -->
#       <Vblank>0.0550</Vblank>
#     </FluoroWetlabECO_AFL_FL_Sensor>
#   </sensor>
#   <sensor Channel="9" >
#     <!-- A/D voltage 5, Turbidity Meter, WET Labs, ECO-NTU -->
#     <TurbidityMeter SensorID="67" >
#       <SerialNumber>FLNTURT--2496</SerialNumber>
#       <CalibrationDate>02-Sep-2021</CalibrationDate>
#       <ScaleFactor>197.000000</ScaleFactor>
#       <!-- Dark output -->
#       <DarkVoltage>0.070000</DarkVoltage>
#     </TurbidityMeter>
#   </sensor>
# </Sensors>
# datcnv_date = Sep 09 2024 17:10:39, 7.26.7.129 [datcnv_vars = 14]
# datcnv_in = C:\R\Reservoirs\Data\DataNotYetUploadedToEDI\Raw_CTD\RawDownloads\090924_fcr10_S7809001.hex C:\R\Reservoirs\Data\DataNotYetUploadedToEDI\Raw_CTD\RawDownloads\SBE19plusV2_7809_start20230701.xmlcon
# datcnv_skipover = 0
# datcnv_ox_hysteresis_correction = yes
# datcnv_ox_tau_correction = yes
# filter_date = Sep 09 2024 17:11:32, 7.26.7.129
# filter_in = C:\R\Reservoirs\Data\DataNotYetUploadedToEDI\Raw_CTD\RawDownloads\090924_fcr10_S7809001.cnv
# filter_low_pass_tc_A = 0.030
# filter_low_pass_tc_B = 0.150
# filter_low_pass_A_vars = sbeox0Mg/L prdM prdE tv290C
# filter_low_pass_B_vars = depFM dz/dtM sbeox0PS specc c0uS/cm flECO-AFL ph orp par/sat/log turbWETntu0
# alignctd_date = Sep 09 2024 17:12:04, 7.26.7.129
# alignctd_in = C:\R\Reservoirs\Data\DataNotYetUploadedToEDI\Raw_CTD\RawDownloads\090924_fcr10_S7809001.cnv
# alignctd_adv = dz/dtM 1.000, sbeox0PS 1.000, specc 1.000, c0uS/cm 1.000, flECO-AFL 1.000, ph 1.000, orp 1.000, turbWETntu0 1.000                                                                                                   
# file_type = ascii
*END*
     -0.363      0.120     8.5206     94.731     43.071  39.279549     2.0895      6.566    57.1005 1.0347e+03     3.6817     -0.373     -0.541    19.0960 0.0000e+00
     -0.313      0.144     8.4924     95.339     42.860  39.213658     2.1097      6.601    59.7041 1.0044e+03     3.6329     -0.309     -0.449    19.5696 0.0000e+00
     -0.250      0.157     8.5044     95.827     42.716  39.145375     2.0962      6.632    62.1866 9.6508e+02     3.5770     -0.241     -0.351    20.0211 0.0000e+00
     -0.195      0.157     8.4856     96.228     42.623  39.088626     2.2088      6.661    64.8327 9.3689e+02     3.4838     -0.187     -0.271    20.3704 0.0000e+00
     -0.154      0.143     8.5051     96.533     42.555  39.035226     2.4395      6.683    68.2097 8.2755e+02     3.3933     -0.146     -0.211    20.6421 0.0000e+00
     -0.128      0.120     8.5437     96.713     42.526  39.007417     2.5543      6.694    72.0436 5.7507e+02     3.4065     -0.123     -0.179    20.7618 0.0000e+00
     -0.109      0.098     8.5705     96.788     42.526  39.006232     2.5558      6.700    75.5666 3.4492e+02     3.4038     -0.106     -0.154    20.8323 0.0000e+00
     -0.091      0.083     8.6051     96.830     42.541  39.020888     2.6330      6.707    78.2831 2.4332e+02     3.3605     -0.092     -0.132    20.8546 0.0000e+00
     -0.071      0.073     8.6312     96.867     42.580  39.057695     2.7972      6.714    80.7124 2.0587e+02     3.4631     -0.070     -0.101    20.8649 0.0000e+00
     -0.051      0.066     8.6490     96.966     42.595  39.070500     2.9018      6.720    83.5149 1.9383e+02     3.6206     -0.050     -0.072    20.8570 0.0000e+00
     -0.033      0.056     8.6520     97.381     42.569  39.048797     2.9152      6.725    86.6143 1.8751e+02     3.6600     -0.031     -0.045    20.8546 0.0000e+00
     -0.018      0.042     8.6550     97.906     42.561  39.049130     2.8756      6.728    89.4504 1.7760e+02     3.5625     -0.016     -0.022    20.8574 0.0000e+00
     -0.006      0.024     8.6589     97.288     42.580  39.074530     2.8064      6.729    92.7684 1.7472e+02     3.3993     -0.005     -0.007    20.8592 0.0000e+00
     -0.001      0.007     8.6576     94.625     42.605  39.102087     2.7864      6.725   105.2222 1.7970e+02     3.3263      0.001      0.002    20.8566 0.0000e+00
     -0.005     -0.004     8.6842     90.267     42.634  39.128480     2.8003      6.713   117.3355 1.8857e+02     3.3625     -0.001     -0.002    20.8575 0.0000e+00
     -0.015     -0.007     8.7901     85.040     42.644  39.139809     2.7080      6.696   112.1496 1.9638e+02     3.3930     -0.013     -0.020    20.8687 0.0000e+00
     -0.026     -0.002     8.7704     79.764     42.604  39.112147     2.5103      6.681   105.0711 1.9227e+02     3.3538     -0.029     -0.042    20.8812 0.0000e+00
     -0.031      0.010     8.5044     74.957     42.527  39.047876     2.3825      6.678   104.7967 1.8385e+02     3.2980     -0.035     -0.051    20.8862 0.0000e+00
     -0.026      0.023     8.0933     70.841     42.472  38.997318     2.3705      6.686   105.2191 1.8091e+02     3.3333     -0.028     -0.040    20.8828 0.0000e+00
     -0.011      0.034     7.5958     67.670     42.482  39.008533     2.4561      6.702   106.2197 1.6831e+02     3.3708     -0.013     -0.019    20.8818 0.0000e+00
      0.008      0.039     7.1059     65.644     42.527  39.056554     2.6016      6.721   107.2579 1.4955e+02     3.3418      0.009      0.013    20.8974 0.0000e+00
      0.023      0.037     6.6741     64.682     42.532  39.070264     2.6731      6.741   108.4796 1.4023e+02     3.3235      0.026      0.039    20.9109 0.0000e+00
      0.032      0.029     6.2967     64.441     42.499  39.047394     2.6631      6.760   109.8071 1.3770e+02     3.2873      0.032      0.048    20.9021 0.0000e+00
      0.035      0.019     6.0053     64.471     42.480  39.033890     2.6480      6.776   111.1762 1.3821e+02     3.2798      0.034      0.050    20.9019 0.0000e+00
      0.035      0.009     5.8262     64.443     42.478  39.033910     2.6314      6.790   112.6441 1.4092e+02     3.3338      0.034      0.050    20.9152 0.0000e+00
      0.035      0.003     5.7502     64.240     42.489  39.047643     2.6201      6.804   114.2199 1.4210e+02     3.3599      0.034      0.050    20.9272 0.0000e+00
      0.034      0.000     5.7443     63.908     42.514  39.073016     2.6196      6.817   115.7734 1.4168e+02     3.3574      0.033      0.048    20.9360 0.0000e+00
      0.034     -0.001     5.7571     63.560     42.529  39.086861     2.6094      6.827   117.2317 1.4119e+02     3.3365      0.033      0.048    20.9388 0.0000e+00
      0.034     -0.001     5.7572     63.275     42.530  39.088118     2.6219      6.839   118.6016 1.4045e+02     3.3472      0.034      0.049    20.9412 0.0000e+00
      0.034     -0.001     5.7370     63.063     42.530  39.088223     2.6614      6.852   119.8611 1.4041e+02     3.3494      0.033      0.048    20.9448 0.0000e+00
      0.033     -0.001     5.7019     62.904     42.530  39.088129     2.6875      6.865   120.9313 1.4156e+02     3.2945      0.032      0.047    20.9482 0.0000e+00
      0.033     -0.001     5.6688     62.874     42.528  39.086976     2.6963      6.878   121.9048 1.4224e+02     3.2977      0.032      0.047    20.9490 0.0000e+00
      0.033     -0.001     5.6428     63.098     42.512  39.074285     2.7015      6.893   122.8556 1.4187e+02     3.3549      0.032      0.047    20.9484 0.0000e+00
      0.033     -0.001     5.6265     63.595     42.496  39.061601     2.7250      6.908   123.7365 1.4181e+02     3.4059      0.033      0.048    20.9484 0.0000e+00
      0.032      0.000     5.6097     64.292     42.491  39.060541     2.7395      6.923   124.6406 1.4292e+02     3.3672      0.033      0.046    20.9486 0.0000e+00
      0.031      0.001     5.6002     65.092     42.490  39.061475     2.7273      6.936   125.5275 1.4422e+02     3.2633      0.031      0.044    20.9493 0.0000e+00
      0.031      0.002     5.6211     65.883     42.501  39.072900     2.6938      6.947   126.3710 1.4437e+02     3.2421      0.030      0.044    20.9516 0.0000e+00
      0.032      0.003     5.6669     66.532     42.499  39.071757     2.6503      6.959   127.1821 1.4381e+02     3.2814      0.031      0.045    20.9548 0.0000e+00
      0.034      0.003     5.7329     66.980     42.473  39.047650     2.6348      6.969   127.9363 1.4324e+02     3.3286      0.033      0.047    20.9582 0.0000e+00
      0.035      0.002     5.8058     67.234     42.458  39.035271     2.6305      6.976   128.7786 1.4272e+02     3.3349      0.035      0.050    20.9607 0.0000e+00
      0.037      0.001     5.8821     67.257     42.472  39.049002     2.6147      6.981   129.7944 1.4257e+02     3.2897      0.037      0.054    20.9626 0.0000e+00
      0.037     -0.001     5.9421     67.071     42.512  39.086756     2.6021      6.985   130.9259 1.4309e+02     3.2944      0.038      0.055    20.9635 0.0000e+00
      0.036     -0.002     5.9788     66.745     42.537  39.110986     2.6037      6.989   131.9629 1.4420e+02     3.3571      0.035      0.052    20.9634 0.0000e+00
      0.034     -0.002     6.0058     66.319     42.513  39.088127     2.6178      6.995   132.6962 1.4594e+02     3.3992      0.033      0.049    20.9640 0.0000e+00
      0.033     -0.001     6.0057     65.843     42.488  39.064210     2.6390      7.000   133.4247 1.4777e+02     3.3588      0.032      0.047    20.9654 0.0000e+00
      0.033      0.000     5.9859     65.394     42.502  39.075643     2.6600      7.005   134.4042 1.4812e+02     3.2791      0.031      0.045    20.9670 0.0000e+00
      0.034      0.002     5.9564     65.042     42.529  39.099446     2.6720      7.010   135.4198 1.4707e+02     3.2546      0.032      0.046    20.9682 0.0000e+00
      0.035      0.004     5.9172     64.832     42.530  39.098170     2.6836      7.014   136.3266 1.4607e+02     3.3027      0.034      0.049    20.9676 0.0000e+00
      0.036      0.004     5.8718     64.778     42.490  39.060206     2.6934      7.017   137.1085 1.4544e+02     3.3478      0.036      0.052    20.9657 0.0000e+00
      0.038      0.003     5.8298     64.820     42.449  39.021196     2.6988      7.020   137.9033 1.4478e+02     3.3222      0.038      0.055    20.9645 0.0000e+00
      0.039      0.002     5.7973     64.867     42.434  39.007255     2.7151      7.024   138.7953 1.4417e+02     3.3006      0.038      0.056    20.9630 0.0000e+00
      0.039      0.001     5.7774     64.840     42.446  39.018565     2.7319      7.030   139.6341 1.4459e+02     3.3597      0.039      0.056    20.9610 0.0000e+00
      0.038      0.000     5.7756     64.712     42.459  39.031028     2.7434      7.037   140.3878 1.4610e+02     3.4212      0.038      0.055    20.9588 0.0000e+00
      0.037     -0.001     5.7826     64.502     42.459  39.031027     2.7387      7.044   141.0256 1.4735e+02     3.3613      0.036      0.053    20.9573 0.0000e+00
      0.037     -0.002     5.7893     64.220     42.446  39.018543     2.6999      7.050   141.4945 1.4785e+02     3.2841      0.036      0.053    20.9574 0.0000e+00
      0.037     -0.002     5.7887     64.005     42.433  39.007003     2.6655      7.057   142.0996 1.4823e+02     3.3081      0.037      0.053    20.9581 0.0000e+00
      0.037     -0.001     5.7738     63.903     42.445  39.018427     2.6724      7.065   142.9217 1.4898e+02     3.3438      0.037      0.054    20.9585 0.0000e+00
      0.036      0.000     5.7588     63.721     42.459  39.029745     2.7079      7.073   143.6052 1.4948e+02     3.3745      0.036      0.052    20.9581 0.0000e+00
      0.036 -2.030e-08     5.7271     63.471     42.447  39.016930     2.7454      7.082   144.1685 1.4943e+02     3.3718      0.035      0.050    20.9574 0.0000e+00
      0.036 -2.234e-07     5.7007     63.271     42.423  38.990392     2.7511      7.090   144.8281 1.4948e+02     3.2772      0.035      0.051    20.9576 0.0000e+00
      0.036 -2.234e-07     5.7085     63.084     42.399  38.962709     2.7268      7.099   145.4714 1.4983e+02     3.2212      0.036      0.052    20.9584 0.0000e+00
      0.037 -2.046e-08     5.6866     62.842     42.378  38.936052     2.7348      7.106   146.0103 1.5031e+02     3.2755      0.036      0.053    20.9580 0.0000e+00
      0.037 -3.525e-09     5.6583     62.511     42.369  38.921920     2.7814      7.114   146.6110 1.5096e+02     3.3535      0.036      0.053    20.9554 0.0000e+00
      0.036 -1.863e-08     5.6456     62.083     42.374  38.918754     2.8074      7.122   147.2280 1.5173e+02     3.3435      0.035      0.051    20.9502 0.0000e+00
      0.035 -2.031e-07     5.6310     61.592     42.359  38.897758     2.8069      7.129   147.7062 1.5191e+02     3.2577      0.034      0.050    20.9426 0.0000e+00
      0.035      0.000     5.6120     61.096     42.325  38.858419     2.8339      7.134   148.0902 1.5138e+02     3.2720      0.035      0.050    20.9343 0.0000e+00
      0.036     -0.000     5.5830     60.606     42.297  38.823867     2.8928      7.136   148.6017 1.5129e+02     3.3802      0.036      0.052    20.9269 0.0000e+00
      0.036     -0.000     5.5454     60.120     42.279  38.797273     2.9200      7.133   149.5888 1.5207e+02     3.4047      0.035      0.051    20.9189 0.0000e+00
      0.036     -0.003     5.4987     59.631     42.284  38.790695     2.9211      7.120   150.7333 1.5294e+02     3.3288      0.035      0.051    20.9094 0.0000e+00
      0.036     -0.013     5.4568     59.138     42.321  38.807779     2.9232      7.097   151.6847 1.5411e+02     3.2481      0.035      0.051    20.9002 0.0000e+00
      0.036     -0.030     5.4133     58.670     42.364  38.813442     2.9033      7.072   153.0039 1.5735e+02     3.2490      0.034      0.049    20.8901 0.0000e+00
      0.035     -0.048     5.3718     58.353     42.399  38.795660     2.8730      7.046   154.4669 1.6747e+02     3.3393      0.037      0.052    20.8781 0.0000e+00
      0.025     -0.063     5.3296     58.333     42.434  38.783089     2.8562      7.023   155.1771 2.0525e+02     3.3842      0.034      0.050    20.8639 0.0000e+00
     -0.005     -0.073     5.2864     58.570     42.476  38.788305     2.8500      7.010   155.2240 3.8875e+02     3.3473     -0.001     -0.001    20.8534 0.0000e+00
     -0.042     -0.078     5.2450     58.902     42.509  38.795217     2.7559      7.010   155.2056 6.8135e+02     3.3036     -0.050     -0.073    20.8144 0.0000e+00
     -0.066     -0.076     5.2160     59.244     42.537  38.803176     2.5670      7.015   155.3847 8.2890e+02     3.3336     -0.069     -0.100    20.7405 0.0000e+00
     -0.079     -0.063     5.2223     59.542     42.575  38.821050     2.4647      7.022   155.6686 8.3392e+02     3.4367     -0.076     -0.110    20.6872 0.0000e+00
     -0.091     -0.043     5.2550     59.702     42.594  38.820928     2.4589      7.029   155.8847 8.2849e+02     3.4234     -0.090     -0.131    20.6514 0.0000e+00
     -0.102     -0.023     5.2892     59.656     42.592  38.801673     2.4891      7.037   156.1055 8.2702e+02     3.3086     -0.102     -0.149    20.6225 0.0000e+00
     -0.107     -0.007     5.3220     59.351     42.583  38.778593     2.5549      7.045   157.2197 8.2756e+02     3.2785     -0.108     -0.156    20.6058 0.0000e+00
     -0.105      0.005     5.3555     58.811     42.544  38.732234     2.6051      7.051   158.7733 8.2728e+02     3.3333     -0.104     -0.150    20.5879 0.0000e+00
     -0.098      0.017     5.3734     58.161     42.501  38.685345     2.6296      7.056   159.4025 8.3014e+02     3.4239     -0.096     -0.138    20.5651 0.0000e+00
     -0.090      0.027     5.3734     57.457     42.473  38.655865     2.6434      7.060   160.9557 8.3664e+02     3.4523     -0.087     -0.127    20.5435 0.0000e+00
     -0.084      0.037     5.3491     56.742     42.446  38.629628     2.6473      7.060   163.0978 8.3850e+02     3.3684     -0.083     -0.119    20.5278 0.0000e+00
     -0.075      0.048     5.2939     56.097     42.433  38.621946     2.6514      7.058   163.0189 7.9730e+02     3.2987     -0.074     -0.107    20.5140 0.0000e+00
     -0.064      0.058     5.2366     55.542     42.425  38.626443     2.6765      7.057   162.2393 6.2865e+02     3.3272     -0.064     -0.093    20.5050 0.0000e+00
     -0.049      0.067     5.1738     55.132     42.402  38.620561     2.7425      7.057   162.1030 3.8103e+02     3.4048     -0.051     -0.072    20.5004 0.0000e+00
     -0.027      0.071     5.1032     54.897     42.383  38.614307     2.8171      7.061   161.8010 2.2678e+02     3.4172     -0.028     -0.041    20.4987 0.0000e+00
     -0.001      0.071     5.0487     54.795     42.374  38.614306     2.8464      7.067   161.4268 1.7927e+02     3.3745     -0.001     -0.002    20.4995 0.0000e+00
      0.023      0.067     4.9926     54.808     42.373  38.620547     2.8468      7.074   161.2784 1.5961e+02     3.3321      0.027      0.039    20.5158 0.0000e+00
      0.039      0.060     4.9523     54.919     42.376  38.626321     2.9053      7.082   161.3839 1.4786e+02     3.3151      0.042      0.061    20.5407 0.0000e+00
      0.047      0.053     4.9333     55.046     42.372  38.620671     3.0291      7.087   161.7564 1.4447e+02     3.3733      0.046      0.065    20.5487 0.0000e+00
      0.055      0.048     4.9231     55.115     42.374  38.615689     3.0946      7.089   162.2539 1.4338e+02     3.3866      0.053      0.076    20.5581 0.0000e+00
      0.066      0.046     4.9231     55.134     42.400  38.629536     3.0818      7.093   162.6667 1.3978e+02     3.3055      0.066      0.094    20.5698 0.0000e+00
      0.078      0.047     4.9355     55.080     42.447  38.661162     3.0659      7.098   162.8761 1.3696e+02     3.2474      0.077      0.110    20.5725 0.0000e+00
      0.091      0.047     4.9518     54.919     42.483  38.680764     3.0611      7.106   162.9796 1.3395e+02     3.2644      0.087      0.126    20.5707 0.0000e+00
      0.107      0.042     4.9556     54.691     42.497  38.676152     3.0569      7.116   163.1431 1.2869e+02     3.3401      0.104      0.152    20.5612 0.0000e+00
      0.122      0.035     4.9604     54.456     42.511  38.668826     3.0480      7.125   163.3897 1.2422e+02     3.3430      0.122      0.177    20.5490 0.0000e+00
      0.131      0.027     4.9587     54.216     42.517  38.655618     3.0366      7.133   163.8111 1.2293e+02     3.2651      0.131      0.191    20.5370 0.0000e+00
      0.133      0.020     4.9438     53.972     42.523  38.643345     3.0355      7.140   164.3657 1.2364e+02     3.2865      0.132      0.191    20.5210 0.0000e+00
      0.133      0.014     4.9223     53.756     42.548  38.647330     3.0438      7.144   165.1057 1.2567e+02     3.3967      0.129      0.187    20.5001 0.0000e+00
      0.133      0.013     4.9043     53.538     42.559  38.640315     3.0457      7.144   166.1329 1.2783e+02     3.4359      0.129      0.187    20.4764 0.0000e+00
      0.135      0.016     4.8858     53.267     42.554  38.621966     3.0416      7.141   167.1496 1.2950e+02     3.3858      0.133      0.191    20.4540 0.0000e+00
      0.140      0.023     4.8628     52.982     42.557  38.615830     3.0850      7.137   167.8481 1.3108e+02     3.3370      0.136      0.199    20.4326 0.0000e+00
      0.146      0.029     4.8468     52.698     42.579  38.629570     3.1883      7.136   168.2121 1.3262e+02     3.3577      0.142      0.206    20.4106 0.0000e+00
      0.155      0.032     4.8332     52.363     42.620  38.661175     3.2588      7.138   168.4523 1.3464e+02     3.3975      0.151      0.219    20.3904 0.0000e+00
      0.167      0.031     4.8068     52.021     42.652  38.680660     3.2706      7.143   168.6874 1.3682e+02     3.3741      0.164      0.238    20.3734 0.0000e+00
      0.180      0.026     4.7804     51.740     42.662  38.674768     3.2485      7.152   168.9049 1.3834e+02     3.3133      0.178      0.258    20.3632 0.0000e+00
      0.188      0.020     4.7606     51.533     42.658  38.653383     3.2077      7.160   169.2745 1.3965e+02     3.3122      0.188      0.273    20.3579 0.0000e+00
      0.190      0.014     4.7272     51.384     42.633  38.612440     3.1937      7.163   169.9720 1.4087e+02     3.3941      0.188      0.274    20.3526 0.0000e+00
      0.189      0.012     4.6945     51.249     42.593  38.560462     3.2037      7.163   170.8856 1.4061e+02     3.3817      0.185      0.267    20.3415 0.0000e+00
      0.187      0.016     4.6716     51.094     42.568  38.532568     3.1961      7.162   171.6314 1.3895e+02     3.2646      0.183      0.265    20.3242 0.0000e+00
      0.187      0.026     4.6542     50.908     42.561  38.529003     3.1681      7.161   172.1062 1.3680e+02     3.2425      0.181      0.261    20.3033 0.0000e+00
      0.193      0.039     4.6458     50.710     42.541  38.517353     3.1393      7.161   172.5826 1.3296e+02     3.3194      0.184      0.268    20.2777 0.0000e+00
      0.208      0.051     4.6359     50.505     42.540  38.518640     3.1309      7.164   173.0894 1.2807e+02     3.4086      0.202      0.292    20.2567 0.0000e+00
      0.229      0.057     4.6234     50.270     42.573  38.544575     3.1578      7.168   173.4158 1.2484e+02     3.4322      0.224      0.324    20.2511 0.0000e+00
      0.250      0.057     4.6048     50.011     42.613  38.577082     3.2732      7.173   173.6031 1.2356e+02     3.4341      0.247      0.358    20.2561 0.0000e+00
      0.268      0.049     4.5853     49.768     42.635  38.594382     3.4531      7.179   173.8053 1.2294e+02     3.5006      0.265      0.384    20.2676 0.0000e+00
      0.280      0.039     4.5680     49.586     42.613  38.563365     3.5436      7.186   174.1400 1.2203e+02     3.5527      0.275      0.399    20.2736 0.0000e+00
      0.287      0.029     4.5472     49.499     42.584  38.519342     3.5515      7.192   174.7248 1.2202e+02     3.5853      0.284      0.410    20.2631 0.0000e+00
      0.287      0.024     4.5229     49.482     42.584  38.506290     3.5317      7.197   175.2840 1.2438e+02     3.5877      0.284      0.411    20.2558 0.0000e+00
      0.285      0.021     4.4993     49.478     42.619  38.532450     3.4790      7.203   175.6522 1.2732e+02     3.5481      0.277      0.401    20.2605 0.0000e+00
      0.289      0.020     4.4821     49.468     42.679  38.581795     3.4460      7.209   175.9934 1.2921e+02     3.5503      0.279      0.405    20.2497 0.0000e+00
      0.301      0.019     4.4775     49.448     42.698  38.595244     3.4331      7.216   176.3119 1.3048e+02     3.5795      0.295      0.428    20.2190 0.0000e+00
      0.313      0.019     4.4810     49.425     42.671  38.568144     3.4141      7.223   176.5779 1.3160e+02     3.5600      0.310      0.449    20.2031 0.0000e+00
      0.318      0.020     4.4800     49.402     42.606  38.507956     3.3914      7.226   177.3169 1.3327e+02     3.4518      0.314      0.456    20.2003 0.0000e+00
      0.317      0.022     4.4806     49.389     42.532  38.438644     3.3666      7.223   178.7089 1.3482e+02     3.3301      0.311      0.452    20.1933 0.0000e+00
      0.316      0.027     4.4783     49.397     42.524  38.428132     3.3556      7.218   179.8992 1.3555e+02     3.2839      0.309      0.448    20.1886 0.0000e+00
      0.319      0.037     4.4766     49.422     42.544  38.444314     3.3675      7.215   180.6961 1.3722e+02     3.3717      0.310      0.450    20.1883 0.0000e+00
      0.329      0.049     4.4745     49.482     42.537  38.443916     3.3849      7.214   181.3749 1.4003e+02     3.5374      0.318      0.461    20.1857 0.0000e+00
      0.349      0.062     4.4724     49.568     42.500  38.423335     3.3916      7.212   181.9978 1.4323e+02     3.5788      0.342      0.496    20.1836 0.0000e+00
      0.372      0.072     4.4750     49.647     42.442  38.385857     3.3900      7.211   182.8069 1.4743e+02     3.5309      0.367      0.532    20.1802 0.0000e+00
      0.393      0.079     4.4758     49.697     42.408  38.371537     3.4910      7.209   183.7581 1.5117e+02     3.5391      0.385      0.559    20.1726 0.0000e+00
      0.413      0.081     4.4815     49.703     42.394  38.377132     3.7053      7.209   184.4643 1.5286e+02     3.5755      0.405      0.587    20.1805 0.0000e+00
      0.433      0.080     4.4889     49.684     42.385  38.390073     3.8332      7.209   184.8066 1.5265e+02     3.6299      0.424      0.615    20.1996 0.0000e+00
      0.453      0.079     4.4949     49.690     42.373  38.401119     3.8557      7.211   185.0582 1.4970e+02     3.6495      0.443      0.644    20.2162 0.0000e+00
      0.473      0.078     4.4986     49.753     42.336  38.383799     3.8528      7.216   185.4414 1.4383e+02     3.5737      0.463      0.672    20.2351 0.0000e+00
      0.494      0.077     4.4968     49.868     42.311  38.371054     3.8475      7.222   185.9117 1.3729e+02     3.4991      0.485      0.703    20.2563 0.0000e+00
      0.515      0.076     4.4906     50.043     42.305  38.373957     3.8674      7.227   186.2709 1.3145e+02     3.4990      0.506      0.734    20.2820 0.0000e+00
      0.533      0.073     4.4873     50.290     42.279  38.355444     3.8939      7.232   186.5151 1.2615e+02     3.5726      0.524      0.760    20.3110 0.0000e+00
      0.551      0.070     4.4922     50.595     42.255  38.337602     3.9174      7.237   186.7128 1.2164e+02     3.6035      0.540      0.783    20.3306 0.0000e+00
      0.569      0.067     4.5016     50.921     42.263  38.348609     3.9181      7.241   186.9402 1.1782e+02     3.5306      0.558      0.809    20.3384 0.0000e+00
      0.586      0.064     4.5152     51.213     42.276  38.361611     3.9031      7.246   187.1997 1.1393e+02     3.5115      0.574      0.832    20.3489 0.0000e+00
      0.602      0.062     4.5379     51.428     42.282  38.367899     3.9019      7.251   187.3557 1.1027e+02     3.5779      0.590      0.856    20.3568 0.0000e+00
      0.618      0.059     4.5662     51.566     42.275  38.361176     3.9035      7.257   187.5351 1.0775e+02     3.6152      0.608      0.882    20.3592 0.0000e+00
      0.632      0.056     4.5966     51.617     42.257  38.343779     3.9060      7.262   187.8207 1.0655e+02     3.5871      0.620      0.899    20.3656 0.0000e+00
      0.646      0.054     4.6257     51.592     42.263  38.347933     3.8985      7.266   188.2274 1.0620e+02     3.5449      0.633      0.918    20.3667 0.0000e+00
      0.659      0.052     4.6433     51.522     42.260  38.347933     3.8875      7.269   188.5808 1.0589e+02     3.5496      0.646      0.938    20.3654 0.0000e+00
      0.671      0.049     4.6569     51.408     42.251  38.343779     3.8898      7.272   188.7384 1.0530e+02     3.6096      0.657      0.953    20.3680 0.0000e+00
      0.683      0.047     4.6617     51.263     42.271  38.361177     3.9099      7.276   189.0148 1.0515e+02     3.6559      0.669      0.971    20.3645 0.0000e+00
      0.696      0.044     4.6573     51.098     42.281  38.367916     3.9394      7.281   189.3403 1.0599e+02     3.5968      0.684      0.991    20.3606 0.0000e+00
      0.708      0.040     4.6520     50.897     42.279  38.361796     3.9468      7.285   189.4917 1.0746e+02     3.5093      0.696      1.009    20.3662 0.0000e+00
      0.717      0.037     4.6398     50.654     42.270  38.350630     3.9494      7.289   189.7264 1.0961e+02     3.5207      0.704      1.021    20.3727 0.0000e+00
      0.726      0.034     4.6263     50.379     42.283  38.359816     3.9704      7.293   190.1139 1.1217e+02     3.5627      0.712      1.032    20.3718 0.0000e+00
      0.733      0.030     4.6130     50.062     42.343  38.409410     3.9852      7.295   190.3902 1.1467e+02     3.5744      0.719      1.042    20.3672 0.0000e+00
      0.739      0.027     4.5956     49.717     42.388  38.442594     3.9706      7.298   190.5724 1.1743e+02     3.5595      0.725      1.052    20.3625 0.0000e+00
      0.747      0.024     4.5728     49.377     42.403  38.443734     3.9431      7.303   190.7683 1.2086e+02     3.4849      0.732      1.062    20.3589 0.0000e+00
      0.754      0.022     4.5494     49.037     42.398  38.423180     3.9361      7.307   190.8658 1.2546e+02     3.4591      0.740      1.073    20.3557 0.0000e+00
      0.759      0.022     4.5208     48.709     42.373  38.384436     3.9525      7.309   190.9764 1.3232e+02     3.4862      0.745      1.082    20.3516 0.0000e+00
      0.762      0.023     4.4881     48.417     42.358  38.356007     3.9744      7.312   191.2450 1.4223e+02     3.4358      0.747      1.084    20.3442 0.0000e+00
      0.766      0.025     4.4603     48.164     42.344  38.333259     3.9766      7.313   191.6187 1.5352e+02     3.3628      0.750      1.088    20.3285 0.0000e+00
      0.773      0.029     4.4304     47.940     42.313  38.299757     3.9538      7.313   192.0529 1.6237e+02     3.3203      0.756      1.097    20.3076 0.0000e+00
      0.782      0.034     4.4018     47.783     42.278  38.268212     3.9731      7.315   192.3649 1.6851e+02     3.3322      0.767      1.112    20.2868 0.0000e+00
      0.792      0.040     4.3764     47.683     42.275  38.269146     4.0436      7.317   192.6388 1.7379e+02     3.4049      0.777      1.126    20.2693 0.0000e+00
      0.802      0.045     4.3562     47.574     42.314  38.311047     4.0821      7.318   192.8689 1.7650e+02     3.4481      0.785      1.140    20.2572 0.0000e+00
      0.814      0.049     4.3344     47.502     42.327  38.330635     4.0812      7.321   192.9962 1.7710e+02     3.4097      0.798      1.157    20.2504 0.0000e+00
      0.827      0.050     4.3185     47.501     42.306  38.315625     4.0403      7.324   193.2309 1.7685e+02     3.3851      0.811      1.176    20.2512 0.0000e+00
      0.842      0.049     4.3160     47.526     42.311  38.319937     3.9797      7.326   193.4699 1.7498e+02     3.4576      0.826      1.198    20.2558 0.0000e+00
      0.857      0.047     4.3001     47.546     42.315  38.319322     3.9641      7.328   193.6493 1.7202e+02     3.5687      0.840      1.219    20.2650 0.0000e+00
      0.871      0.043     4.2916     47.516     42.306  38.308184     3.9672      7.330   193.8509 1.6805e+02     3.6021      0.854      1.239    20.2754 0.0000e+00
      0.881      0.041     4.2944     47.411     42.313  38.312176     3.9680      7.330   194.1865 1.6416e+02     3.4856      0.866      1.256    20.2806 0.0000e+00
      0.887      0.040     4.2961     47.257     42.306  38.304130     3.9820      7.329   194.6961 1.6008e+02     3.3554      0.870      1.262    20.2803 0.0000e+00
      0.893      0.042     4.3010     47.093     42.271  38.274348     3.9958      7.328   195.1084 1.5298e+02     3.3603      0.873      1.267    20.2744 0.0000e+00
      0.902      0.045     4.2990     46.925     42.260  38.269378     4.0096      7.328   195.2137 1.4510e+02     3.4420      0.884      1.281    20.2701 0.0000e+00
      0.915      0.046     4.2894     46.778     42.296  38.307503     4.0570      7.330   195.1946 1.3998e+02     3.4208      0.896      1.300    20.2674 0.0000e+00
      0.932      0.046     4.2728     46.665     42.343  38.354574     4.1275      7.333   195.3077 1.3788e+02     3.3088      0.913      1.324    20.2647 0.0000e+00
      0.949      0.045     4.2597     46.557     42.522  38.521220     4.1630      7.336   195.5484 1.3964e+02     3.2825      0.932      1.351    20.2649 0.0000e+00
      0.962      0.043     4.2423     46.589     42.865  38.862854     4.1790      7.336   195.7817 1.4368e+02     3.3080      0.946      1.373    20.2733 0.0000e+00
      0.967      0.042     4.2267     47.377     43.052  39.121943     4.1870      7.337   195.9774 1.4778e+02     3.3106      0.950      1.377    20.2816 0.0000e+00
      0.970      0.042     4.2195     50.008     42.974  39.179055     4.1765      7.337   196.2804 1.5101e+02     3.3479      0.948      1.375    20.2859 0.0000e+00
      0.978      0.046     4.2076     55.028     42.844  39.172807     4.1767      7.335   196.6924 1.5116e+02     3.4522      0.956      1.388    20.2848 0.0000e+00
      0.993      0.052     4.1934     61.488     42.766  39.173479     4.1811      7.335   197.0006 1.4965e+02     3.5122      0.974      1.413    20.2947 0.0000e+00
      1.010      0.057     4.2121     67.827     42.738  39.187277     4.1803      7.336   197.1676 1.4873e+02     3.5269      0.989      1.435    20.4083 0.0000e+00
      1.027      0.060     4.4018     73.209     42.744  39.212758     4.1414      7.338   197.2492 1.4717e+02     3.5951      1.007      1.461    20.5953 0.0000e+00
      1.046      0.057     4.8807     77.380     42.749  39.227755     4.0529      7.342   197.2991 1.4517e+02     3.6196      1.027      1.490    20.7301 0.0000e+00
      1.063      0.050     5.5161     80.164     42.759  39.241695     3.9999      7.346   197.4264 1.4364e+02     3.5842      1.043      1.513    20.8068 0.0000e+00
      1.074      0.042     6.0970     81.479     42.772  39.254387     4.0008      7.349   197.5835 1.4245e+02     3.5770      1.056      1.531    20.8487 0.0000e+00
      1.082      0.035     6.5785     81.425     42.770  39.254292     4.0132      7.353   197.7361 1.4169e+02     3.5675      1.061      1.540    20.8682 0.0000e+00
      1.087      0.030     6.9578     80.378     42.753  39.240552     4.0254      7.356   198.0669 1.4071e+02     3.5715      1.066      1.546    20.8794 0.0000e+00
      1.092      0.028     7.2083     78.985     42.723  39.215178     4.0237      7.356   198.5717 1.3989e+02     3.5561      1.071      1.554    20.8832 0.0000e+00
      1.097      0.028     7.3230     77.750     42.707  39.201342     4.0091      7.352   199.1074 1.3899e+02     3.4846      1.075      1.560    20.8830 0.0000e+00
      1.104      0.031     7.3088     76.771     42.705  39.200188     4.0241      7.347   199.7257 1.3662e+02     3.4584      1.083      1.571    20.8845 0.0000e+00
      1.113      0.036     7.1894     76.006     42.705  39.201218     4.0874      7.342   200.2832 1.3374e+02     3.5129      1.092      1.584    20.8876 0.0000e+00
      1.122      0.042     7.0458     75.413     42.718  39.213804     4.1427      7.338   200.5135 1.3055e+02     3.5966      1.099      1.595    20.8890 0.0000e+00
      1.134      0.047     6.9376     74.960     42.730  39.225447     4.1512      7.337   200.5319 1.2660e+02     3.6169      1.112      1.612    20.8907 0.0000e+00
      1.147      0.050     6.8506     74.615     42.718  39.215062     4.1320      7.338   200.5048 1.2330e+02     3.5876      1.125      1.631    20.8926 0.0000e+00
      1.162      0.052     6.7838     74.354     42.718  39.215166     4.1180      7.340   200.5299 1.2130e+02     3.5840      1.140      1.653    20.8932 0.0000e+00
      1.177      0.054     6.7318     74.169     42.731  39.226705     4.1239      7.341   200.7495 1.2035e+02     3.5732      1.154      1.675    20.8935 0.0000e+00
      1.191      0.056     6.6917     74.029     42.733  39.227660     4.1366      7.341   201.0093 1.1958e+02     3.5592      1.168      1.695    20.8944 0.0000e+00
      1.203      0.057     6.6627     73.929     42.732  39.226715     4.1389      7.342   201.1761 1.1868e+02     3.5508      1.181      1.714    20.8949 0.0000e+00
      1.215      0.055     6.6381     73.905     42.720  39.215280     4.1017      7.343   201.2174 1.1727e+02     3.5068      1.190      1.725    20.8948 0.0000e+00
      1.232      0.051     6.6236     73.938     42.721  39.216320     4.0442      7.347   201.1649 1.1447e+02     3.4366      1.207      1.750    20.8938 0.0000e+00
      1.252      0.046     6.6121     73.978     42.746  39.239283     4.0270      7.353   201.2297 1.1231e+02     3.4195      1.231      1.786    20.8933 0.0000e+00
      1.265      0.040     6.6000     74.018     42.746  39.239074     4.0355      7.358   201.3132 1.1146e+02     3.4707      1.243      1.803    20.8932 0.0000e+00
      1.270      0.033     6.5992     74.057     42.720  39.213794     4.0305      7.363   201.3137 1.0989e+02     3.4752      1.245      1.806    20.8930 0.0000e+00
      1.275      0.027     6.6050     74.069     42.693  39.187464     4.0155      7.367   201.4074 1.0779e+02     3.4053      1.250      1.813    20.8931 0.0000e+00
      1.279      0.026     6.6078     74.043     42.681  39.174565     4.0124      7.369   201.8438 1.0570e+02     3.3763      1.256      1.822    20.8929 0.0000e+00
      1.283      0.035     6.6114     74.012     42.695  39.184750     4.0348      7.364   202.5458 1.0321e+02     3.3988      1.257      1.824    20.8926 0.0000e+00
      1.288      0.051     6.6160     74.001     42.696  39.183691     4.1117      7.358   203.0130 1.0081e+02     3.4377      1.261      1.829    20.8913 0.0000e+00
      1.298      0.068     6.6184     73.973     42.677  39.161750     4.2102      7.354   203.1902 9.7862e+01     3.4711      1.270      1.842    20.8893 0.0000e+00
      1.318      0.082     6.6147     73.913     42.695  39.173297     4.2430      7.352   203.3981 9.3306e+01     3.4954      1.287      1.867    20.8871 0.0000e+00
      1.351      0.091     6.6102     73.856     42.725  39.196374     4.2419      7.351   203.5473 8.8039e+01     3.5613      1.324      1.918    20.8850 0.0000e+00
      1.386      0.091     6.6124     73.808     42.718  39.186925     4.2057      7.353   203.5309 8.3313e+01     3.5494      1.363      1.976    20.8828 0.0000e+00
      1.415      0.085     6.6112     73.772     42.718  39.185971     4.1050      7.356   203.5439 7.9640e+01     3.4208      1.390      2.016    20.8776 0.0000e+00
      1.435      0.074     6.6042     73.746     42.718  39.184835     4.0313      7.360   203.6194 7.7463e+01     3.3385      1.410      2.045    20.8704 0.0000e+00
      1.445      0.060     6.6004     73.722     42.707  39.173194     4.0139      7.364   203.6688 7.6155e+01     3.3392      1.418      2.057    20.8651 0.0000e+00
      1.452      0.050     6.5965     73.709     42.707  39.172136     4.0272      7.369   203.7112 7.4597e+01     3.3947      1.422      2.062    20.8622 0.0000e+00
      1.462      0.045     6.5929     73.715     42.708  39.172039     4.0594      7.374   203.7884 7.2978e+01     3.4293      1.434      2.080    20.8609 0.0000e+00
      1.474      0.042     6.5919     73.730     42.708  39.172022     4.0786      7.379   203.7411 7.1548e+01     3.3828      1.446      2.098    20.8599 0.0000e+00
      1.487      0.040     6.5890     73.725     42.708  39.171927     4.0770      7.382   203.6564 7.0010e+01     3.3434      1.457      2.114    20.8583 0.0000e+00
      1.500      0.038     6.5880     73.711     42.707  39.170888     4.0725      7.386   203.7961 6.8663e+01     3.3299      1.472      2.135    20.8567 0.0000e+00
      1.510      0.038     6.5883     73.731     42.694  39.159453     4.0822      7.388   204.0538 6.7716e+01     3.3217      1.484      2.151    20.8557 0.0000e+00
      1.515      0.039     6.5918     73.775     42.695  39.160597     4.0868      7.391   204.2773 6.6746e+01     3.3131      1.486      2.156    20.8546 0.0000e+00
      1.520      0.042     6.5912     73.823     42.722  39.184723     4.0858      7.394   204.4338 6.5369e+01     3.2935      1.487      2.158    20.8543 0.0000e+00
      1.530      0.047     6.5867     73.870     42.736  39.197310     4.0951      7.396   204.6550 6.3514e+01     3.2903      1.498      2.173    20.8552 0.0000e+00
      1.545      0.053     6.5902     73.906     42.724  39.185868     4.1661      7.396   204.9727 6.1450e+01     3.3079      1.515      2.198    20.8555 0.0000e+00
      1.561      0.061     6.5950     73.944     42.709  39.173298     4.3035      7.394   205.2646 5.9437e+01     3.3704      1.531      2.221    20.8554 0.0000e+00
      1.579      0.067     6.5985     73.975     42.708  39.172250     4.3744      7.392   205.5166 5.7684e+01     3.3967      1.548      2.245    20.8548 0.0000e+00
      1.598      0.069     6.6040     73.949     42.709  39.173195     4.3748      7.391   205.7830 5.6229e+01     3.3521      1.567      2.273    20.8544 0.0000e+00
      1.616      0.069     6.6062     73.884     42.722  39.184734     4.3997      7.391   206.0765 5.4889e+01     3.3433      1.585      2.298    20.8547 0.0000e+00
      1.634      0.067     6.6090     73.845     42.724  39.184838     4.4425      7.392   206.3113 5.3636e+01     3.3592      1.601      2.323    20.8549 0.0000e+00
      1.652      0.062     6.6154     73.840     42.714  39.174453     4.4677      7.394   206.3856 5.2377e+01     3.3732      1.619      2.350    20.8554 0.0000e+00
      1.669      0.055     6.6117     73.821     42.728  39.186086     4.4713      7.396   206.2856 5.1062e+01     3.3764      1.637      2.375    20.8559 0.0000e+00
      1.684      0.046     6.6029     73.787     42.743  39.198569     4.4276      7.397   206.3080 5.0022e+01     3.3304      1.654      2.398    20.8553 0.0000e+00
      1.694      0.039     6.5995     73.772     42.743  39.198455     4.3479      7.398   206.5695 4.9446e+01     3.2603      1.663      2.411    20.8533 0.0000e+00
      1.700      0.034     6.6020     73.774     42.729  39.184715     4.3064      7.399   206.7798 4.9138e+01     3.2793      1.668      2.419    20.8512 0.0000e+00
      1.704      0.033     6.6004     73.776     42.704  39.159350     4.3084      7.401   206.9587 4.8921e+01     3.3894      1.672      2.425    20.8496 0.0000e+00
      1.709      0.037     6.5951     73.770     42.691  39.145608     4.2807      7.401   207.1829 4.8689e+01     3.4643      1.675      2.429    20.8488 0.0000e+00
      1.717      0.047     6.5949     73.738     42.691  39.145484     4.2122      7.401   207.3397 4.8303e+01     3.5017      1.682      2.439    20.8483 0.0000e+00
      1.730      0.058     6.5959     73.686     42.705  39.157853     4.1718      7.402   207.4787 4.7732e+01     3.5345      1.695      2.459    20.8470 0.0000e+00
      1.748      0.067     6.5959     73.656     42.718  39.168237     4.1745      7.404   207.5732 4.7035e+01     3.5544      1.714      2.484    20.8449 0.0000e+00
      1.770      0.072     6.5968     73.645     42.694  39.144111     4.2947      7.407   207.5356 4.6294e+01     3.5365      1.736      2.517    20.8431 0.0000e+00
      1.795      0.071     6.5942     73.611     42.671  39.119986     4.5014      7.409   207.5404 4.5561e+01     3.4206      1.760      2.553    20.8422 0.0000e+00
      1.817      0.066     6.5872     73.553     42.686  39.130381     4.5933      7.412   207.7175 4.4960e+01     3.2809      1.784      2.588    20.8420 0.0000e+00
      1.833      0.057     6.5846     73.499     42.702  39.142864     4.5984      7.414   207.9559 4.4678e+01     3.2474      1.801      2.612    20.8413 0.0000e+00
      1.843      0.047     6.5866     73.436     42.705  39.143999     4.6132      7.415   208.0997 4.4563e+01     3.2894      1.808      2.622    20.8386 0.0000e+00
      1.851      0.038     6.5839     73.361     42.707  39.144102     4.6142      7.416   208.1656 4.4403e+01     3.4119      1.814      2.631    20.8344 0.0000e+00
      1.859      0.031     6.5771     73.287     42.709  39.144112     4.5940      7.417   208.2368 4.4293e+01     3.5337      1.823      2.643    20.8305 0.0000e+00
      1.866      0.027     6.5743     73.228     42.711  39.144114     4.5767      7.420   208.2716 4.4288e+01     3.4987      1.830      2.654    20.8269 0.0000e+00
      1.873      0.027     6.5689     73.198     42.712  39.144114     4.5625      7.424   208.3283 4.4347e+01     3.4327      1.838      2.664    20.8244 0.0000e+00
      1.878      0.028     6.5615     73.183     42.712  39.144113     4.5306      7.428   208.4071 4.4456e+01     3.4187      1.841      2.671    20.8233 0.0000e+00
      1.883      0.029     6.5551     73.163     42.712  39.144104     4.4994      7.431   208.4498 4.4490e+01     3.3976      1.844      2.676    20.8216 0.0000e+00
      1.890      0.031     6.5489     73.137     42.713  39.144009     4.4852      7.434   208.4996 4.4331e+01     3.3486      1.851      2.686    20.8191 0.0000e+00
      1.900      0.034     6.5472     73.103     42.714  39.142958     4.4666      7.437   208.5795 4.4131e+01     3.2700      1.864      2.702    20.8179 0.0000e+00
      1.911      0.037     6.5471     73.073     42.704  39.131403     4.4323      7.439   208.7276 4.4011e+01     3.2671      1.875      2.720    20.8183 0.0000e+00
      1.920      0.040     6.5444     73.034     42.706  39.131204     4.4039      7.441   208.9134 4.3846e+01     3.3481      1.883      2.732    20.8186 0.0000e+00
      1.930      0.044     6.5433     72.976     42.717  39.140549     4.3980      7.441   209.1044 4.3524e+01     3.3952      1.891      2.744    20.8173 0.0000e+00
      1.940      0.048     6.5391     72.949     42.695  39.117473     4.3935      7.440   209.3169 4.3018e+01     3.3925      1.902      2.758    20.8149 0.0000e+00
      1.952      0.049     6.5372     72.952     42.689  39.106031     4.3840      7.440   209.4174 4.2275e+01     3.4519      1.913      2.774    20.8117 0.0000e+00
      1.967      0.046     6.5365     72.939     42.720  39.129116     4.3992      7.441   209.4589 4.1268e+01     3.6688      1.927      2.795    20.8094 0.0000e+00
      1.983      0.040     6.5267     72.889     42.739  39.142745     4.4354      7.442   209.6473 4.0183e+01     3.8637      1.945      2.822    20.8095 0.0000e+00
      1.997      0.033     6.5259     72.829     42.741  39.143891     4.4554      7.442   209.8013 3.9425e+01     3.8952      1.962      2.845    20.8061 0.0000e+00
      2.004      0.027     6.5292     72.796     42.740  39.142973     4.4665      7.442   209.8584 3.9298e+01     3.7760      1.969      2.855    20.7984 0.0000e+00
      2.002      0.025     6.5294     72.770     42.725  39.131653     4.4856      7.443   209.9943 3.9572e+01     3.5843      1.963      2.848    20.7910 0.0000e+00
      2.000      0.026     6.5249     72.722     42.724  39.133941     4.5037      7.444   210.2393 3.9679e+01     3.5248      1.958      2.840    20.7868 0.0000e+00
      2.005      0.028     6.5169     72.655     42.759  39.170645     4.5195      7.446   210.4123 3.9413e+01     3.5690      1.965      2.849    20.7866 0.0000e+00
      2.017      0.032     6.5159     72.600     42.783  39.194675     4.5268      7.449   210.3654 3.8913e+01     3.5378      1.976      2.866    20.7862 0.0000e+00
      2.032      0.035     6.5141     72.585     42.756  39.170645     4.5750      7.451   210.3603 3.8455e+01     3.4549      1.994      2.892    20.7887 0.0000e+00
      2.046      0.035     6.5092     72.599     42.716  39.133940     4.6783      7.454   210.4369 3.8274e+01     3.4546      2.009      2.913    20.7951 0.0000e+00
      2.054      0.032     6.5012     72.618     42.714  39.131642     4.7442      7.457   210.4307 3.8243e+01     3.5340      2.015      2.923    20.7995 0.0000e+00
      2.058      0.028     6.4948     72.659     42.728  39.142858     4.7562      7.458   210.5437 3.8142e+01     3.6295      2.018      2.927    20.8017 0.0000e+00
      2.061      0.026     6.4937     72.741     42.730  39.142631     4.7562      7.459   210.7707 3.7978e+01     3.6870      2.021      2.932    20.8027 0.0000e+00
      2.066      0.029     6.4965     72.798     42.718  39.128890     4.7527      7.460   210.8526 3.7796e+01     3.6483      2.026      2.939    20.8026 0.0000e+00
      2.072      0.035     6.4979     72.807     42.693  39.103639     4.7385      7.461   210.8455 3.7502e+01     3.5713      2.031      2.946    20.8016 0.0000e+00
      2.082      0.041     6.4987     72.812     42.682  39.091156     4.7345      7.462   210.9433 3.7017e+01     3.5762      2.041      2.959    20.8004 0.0000e+00
      2.096      0.048     6.5112     72.803     42.700  39.104878     4.7300      7.463   211.1745 3.6485e+01     3.7075      2.056      2.981    20.7982 0.0000e+00
      2.110      0.054     6.5177     72.768     42.746  39.142621     4.6918      7.461   211.4031 3.5981e+01     3.8606      2.069      3.001    20.7941 0.0000e+00
      2.124      0.058     6.5149     72.721     42.780  39.166738     4.6547      7.459   211.4704 3.5398e+01     3.8906      2.082      3.020    20.7906 0.0000e+00
      2.141      0.059     6.5179     72.665     42.760  39.142622     4.6231      7.458   211.3862 3.4745e+01     3.8311      2.099      3.044    20.7885 0.0000e+00
      2.158      0.058     6.5178     72.568     42.723  39.104870     4.5341      7.457   211.4172 3.4120e+01     3.9948      2.117      3.070    20.7860 0.0000e+00
      2.174      0.056     6.5143     72.403     42.711  39.091046     4.4029      7.457   211.5876 3.3572e+01     4.4016      2.133      3.092    20.7804 0.0000e+00
      2.187      0.051     6.5111     72.197     42.727  39.102386     4.3426      7.457   211.6396 3.3045e+01     4.6499      2.145      3.111    20.7719 0.0000e+00
      2.200      0.046     6.5082     71.988     42.744  39.115060     4.3714      7.458   211.6152 3.2532e+01     4.8111      2.157      3.129    20.7641 0.0000e+00
      2.211      0.042     6.5017     71.815     42.749  39.117357     4.7847      7.459   211.5512 3.2125e+01     6.8628      2.169      3.147    20.7598 0.0000e+00
      2.220      0.039     6.4855     71.684     42.764  39.130152     5.5862      7.459   211.4687 3.1799e+01    10.8053      2.177      3.158    20.7580 0.0000e+00
      2.227      0.038     6.4666     71.565     42.781  39.142844     6.0470      7.460   211.6495 3.1454e+01    13.0601      2.184      3.167    20.7534 0.0000e+00
      2.236      0.033     6.4472     71.461     42.786  39.143894     6.0953      7.460   212.0161 3.1074e+01    13.3564      2.192      3.179    20.7479 0.0000e+00
      2.246      0.023     6.4310     71.387     42.787  39.142845     6.1358      7.460   212.2885 3.0649e+01    13.7054      2.202      3.194    20.7467 0.0000e+00
      2.258      0.013     6.4219     71.336     42.772  39.130154     6.6952      7.459   212.5333 3.0281e+01    17.6207      2.216      3.214    20.7469 0.0000e+00
      2.265      0.004     6.4102     71.300     42.756  39.117367     7.7572      7.458   212.7391 3.0259e+01    24.9307      2.227      3.230    20.7444 0.0000e+00
      2.259     -0.002     6.4014     71.280     42.752  39.115163     8.3644      7.458   212.7112 3.0562e+01    29.0240      2.219      3.219    20.7378 0.0000e+00
      2.246     -0.004     6.3959     71.284     42.741  39.103511     8.4763      7.458   212.6274 3.0755e+01    30.0493      2.199      3.189    20.7338 0.0000e+00
      2.240      0.000     6.3910     71.318     42.745  39.103397     9.1106      7.456   212.7584 3.0634e+01    37.7704      2.192      3.180    20.7368 0.0000e+00
      2.242      0.010     6.3875     71.368     42.760  39.113783    10.2991      7.454   212.9174 3.0414e+01    52.0455      2.199      3.189    20.7413 0.0000e+00
      2.248      0.022     6.3847     71.384     42.750  39.102160    10.9522      7.454   212.9155 3.0174e+01    60.1014      2.204      3.196    20.7428 0.0000e+00
      2.258      0.029     6.3856     71.347     42.739  39.089782    10.9312      7.454   212.9075 2.9777e+01    63.3023      2.213      3.208    20.7400 0.0000e+00
      2.272      0.024     6.3887     71.286     42.743  39.091039     9.9713      7.455   213.1657 2.9352e+01    89.9956      2.229      3.233    20.7358 0.0000e+00
      2.285      0.009     6.3965     71.226     42.771  39.117357     8.2015      7.457   213.5422 2.9143e+01   138.6765      2.244      3.256    20.7320 0.0000e+00
      2.292     -0.011     6.3989     71.171     42.808  39.154156     7.2276      7.457   213.8447 2.9143e+01   164.8876      2.250      3.263    20.7281 0.0000e+00
      2.288     -0.028     6.3944     71.102     42.805  39.155214     7.0853      7.457   214.0700 2.9384e+01   163.7991      2.249      3.262    20.7247 0.0000e+00
      2.270     -0.039     6.3891     71.037     42.776  39.130154     6.5398      7.458   214.1151 2.9983e+01   125.1738      2.231      3.236    20.7221 0.0000e+00
      2.242     -0.044     6.3826     71.043     42.749  39.104999     5.5333      7.460   214.1331 3.0601e+01    53.8135      2.194      3.183    20.7225 0.0000e+00
      2.223     -0.047     6.3787     71.128     42.752  39.104905     4.9698      7.463   214.2016 3.0775e+01    14.8178      2.173      3.150    20.7270 0.0000e+00
      2.219     -0.055     6.3717     71.236     42.779  39.129011     4.8962      7.465   214.2545 3.0647e+01    11.2599      2.174      3.153    20.7324 0.0000e+00
      2.222     -0.067     6.3618     71.336     42.789  39.142626     4.6509      7.467   214.5146 3.0624e+01    10.8649      2.180      3.162    20.7348 0.0000e+00
      2.218     -0.081     6.3625     71.441     42.776  39.142616     4.2182      7.467   214.9369 3.1085e+01    10.6569      2.182      3.163    20.7333 0.0000e+00
      2.194     -0.092     6.3736     71.570     42.747  39.128902     3.9841      7.466   215.0585 3.2460e+01    10.4864      2.163      3.136    20.7286 0.0000e+00
      2.147     -0.102     6.3844     71.740     42.710  39.103745     3.9512      7.466   214.9525 3.4358e+01    10.3754      2.107      3.057    20.7258 0.0000e+00
      2.098     -0.109     6.3921     71.951     42.695  39.092302     3.9456      7.468   214.8600 3.5612e+01    10.2020      2.046      2.968    20.7314 0.0000e+00
      2.070     -0.113     6.3988     72.186     42.722  39.117467     4.0076      7.473   214.7145 3.5895e+01     8.8344      2.021      2.930    20.7474 0.0000e+00
      2.060     -0.109     6.4075     72.423     42.760  39.154170     4.1262      7.478   214.7425 3.6040e+01     6.3757      2.022      2.932    20.7656 0.0000e+00
      2.049     -0.098     6.4212     72.634     42.758  39.155322     4.1818      7.482   214.9397 3.6913e+01     5.0014      2.017      2.926    20.7761 0.0000e+00
      2.019     -0.085     6.4406     72.801     42.731  39.131405     4.1718      7.484   214.9480 3.8476e+01     4.7204      1.985      2.879    20.7766 0.0000e+00
      1.979     -0.077     6.4627     72.927     42.719  39.118837     4.2224      7.486   214.8431 3.9848e+01     4.3442      1.935      2.806    20.7755 0.0000e+00
      1.949     -0.076     6.4843     73.002     42.734  39.130282     4.3442      7.489   214.7898 4.0278e+01     3.9373      1.902      2.758    20.7786 0.0000e+00
      1.941     -0.078     6.5037     73.015     42.748  39.142861     4.4282      7.494   214.6474 3.9989e+01     3.8317      1.899      2.754    20.7827 0.0000e+00
      1.942     -0.079     6.5174     72.955     42.743  39.144003     4.4397      7.498   214.4986 3.9850e+01     3.8523      1.908      2.768    20.7834 0.0000e+00
      1.934     -0.078     6.5302     72.853     42.734  39.144106     4.4323      7.499   214.6250 4.0640e+01     3.7763      1.906      2.765    20.7807 0.0000e+00
      1.904     -0.075     6.5372     72.784     42.729  39.144115     4.4391      7.499   214.9710 4.2248e+01     3.7325      1.873      2.718    20.7777 0.0000e+00
      1.861     -0.072     6.5391     72.778     42.731  39.144115     4.4560      7.499   215.1545 4.3560e+01     3.7670      1.818      2.638    20.7771 0.0000e+00
      1.829     -0.069     6.5328     72.817     42.736  39.144106     4.4777      7.500   215.0365 4.3899e+01     3.8181      1.783      2.587    20.7843 0.0000e+00
      1.821     -0.070     6.5175     72.836     42.740  39.144003     4.4850      7.501   215.0070 4.3534e+01     3.7355      1.780      2.582    20.7964 0.0000e+00
      1.827     -0.073     6.5110     72.796     42.739  39.142859     4.4697      7.503   215.2294 4.3081e+01     3.5533      1.792      2.599    20.8028 0.0000e+00
      1.828     -0.078     6.5104     72.746     42.720  39.130282     4.4672      7.503   215.4874 4.3482e+01     3.5281      1.804      2.615    20.7986 0.0000e+00
      1.805     -0.084     6.5181     72.714     42.705  39.118857     4.4792      7.502   215.5461 4.5289e+01     3.6356      1.782      2.585    20.7911 0.0000e+00
      1.756     -0.095     6.5226     72.672     42.720  39.131643     4.4574      7.502   215.2505 4.7409e+01     3.6921      1.721      2.497    20.7864 0.0000e+00
      1.711     -0.110     6.5156     72.603     42.752  39.157962     4.4039      7.504   214.9240 4.8391e+01     3.6647      1.665      2.416    20.7863 0.0000e+00
      1.690     -0.122     6.5095     72.556     42.780  39.183231     4.3734      7.509   214.9544 4.8401e+01     3.5779      1.650      2.394    20.7933 0.0000e+00
      1.682     -0.122     6.5071     72.575     42.776  39.183336     4.3714      7.513   215.1878 4.8787e+01     3.5300      1.657      2.403    20.7994 0.0000e+00
      1.659     -0.112     6.5054     72.628     42.748  39.159230     4.3212      7.514   215.2509 5.0606e+01     3.5641      1.640      2.379    20.7961 0.0000e+00
      1.610     -0.106     6.4976     72.685     42.734  39.145614     4.2160      7.515   215.0293 5.3058e+01     3.6142      1.578      2.290    20.7894 0.0000e+00
      1.563     -0.113     6.4910     72.757     42.736  39.145624     4.1481      7.519   214.8309 5.4405e+01     3.6242      1.521      2.206    20.7889 0.0000e+00
      1.542     -0.124     6.4938     72.831     42.750  39.159345     4.1246      7.523   214.9174 5.4464e+01     3.5813      1.507      2.185    20.7956 0.0000e+00
      1.536     -0.127     6.4999     72.863     42.773  39.184604     4.1228      7.523   215.3008 5.4901e+01     3.5740      1.514      2.196    20.7999 0.0000e+00
      1.515     -0.120     6.5037     72.853     42.782  39.197188     4.1012      7.520   215.6809 5.7146e+01     3.5704      1.499      2.174    20.7972 0.0000e+00
      1.465     -0.113     6.5108     72.834     42.767  39.184592     4.0297      7.517   215.5553 6.0180e+01     3.5042      1.439      2.087    20.7935 0.0000e+00
      1.411     -0.113     6.5202     72.829     42.741  39.159228     3.9747      7.517   215.2449 6.2025e+01     3.4225      1.371      1.990    20.7936 0.0000e+00
      1.381     -0.119     6.5215     72.819     42.726  39.144353     3.9520      7.520   215.2829 6.2298e+01     3.3335      1.345      1.952    20.7999 0.0000e+00
      1.375     -0.119     6.5187     72.809     42.710  39.131651     3.9890      7.522   215.4127 6.2223e+01     3.3160      1.349      1.957    20.8075 0.0000e+00
      1.366     -0.110     6.5154     72.827     42.707  39.132586     4.0885      7.522   215.4380 6.3771e+01     3.3824      1.351      1.959    20.8077 0.0000e+00
      1.331     -0.102     6.5174     72.888     42.731  39.155661     4.1483      7.523   215.4173 6.6735e+01     3.4193      1.313      1.905    20.8035 0.0000e+00
      1.281     -0.101     6.5163     72.986     42.733  39.156816     4.1459      7.525   215.2476 6.8579e+01     3.3860      1.247      1.809    20.8021 0.0000e+00
      1.245     -0.109     6.5133     73.091     42.721  39.146537     4.1174      7.529   215.0208 6.8928e+01     3.3555      1.212      1.757    20.8056 0.0000e+00
      1.231     -0.119     6.5146     73.186     42.732  39.158302     4.0958      7.534   214.9992 6.9032e+01     3.3927      1.207      1.751    20.8110 0.0000e+00
      1.222     -0.124     6.5189     73.251     42.744  39.172148     4.1007      7.535   215.1582 6.9493e+01     3.4256      1.203      1.745    20.8115 0.0000e+00
      1.198     -0.124     6.5304     73.290     42.756  39.187033     4.1020      7.533   215.4803 7.1636e+01     3.4113      1.186      1.721    20.8099 0.0000e+00
      1.150     -0.122     6.5391     73.321     42.780  39.211366     4.0866      7.528   215.9682 7.5440e+01     3.3567      1.134      1.644    20.8107 0.0000e+00
      1.092     -0.114     6.5488     73.338     42.780  39.212520     4.0724      7.523   216.3257 7.8353e+01     3.3121      1.062      1.539    20.8124 0.0000e+00
      1.053     -0.099     6.5541     73.345     42.765  39.200983     4.0724      7.518   216.3610 7.9740e+01     3.3496      1.021      1.482    20.8165 0.0000e+00
      1.038     -0.076     6.5548     73.360     42.760  39.198798     4.0863      7.516   216.1368 8.0270e+01     3.4002      1.014      1.471    20.8228 0.0000e+00
      1.037     -0.054     6.5588     73.397     42.743  39.186106     4.0563      7.519   215.8518 8.0229e+01     3.4124      1.016      1.473    20.8261 0.0000e+00
      1.038     -0.039     6.5594     73.436     42.728  39.174446     3.9678      7.523   215.8403 8.0787e+01     3.3940      1.020      1.479    20.8259 0.0000e+00
      1.035     -0.035     6.5600     73.444     42.738  39.184745     3.9074      7.525   216.0835 8.2471e+01     3.3491      1.018      1.477    20.8270 0.0000e+00
      1.025     -0.039     6.5597     73.429     42.735  39.183715     3.9086      7.526   216.3837 8.4791e+01     3.3475      1.008      1.463    20.8305 0.0000e+00
      1.006     -0.041     6.5631     73.400     42.710  39.161981     3.9239      7.524   216.8031 8.6913e+01     3.4089      0.987      1.432    20.8343 0.0000e+00
      0.987     -0.037     6.5686     73.344     42.723  39.175815     3.9177      7.520   217.1960 8.8026e+01     3.4423      0.964      1.398    20.8363 0.0000e+00
      0.974     -0.026     6.5676     73.261     42.771  39.224066     3.8998      7.515   217.6070 8.8096e+01     3.4097      0.953      1.381    20.8374 0.0000e+00
      0.969     -0.009     6.5658     73.192     42.781  39.237693     3.8829      7.509   218.0720 8.8195e+01     3.3565      0.948      1.375    20.8402 0.0000e+00
      0.971      0.006     6.5638     73.183     42.749  39.213671     3.8881      7.503   218.1725 8.8758e+01     3.3111      0.950      1.378    20.8421 0.0000e+00
      0.980      0.010     6.5589     73.249     42.718  39.187456     3.9209      7.502   217.8760 8.8486e+01     3.2713      0.960      1.392    20.8435 0.0000e+00
      0.992     -0.006     6.5492     73.357     42.705  39.174576     3.9383      7.506   217.5840 8.7727e+01     3.2165      0.973      1.409    20.8478 0.0000e+00
      1.003     -0.037     6.5405     73.441     42.720  39.184857     3.9318      7.511   217.7405 8.7543e+01     3.1606      0.987      1.431    20.8539 0.0000e+00
      1.004     -0.071     6.5385     73.484     42.726  39.184848     3.9348      7.511   218.3907 8.8261e+01     3.1764      0.995      1.443    20.8601 0.0000e+00
      0.979     -0.096     6.5443     73.514     42.720  39.174453     3.9822      7.506   218.9063 9.1190e+01     3.3043      0.975      1.414    20.8639 0.0000e+00
      0.921     -0.107     6.5580     73.565     42.733  39.186094     4.0473      7.502   218.8983 9.5380e+01     3.4096      0.905      1.313    20.8634 0.0000e+00
      0.860     -0.106     6.5659     73.630     42.743  39.198681     4.0633      7.502   218.6385 9.7688e+01     3.3562      0.828      1.202    20.8584 0.0000e+00
      0.830     -0.096     6.5697     73.664     42.740  39.199721     4.0508      7.505   218.3466 9.8458e+01     3.2401      0.803      1.164    20.8496 0.0000e+00
      0.827     -0.082     6.5720     73.654     42.737  39.198681     4.0308      7.512   218.0365 9.9303e+01     3.2350      0.811      1.176    20.8433 0.0000e+00
      0.831     -0.074     6.5759     73.625     42.722  39.186103     4.0125      7.519   217.8140 9.9943e+01     3.3287      0.818      1.187    20.8440 0.0000e+00
      0.826     -0.074     6.5841     73.604     42.709  39.174566     4.0200      7.525   217.7215 1.0191e+02     3.3485      0.815      1.182    20.8492 0.0000e+00
      0.807     -0.080     6.5864     73.593     42.722  39.186104     4.0143      7.529   217.6918 1.0714e+02     3.3040      0.800      1.161    20.8538 0.0000e+00
      0.767     -0.086     6.5843     73.571     42.734  39.198690     3.9521      7.531   217.7130 1.1363e+02     3.2687      0.756      1.097    20.8559 0.0000e+00
      0.722     -0.083     6.5806     73.538     42.731  39.199835     3.8675      7.533   217.8050 1.1822e+02     3.2632      0.698      1.012    20.8569 0.0000e+00
      0.697     -0.068     6.5785     73.513     42.726  39.199949     3.8319      7.534   218.1167 1.2084e+02     3.3393      0.675      0.980    20.8566 0.0000e+00
      0.691     -0.043     6.5788     73.501     42.721  39.200071     3.8373      7.533   218.5559 1.2249e+02     3.3700      0.678      0.983    20.8559 0.0000e+00
      0.691     -0.016     6.5766     73.530     42.718  39.201320     3.8408      7.533   218.7278 1.2423e+02     3.2924      0.679      0.984    20.8582 0.0000e+00
      0.693      0.004     6.5717     73.601     42.727  39.215051     3.8826      7.533   218.7329 1.2591e+02     3.2896      0.678      0.983    20.8630 0.0000e+00
      0.698      0.012     6.5696     73.654     42.747  39.239175     3.9689      7.533   218.7037 1.2645e+02     3.3698      0.684      0.990    20.8688 0.0000e+00
      0.708      0.003     6.5662     73.644     42.742  39.239175     4.0181      7.533   218.3746 1.2720e+02     3.3742      0.695      1.008    20.8741 0.0000e+00
      0.714     -0.026     6.5675     73.596     42.713  39.215058     4.0278      7.534   217.9369 1.2924e+02     3.3423      0.703      1.019    20.8781 0.0000e+00
      0.716     -0.073     6.5764     73.550     42.701  39.201431     3.9870      7.538   217.4555 1.2993e+02     3.3260      0.704      1.021    20.8841 0.0000e+00
      0.709     -0.128     6.5816     73.521     42.708  39.201328     3.8995      7.543   216.6841 1.3338e+02     3.3131      0.703      1.020    20.8918 0.0000e+00
      0.675     -0.182     6.5789     73.524     42.731  39.213803     3.8515      7.549   215.6652 1.4751e+02     3.3579      0.678      0.984    20.8990 0.0000e+00
      0.601     -0.234     6.5718     73.559     42.751  39.225333     3.8400      7.553   214.6864 1.6743e+02     3.4237      0.598      0.868    20.9028 0.0000e+00
      0.507     -0.283     6.5686     73.608     42.742  39.213803     3.8352      7.552   214.4858 1.9082e+02     3.4598      0.490      0.711    20.8998 0.0000e+00
      0.427     -0.316     6.5663     73.677     42.729  39.201329     3.8355      7.542   214.9600 2.4587e+02     3.4863      0.409      0.593    20.8900 0.0000e+00
      0.358     -0.318     6.5677     73.772     42.726  39.201433     3.8353      7.530   215.1723 3.0092e+02     3.5389      0.362      0.526    20.8776 0.0000e+00
      0.270     -0.290     6.5737     73.867     42.736  39.215061     3.8325      7.523   214.8158 3.3237e+02     3.5835      0.277      0.401    20.8694 0.0000e+00
      0.165     -0.243     6.5776     73.934     42.755  39.239186     3.8510      7.524   213.9188 4.5245e+02     3.5476      0.147      0.213    20.8667 0.0000e+00
      0.086     -0.193     6.5831     73.954     42.747  39.239290     3.8922      7.532   213.0171 5.9849e+02     3.4456      0.065      0.095    20.8667 0.0000e+00
      0.055     -0.140     6.5927     73.930     42.715  39.216327     3.9065      7.542   212.8605 6.5493e+02     3.3418      0.044      0.063    20.8685 0.0000e+00
      0.053     -0.085     6.6012     73.894     42.708  39.215401     3.8990      7.546   213.6604 6.4902e+02     3.3166      0.050      0.072    20.8737 0.0000e+00
      0.056     -0.038     6.6069     73.871     42.717  39.228092     3.9024      7.543   217.1824 5.5082e+02     3.3801      0.060      0.086    20.8831 0.0000e+00
      0.051     -0.021     6.6073     73.846     42.731  39.242863     3.9140      7.536   220.3400 4.6197e+02     3.4275      0.052      0.075    20.8926 0.0000e+00
      0.046     -0.037     6.6035     73.809     42.758  39.267077     3.9144      7.528   218.3697 4.8387e+02     3.3772      0.039      0.057    20.8991 0.0000e+00
      0.051     -0.072     6.5977     73.805     42.758  39.267023     3.8981      7.524   215.5579 5.2832e+02     3.2834      0.049      0.070    20.9050 0.0000e+00
      0.051     -0.115     6.5959     73.835     42.725  39.242217     3.8667      7.526   214.1338 6.2984e+02     3.2507      0.066      0.096    20.9125 0.0000e+00
      0.014     -0.166     6.5947     73.866     42.690  39.220999     3.7007      7.531   216.3800 7.0932e+02     3.3571      0.031      0.044    20.9148 0.0000e+00
     -0.054     -0.225     6.5884     73.897     42.727  39.264335     3.4063      7.537   223.5303 6.9086e+02     3.5451     -0.059     -0.086    20.9127 0.0000e+00
     -0.122     -0.276     6.5887     73.919     42.846  39.385435     3.2376      7.537   227.0232 7.0442e+02     3.6110     -0.123     -0.178    20.9106 0.0000e+00
     -0.193     -0.300     6.5929     73.892     42.920  39.479476     3.2014      7.530   222.3895 7.4109e+02     3.5383     -0.173     -0.251    20.9162 0.0000e+00
     -0.291     -0.293     6.5919     73.730     42.922  39.512957     3.1176      7.520   216.8053 8.3350e+02     3.4182     -0.280     -0.405    20.9352 0.0000e+00
     -0.401     -0.267     6.5944     73.373     42.855  39.472985     2.9900      7.513   217.0656 9.0848e+02     3.2862     -0.407     -0.590    20.9433 0.0000e+00
     -0.479     -0.232     6.5966     72.833     42.189  38.869292     2.9231      7.510   218.8257 9.0419e+02     3.2060     -0.490     -0.711    20.9475 0.0000e+00
     -0.513     -0.186     6.5922     72.070     34.824  32.086857     2.9164      7.508   218.4687 9.2826e+02     2.9611     -0.506     -0.734    20.9843 0.0000e+00
     -0.533     -0.133     6.5763     71.152     24.732  22.785592     2.8430      7.508   216.4501 9.9008e+02     0.5642     -0.514     -0.746    21.0310 0.0000e+00
     -0.562     -0.086     6.5365     70.377     27.456  25.286001     2.7428      7.510   210.3359 1.0212e+03    -3.7076     -0.556     -0.806    21.0540 0.0000e+00
     -0.584     -0.055     6.4923     70.022     32.501  29.925073     3.1535      7.510   198.1454 8.7175e+02    -5.9551     -0.580     -0.841    21.0622 0.0000e+00
     -0.591     -0.037     6.4233     70.061     24.095  22.180979     8.3495      7.509   181.8525 7.1460e+02    -6.0126     -0.579     -0.840    21.0669 0.0000e+00
     -0.592     -0.022     6.3295     70.215     12.760  11.742615    65.6171      7.508   170.9641 7.9553e+02    -4.3341     -0.580     -0.841    21.0651 0.0000e+00
     -0.592     -0.010     6.2525     70.408      7.746   7.125300   170.6247      7.508   165.1812 7.8568e+02    -1.1352     -0.580     -0.842    21.0494 0.0000e+00
     -0.592     -0.002     6.2217     70.687      6.142   5.646880   227.5036      7.511   156.1565 6.7841e+02     0.5898     -0.581     -0.842    21.0284 0.0000e+00
     -0.592     -0.000     6.2430     70.917      5.460   5.018047   227.9385      7.501   172.5794 7.2751e+02     0.6380     -0.580     -0.842    21.0198 0.0000e+00
     -0.592     -0.000     6.2590     71.034      5.273   4.843918   175.8494      7.460   244.6714 6.2482e+02    -0.2443     -0.580     -0.842    21.0072 0.0000e+00
     -0.592     -0.000     6.2717     71.076      5.236   4.808558   127.7061      7.433   294.7604 4.1787e+02    -1.0603     -0.581     -0.842    20.9792 0.0000e+00
     -0.592 -9.990e-29     6.3107 -9.990e-29 -9.990e-29 -9.990e-29 -9.990e-29 -9.990e-29 -9.990e-29 4.1385e+02 -9.990e-29     -0.580     -0.841    20.9562 0.0000e+00
     -0.592 -9.990e-29     6.3337 -9.990e-29 -9.990e-29 -9.990e-29 -9.990e-29 -9.990e-29 -9.990e-29 4.5208e+02 -9.990e-29     -0.580     -0.842    20.9409 0.0000e+00
     -0.592 -9.990e-29     6.3422 -9.990e-29 -9.990e-29 -9.990e-29 -9.990e-29 -9.990e-29 -9.990e-29 4.3346e+02 -9.990e-29     -0.580     -0.842    20.9209 0.0000e+00
     -0.592 -9.990e-29     6.3520 -9.990e-29 -9.990e-29 -9.990e-29 -9.990e-29 -9.990e-29 -9.990e-29 4.2553e+02 -9.990e-29     -0.579     -0.840    20.9086 0.0000e+00
