* Sea-Bird SBE19plus  Data File:
* FileName = C:\R\Reservoirs\Data\DataNotYetUploadedToEDI\Raw_CTD\RawDownloads\090924_fcr40_S7809_0004.hex
* Software version 2.8.0.119
* Temperature SN = 7809
* Conductivity SN = 7809
* System UpLoad Time = Sep 09 2024 17:06:18
* <ApplicationData>
* <Seaterm232>
* <SoftwareVersion>2.8.0.119</SoftwareVersion>
* <BuildDate>07-Nov-2018</BuildDate>
* </Seaterm232>
* </ApplicationData>
* <InstrumentState>
* <HardwareData DeviceType='SBE19plus' SerialNumber='01907809'>
*
*    <Manufacturer>Sea-Bird Electronics, Inc.</Manufacturer>
*
*    <FirmwareVersion>3.1.8</FirmwareVersion>
*
*    <FirmwareDate>Mar  9 2016 16:22:29</FirmwareDate>
*
*    <CommandSetVersion>1.4</CommandSetVersion>
*
*    <PCBAssembly PCBSerialNum='120721' AssemblyNum='41054J'/>
*
*    <PCBAssembly PCBSerialNum='120715' AssemblyNum='41967A'/>
*
*    <PCBAssembly PCBSerialNum='116699' AssemblyNum='41606'/>
*
*    <PCBAssembly PCBSerialNum='120719' AssemblyNum='41059D'/>
*
*    <MfgDate>28-Apr-2017</MfgDate>
*
*    <InternalSensors>
*
*       <Sensor id='Main Temperature'>
*
*          <type>temperature0</type>
*
*          <SerialNumber>01907809</SerialNumber>
*
*       </Sensor>
*
*       <Sensor id='Main Conductivity'>
*
*          <type>conductivity-0</type>
*
*          <SerialNumber>01907809</SerialNumber>
*
*       </Sensor>
*
*       <Sensor id='Main Pressure'>
*
*          <type>strain-0</type>
*
*          <SerialNumber>10586018</SerialNumber>
*
*       </Sensor>
*
*    </InternalSensors>
*
*    <ExternalSensors>
*
*       <Sensor id='volt 0'>
*
*          <type>pH</type>
*
*          <SerialNumber>27-0363</SerialNumber>
*
*       </Sensor>
*
*       <Sensor id='volt 1'>
*
*          <type>ORP</type>
*
*          <SerialNumber>27-0363</SerialNumber>
*
*       </Sensor>
*
*       <Sensor id='volt 2'>
*
*          <type>OXY</type>
*
*          <SerialNumber>43-0434</SerialNumber>
*
*       </Sensor>
*
*       <Sensor id='volt 3'>
*
*          <type>PAR</type>
*
*          <SerialNumber>1122</SerialNumber>
*
*       </Sensor>
*
*       <Sensor id='volt 4'>
*
*          <type>ECO AFL/FL</type>
*
*          <SerialNumber>FLNTURT-2496</SerialNumber>
*
*       </Sensor>
*
*       <Sensor id='volt 5'>
*
*          <type>ECO-NTU</type>
*
*          <SerialNumber>FLNTURT-2496</SerialNumber>
*
*       </Sensor>
*
*       <Sensor id='serial'>
*
*          <type>not assigned</type>
*
*          <SerialNumber>not assigned</SerialNumber>
*
*       </Sensor>
*
*    </ExternalSensors>
*
* </HardwareData>
* <StatusData DeviceType='SBE19plus' SerialNumber='01907809'>
*
*    <DateTime>2024-09-09T17:04:38</DateTime>
*
*    <LoggingState>not logging</LoggingState>
*
*    <EventSummary numEvents='0'/>
*
*    <Power>
*
*       <vMain>12.3</vMain>
*
*       <vLith>8.4</vLith>
*
*       <iMain>63.1</iMain>
*
*       <iPump>44.3</iPump>
*
*       <iExt01>20.8</iExt01>
*
*       <iExt2345>39.5</iExt2345>
*
*    </Power>
*
*    <MemorySummary>
*
*       <Bytes>79856</Bytes>
*
*       <Samples>3472</Samples>
*
*       <SamplesFree>2857316</SamplesFree>
*
*       <SampleLength>23</SampleLength>
*
*       <Profiles>5</Profiles>
*
*    </MemorySummary>
*
* </StatusData>
* <ConfigurationData DeviceType='SBE19plus' SerialNumber='01907809'>
*
*    <ProfileMode>
*
*       <ScansToAverage>1</ScansToAverage>
*
*       <MinimumCondFreq>0</MinimumCondFreq>
*
*       <PumpDelay>45</PumpDelay>
*
*       <AutoRun>no</AutoRun>
*
*       <IgnoreSwitch>no</IgnoreSwitch>
*
*    </ProfileMode>
*
*    <Battery>
*
*       <Type>alkaline</Type>
*
*       <CutOff>7.5</CutOff>
*
*    </Battery>
*
*    <DataChannels>
*
*       <ExtVolt0>yes</ExtVolt0>
*
*       <ExtVolt1>yes</ExtVolt1>
*
*       <ExtVolt2>yes</ExtVolt2>
*
*       <ExtVolt3>yes</ExtVolt3>
*
*       <ExtVolt4>yes</ExtVolt4>
*
*       <ExtVolt5>yes</ExtVolt5>
*
*       <SBE38>no</SBE38>
*
*       <WETLABS>no</WETLABS>
*
*       <OPTODE>no</OPTODE>
*
*       <SBE63>no</SBE63>
*
*       <SeaFET>no</SeaFET>
*
*       <GTD>no</GTD>
*
*    </DataChannels>
*
*    <EchoCharacters>yes</EchoCharacters>
*
*    <OutputExecutedTag>yes</OutputExecutedTag>
*
*    <OutputFormat>raw HEX</OutputFormat>
*
* </ConfigurationData>
* <CalibrationCoefficients DeviceType='SBE19plus' SerialNumber='01907809'>
*
*    <Calibration format='TEMP1' id='Main Temperature'>
*
*       <SerialNum>01907809</SerialNum>
*
*       <CalDate>31-Jan-23</CalDate>
*
*       <TA0>1.218232e-03</TA0>
*
*       <TA1>2.815090e-04</TA1>
*
*       <TA2>-1.578887e-06</TA2>
*
*       <TA3>1.972343e-07</TA3>
*
*       <TOFFSET>0.000000e+00</TOFFSET>
*
*    </Calibration>
*
*    <Calibration format='WBCOND0' id='Main Conductivity'>
*
*       <SerialNum>01907809</SerialNum>
*
*       <CalDate>31-Jan-23</CalDate>
*
*       <G>-1.005652e+00</G>
*
*       <H>1.267963e-01</H>
*
*       <I>-1.561708e-04</I>
*
*       <J>2.645944e-05</J>
*
*       <CPCOR>-9.570000e-08</CPCOR>
*
*       <CTCOR>3.250000e-06</CTCOR>
*
*       <CSLOPE>1.000000e+00</CSLOPE>
*
*    </Calibration>
*
*    <Calibration format='STRAIN0' id='Main Pressure'>
*
*       <SerialNum>10586018</SerialNum>
*
*       <CalDate>20-Jan-23</CalDate>
*
*       <PA0>4.416439e-02</PA0>
*
*       <PA1>4.850502e-04</PA1>
*
*       <PA2>-3.090426e-12</PA2>
*
*       <PTCA0>5.254757e+05</PTCA0>
*
*       <PTCA1>1.050255e+01</PTCA1>
*
*       <PTCA2>-2.922435e-01</PTCA2>
*
*       <PTCB0>2.516687e+01</PTCB0>
*
*       <PTCB1>3.750000e-04</PTCB1>
*
*       <PTCB2>0.000000e+00</PTCB2>
*
*       <PTEMPA0>-5.470820e+01</PTEMPA0>
*
*       <PTEMPA1>5.485421e+01</PTEMPA1>
*
*       <PTEMPA2>-3.446578e-01</PTEMPA2>
*
*       <POFFSET>8.500000e-01</POFFSET>
*
*       <PRANGE>1.600000e+02</PRANGE>
*
*    </Calibration>
*
*    <Calibration format='VOLT0' id='Volt 0'>
*
*       <OFFSET>-4.920000e-02</OFFSET>
*
*       <SLOPE>1.248122e+00</SLOPE>
*
*    </Calibration>
*
*    <Calibration format='VOLT0' id='Volt 1'>
*
*       <OFFSET>-4.784000e-02</OFFSET>
*
*       <SLOPE>1.248871e+00</SLOPE>
*
*    </Calibration>
*
*    <Calibration format='VOLT0' id='Volt 2'>
*
*       <OFFSET>-4.864632e-02</OFFSET>
*
*       <SLOPE>1.248714e+00</SLOPE>
*
*    </Calibration>
*
*    <Calibration format='VOLT0' id='Volt 3'>
*
*       <OFFSET>-4.743790e-02</OFFSET>
*
*       <SLOPE>1.248571e+00</SLOPE>
*
*    </Calibration>
*
*    <Calibration format='VOLT0' id='Volt 4'>
*
*       <OFFSET>-4.671263e-02</OFFSET>
*
*       <SLOPE>1.248951e+00</SLOPE>
*
*    </Calibration>
*
*    <Calibration format='VOLT0' id='Volt 5'>
*
*       <OFFSET>-4.871053e-02</OFFSET>
*
*       <SLOPE>1.249136e+00</SLOPE>
*
*    </Calibration>
*
*    <Calibration format='FREQ0' id='external frequency channel'>
*
*       <EXTFREQSF>1.000014e+00</EXTFREQSF>
*
*    </Calibration>
*
* </CalibrationCoefficients>
* <EventCounters DeviceType='SBE19plus' SerialNumber='01907809'>
*
*    <EventSummary numEvents='0'/>
*
* </EventCounters></InstrumentState>
* <Headers>
*
* cast   4 09 Sep 2024 10:51:04 samples 1749 to 2511, avg = 1, stop = mag switch
*
# nquan = 15
# nvalues = 763                         
# units = specified
# name 0 = depFM: Depth [fresh water, m]
# name 1 = dz/dtM: Descent Rate [m/s]
# name 2 = sbeox0Mg/L: Oxygen, SBE 43 [mg/l]
# name 3 = sbeox0PS: Oxygen, SBE 43 [% saturation]
# name 4 = specc: Specific Conductance [uS/cm]
# name 5 = c0uS/cm: Conductivity [uS/cm]
# name 6 = flECO-AFL: Fluorescence, WET Labs ECO-AFL/FL [mg/m^3]
# name 7 = ph: pH
# name 8 = orp: Oxidation Reduction Potential [mV]
# name 9 = par/sat/log: PAR/Logarithmic, Satlantic
# name 10 = turbWETntu0: Turbidity, WET Labs ECO [NTU]
# name 11 = prdM: Pressure, Strain Gauge [db]
# name 12 = prdE: Pressure, Strain Gauge [psi]
# name 13 = tv290C: Temperature [ITS-90, deg C]
# name 14 = flag:  0.000e+00
# span 0 =     -0.590,      4.134       
# span 1 =     -0.355,      0.272       
# span 2 =     0.1379,     8.6152       
# span 3 =      1.419,     97.604       
# span 4 =      8.526,     90.371       
# span 5 =   7.911534,  72.873321       
# span 6 =    -1.0355,    90.4801       
# span 7 =      7.578,      8.057       
# span 8 =   166.3663,   241.5085       
# span 9 = 3.6474e+00, 1.2795e+03       
# span 10 =     0.8663,    16.4838      
# span 11 =     -0.580,      4.059      
# span 12 =     -0.843,      5.888      
# span 13 =    15.1250,    21.5997      
# span 14 = 0.0000e+00, 0.0000e+00      
# interval = seconds: 0.25
# start_time = Sep 09 2024 10:51:04 [Instrument's time stamp, header]
# bad_flag = -9.990e-29
# <Sensors count="9" >
#   <sensor Channel="1" >
#     <!-- Count, Temperature -->
#     <TemperatureSensor SensorID="58" >
#       <SerialNumber>7809</SerialNumber>
#       <CalibrationDate>31-Jan-23</CalibrationDate>
#       <A0>1.21823180e-003</A0>
#       <A1>2.81508993e-004</A1>
#       <A2>-1.57888696e-006</A2>
#       <A3>1.97234302e-007</A3>
#       <Slope>1.00000000</Slope>
#       <Offset>0.0000</Offset>
#     </TemperatureSensor>
#   </sensor>
#   <sensor Channel="2" >
#     <!-- Frequency 0, Conductivity -->
#     <ConductivitySensor SensorID="3" >
#       <SerialNumber>7809</SerialNumber>
#       <CalibrationDate>31-Jan-23</CalibrationDate>
#       <UseG_J>1</UseG_J>
#       <!-- Cell const and series R are applicable only for wide range sensors. -->
#       <SeriesR>0.0000</SeriesR>
#       <CellConst>2000.0000</CellConst>
#       <ConductivityType>0</ConductivityType>
#       <Coefficients equation="0" >
#         <A>0.00000000e+000</A>
#         <B>0.00000000e+000</B>
#         <C>0.00000000e+000</C>
#         <D>0.00000000e+000</D>
#         <M>0.0</M>
#         <CPcor>-9.57000000e-008</CPcor>
#       </Coefficients>
#       <Coefficients equation="1" >
#         <G>-1.00565232e+000</G>
#         <H>1.26796307e-001</H>
#         <I>-1.56170788e-004</I>
#         <J>2.64594368e-005</J>
#         <CPcor>-9.57000000e-008</CPcor>
#         <CTcor>3.2500e-006</CTcor>
#         <!-- WBOTC not applicable unless ConductivityType = 1. -->
#         <WBOTC>0.00000000e+000</WBOTC>
#       </Coefficients>
#       <Slope>1.00000000</Slope>
#       <Offset>0.00000</Offset>
#     </ConductivitySensor>
#   </sensor>
#   <sensor Channel="3" >
#     <!-- Count, Pressure, Strain Gauge -->
#     <PressureSensor SensorID="46" >
#       <SerialNumber>7809</SerialNumber>
#       <CalibrationDate>20-Jan-23</CalibrationDate>
#       <PA0>4.41643944e-002</PA0>
#       <PA1>4.85050239e-004</PA1>
#       <PA2>-3.09042623e-012</PA2>
#       <PTEMPA0>-5.47081996e+001</PTEMPA0>
#       <PTEMPA1>5.48542136e+001</PTEMPA1>
#       <PTEMPA2>-3.44657813e-001</PTEMPA2>
#       <PTCA0>5.25475731e+005</PTCA0>
#       <PTCA1>1.05025484e+001</PTCA1>
#       <PTCA2>-2.92243463e-001</PTCA2>
#       <PTCB0>2.51668750e+001</PTCB0>
#       <PTCB1>3.75000000e-004</PTCB1>
#       <PTCB2>0.00000000e+000</PTCB2>
#       <Offset>0.000000</Offset>
#     </PressureSensor>
#   </sensor>
#   <sensor Channel="4" >
#     <!-- A/D voltage 0, Oxygen, SBE 43 -->
#     <OxygenSensor SensorID="38" >
#       <SerialNumber>0434</SerialNumber>
#       <CalibrationDate>18-Feb-23</CalibrationDate>
#       <Use2007Equation>1</Use2007Equation>
#       <CalibrationCoefficients equation="0" >
#         <!-- Coefficients for Owens-Millard equation. -->
#         <Boc>0.0000</Boc>
#         <Soc>0.0000e+000</Soc>
#         <offset>0.0000</offset>
#         <Pcor>0.00e+000</Pcor>
#         <Tcor>0.0000</Tcor>
#         <Tau>0.0</Tau>
#       </CalibrationCoefficients>
#       <CalibrationCoefficients equation="1" >
#         <!-- Coefficients for Sea-Bird equation - SBE calibration in 2007 and later. -->
#         <Soc>5.1878e-001</Soc>
#         <offset>-0.5046</offset>
#         <A>-4.2788e-003</A>
#         <B> 1.5372e-004</B>
#         <C>-2.1853e-006</C>
#         <D0> 2.5826e+000</D0>
#         <D1> 1.92634e-004</D1>
#         <D2>-4.64803e-002</D2>
#         <E> 3.6000e-002</E>
#         <Tau20> 0.9900</Tau20>
#         <H1>-3.3000e-002</H1>
#         <H2> 5.0000e+003</H2>
#         <H3> 1.4500e+003</H3>
#       </CalibrationCoefficients>
#     </OxygenSensor>
#   </sensor>
#   <sensor Channel="5" >
#     <!-- A/D voltage 1, PAR/Logarithmic, Satlantic -->
#     <PARLog_SatlanticSensor SensorID="76" >
#       <SerialNumber>1122</SerialNumber>
#       <CalibrationDate>08-Sep-2021</CalibrationDate>
#       <a0>9.6751e-001</a0>
#       <a1>8.0992e-001</a1>
#       <Im>1.3589e+000</Im>
#       <Multiplier>1.0000e+000</Multiplier>
#     </PARLog_SatlanticSensor>
#   </sensor>
#   <sensor Channel="6" >
#     <!-- A/D voltage 2, pH -->
#     <pH_Sensor SensorID="43" >
#       <SerialNumber>0363</SerialNumber>
#       <CalibrationDate>28-Feb-23</CalibrationDate>
#       <Slope>4.7364</Slope>
#       <Offset>2.5433</Offset>
#     </pH_Sensor>
#   </sensor>
#   <sensor Channel="7" >
#     <!-- A/D voltage 3, Oxidation Reduction Potential -->
#     <OxidationReductionPotentialSensor SensorID="41" >
#       <SerialNumber>0363</SerialNumber>
#       <CalibrationDate>28-Feb-23</CalibrationDate>
#       <B>2.499480</B>
#       <M>-0.496195</M>
#       <Offset>0.0</Offset>
#     </OxidationReductionPotentialSensor>
#   </sensor>
#   <sensor Channel="8" >
#     <!-- A/D voltage 4, Fluorometer, WET Labs ECO-AFL/FL -->
#     <FluoroWetlabECO_AFL_FL_Sensor SensorID="20" >
#       <SerialNumber>FLNTURT-2496</SerialNumber>
#       <CalibrationDate>02-Sep-2021</CalibrationDate>
#       <ScaleFactor>4.80000000e+001</ScaleFactor>
#       <!-- Dark output -->
#       <Vblank>0.0550</Vblank>
#     </FluoroWetlabECO_AFL_FL_Sensor>
#   </sensor>
#   <sensor Channel="9" >
#     <!-- A/D voltage 5, Turbidity Meter, WET Labs, ECO-NTU -->
#     <TurbidityMeter SensorID="67" >
#       <SerialNumber>FLNTURT--2496</SerialNumber>
#       <CalibrationDate>02-Sep-2021</CalibrationDate>
#       <ScaleFactor>197.000000</ScaleFactor>
#       <!-- Dark output -->
#       <DarkVoltage>0.070000</DarkVoltage>
#     </TurbidityMeter>
#   </sensor>
# </Sensors>
# datcnv_date = Sep 09 2024 17:10:41, 7.26.7.129 [datcnv_vars = 14]
# datcnv_in = C:\R\Reservoirs\Data\DataNotYetUploadedToEDI\Raw_CTD\RawDownloads\090924_fcr40_S7809004.hex C:\R\Reservoirs\Data\DataNotYetUploadedToEDI\Raw_CTD\RawDownloads\SBE19plusV2_7809_start20230701.xmlcon
# datcnv_skipover = 0
# datcnv_ox_hysteresis_correction = yes
# datcnv_ox_tau_correction = yes
# filter_date = Sep 09 2024 17:11:32, 7.26.7.129
# filter_in = C:\R\Reservoirs\Data\DataNotYetUploadedToEDI\Raw_CTD\RawDownloads\090924_fcr40_S7809004.cnv
# filter_low_pass_tc_A = 0.030
# filter_low_pass_tc_B = 0.150
# filter_low_pass_A_vars = sbeox0Mg/L prdM prdE tv290C
# filter_low_pass_B_vars = depFM dz/dtM sbeox0PS specc c0uS/cm flECO-AFL ph orp par/sat/log turbWETntu0
# alignctd_date = Sep 09 2024 17:12:04, 7.26.7.129
# alignctd_in = C:\R\Reservoirs\Data\DataNotYetUploadedToEDI\Raw_CTD\RawDownloads\090924_fcr40_S7809004.cnv
# alignctd_adv = dz/dtM 1.000, sbeox0PS 1.000, specc 1.000, c0uS/cm 1.000, flECO-AFL 1.000, ph 1.000, orp 1.000, turbWETntu0 1.000                                                                                                   
# file_type = ascii
*END*
     -0.494      0.170     8.4517     94.197     43.048  39.794212     1.6162      7.858   166.3663 6.4175e+02     4.0466     -0.506     -0.734    20.2871 0.0000e+00
     -0.430      0.222     8.4062     94.522     42.838  39.710990     1.6713      7.844   166.3778 8.4665e+02     4.0413     -0.423     -0.613    20.5349 0.0000e+00
     -0.350      0.259     8.3641     95.031     42.683  39.641515     1.7930      7.826   166.6259 1.0703e+03     4.0527     -0.343     -0.498    20.8796 0.0000e+00
     -0.264      0.272     8.3646     95.656     42.662  39.652388     1.9804      7.812   166.7856 1.1440e+03     3.9448     -0.266     -0.386    21.0799 0.0000e+00
     -0.174      0.256     8.3581     96.264     42.720  39.715565     2.0733      7.803   166.9316 1.1155e+03     3.8634     -0.163     -0.235    21.2184 0.0000e+00
     -0.099      0.216     8.3586     96.777     42.768  39.770769     2.0918      7.797   167.0997 1.1176e+03     3.8894     -0.086     -0.125    21.3602 0.0000e+00
     -0.049      0.163     8.3919     97.171     42.798  39.812179     2.1041      7.793   167.2700 1.0871e+03     3.8492     -0.040     -0.059    21.4541 0.0000e+00
     -0.022      0.109     8.4490     97.446     42.810  39.835493     2.1142      7.791   167.5281 1.0059e+03     3.8210     -0.016     -0.023    21.4757 0.0000e+00
     -0.012      0.061     8.5046     97.596     42.761  39.798819     2.1310      7.791   167.7256 9.8894e+02     3.8901     -0.008     -0.012    21.4757 0.0000e+00
     -0.012      0.027     8.5482     97.604     42.705  39.749544     2.1322      7.790   167.8516 9.9807e+02     3.9673     -0.011     -0.015    21.4888 0.0000e+00
     -0.015      0.009     8.5802     97.527     42.700  39.747411     2.1362      7.788   168.1908 9.8828e+02     4.0371     -0.015     -0.022    21.5063 0.0000e+00
     -0.018      0.005     8.6009     97.462     42.723  39.773034     2.1805      7.786   168.6434 9.9237e+02     4.0164     -0.018     -0.026    21.5225 0.0000e+00
     -0.020      0.009     8.6152     97.450     42.754  39.805505     2.2432      7.783   168.9356 1.1415e+03     3.8541     -0.021     -0.031    21.5330 0.0000e+00
     -0.018      0.015     8.6123     97.450     42.771  39.822715     2.2693      7.782   169.1425 1.2781e+03     3.7138     -0.020     -0.029    21.5355 0.0000e+00
     -0.011      0.020     8.6019     97.396     42.740  39.790740     2.2635      7.783   169.3385 1.1567e+03     3.7218     -0.013     -0.019    21.5367 0.0000e+00
      0.000      0.024     8.5939     97.317     42.687  39.736197     2.3228      7.785   169.4121 1.0822e+03     3.8143      0.001      0.001    21.5424 0.0000e+00
      0.010      0.025     8.5929     97.257     42.691  39.734387     2.4536      7.788   169.4301 1.1279e+03     3.8752      0.012      0.018    21.5475 0.0000e+00
      0.014      0.023     8.5974     97.202     42.732  39.768847     2.5224      7.792   169.5562 1.0529e+03     3.8770      0.014      0.020    21.5485 0.0000e+00
      0.018      0.019     8.5901     97.133     42.738  39.772075     2.5134      7.796   169.7326 9.6055e+02     3.8023      0.016      0.024    21.5450 0.0000e+00
      0.022      0.015     8.5824     97.035     42.741  39.773418     2.5189      7.800   169.9278 9.8908e+02     3.7579      0.022      0.033    21.5385 0.0000e+00
      0.025      0.011     8.5800     96.904     42.751  39.785078     2.5564      7.802   170.1958 1.0238e+03     3.8527      0.025      0.036    21.5314 0.0000e+00
      0.028      0.006     8.5760     96.730     42.748  39.786137     2.5751      7.805   170.4774 9.6785e+02     3.9233      0.027      0.039    21.5267 0.0000e+00
      0.032      0.002     8.5710     96.283     42.743  39.786234     2.5707      7.807   170.7519 8.6596e+02     3.8600      0.032      0.047    21.5247 0.0000e+00
      0.033     -0.002     8.5627     94.929     42.738  39.786258     2.5782      7.809   171.0191 8.5628e+02     3.7701      0.034      0.050    21.5224 0.0000e+00
      0.028     -0.003     8.5508     92.199     42.730  39.786434     2.5988      7.811   171.2136 9.5609e+02     3.7593      0.028      0.041    21.5247 0.0000e+00
      0.023     -0.003     8.5357     88.321     42.722  39.788373     2.6194      7.813   171.2973 9.7134e+02     3.7969      0.020      0.029    21.5308 0.0000e+00
      0.021     -0.002     8.5223     83.932     42.735  39.809711     2.6202      7.816   171.4281 9.0751e+02     3.7805      0.019      0.029    21.5360 0.0000e+00
      0.022      0.001     8.4223     79.566     42.773  39.854054     2.6082      7.820   171.6761 8.9301e+02     3.6978      0.022      0.032    21.5405 0.0000e+00
      0.024      0.004     8.1685     75.582     42.795  39.880297     2.6568      7.824   171.8874 8.9395e+02     3.6516      0.024      0.034    21.5487 0.0000e+00
      0.027      0.005     7.8011     72.336     42.784  39.873174     2.7754      7.827   172.0042 8.9460e+02     3.7346      0.026      0.037    21.5616 0.0000e+00
      0.031      0.005     7.3949     70.041     42.739  39.831396     2.8525      7.830   172.1415 9.1555e+02     3.8816      0.031      0.045    21.5734 0.0000e+00
      0.031      0.003     7.0028     68.733     42.659  39.755944     2.8470      7.833   172.3426 8.7745e+02     3.8910      0.033      0.048    21.5828 0.0000e+00
      0.030     -0.000     6.6350     68.265     42.624  39.722422     2.8007      7.835   172.6296 8.1297e+02     3.7808      0.029      0.042    21.5910 0.0000e+00
      0.030     -0.004     6.3435     68.267     42.647  39.743388     2.7513      7.836   173.0301 8.3573e+02     3.7444      0.028      0.041    21.5950 0.0000e+00
      0.030     -0.005     6.1406     68.413     42.658  39.755605     2.7320      7.836   173.3129 8.8603e+02     3.7933      0.031      0.045    21.5953 0.0000e+00
      0.028     -0.005     6.0273     68.549     42.645  39.743216     2.7341      7.837   173.4677 9.7184e+02     3.8592      0.029      0.043    21.5930 0.0000e+00
      0.024     -0.003     6.0026     68.624     42.624  39.720511     2.7016      7.838   173.6969 1.1706e+03     3.8569      0.023      0.034    21.5898 0.0000e+00
      0.020     -0.001     6.0123     68.588     42.642  39.734932     2.6311      7.838   173.9335 1.2795e+03     3.7657      0.017      0.025    21.5908 0.0000e+00
      0.020      0.000     6.0290     68.378     42.701  39.790649     2.5966      7.838   174.1780 1.1178e+03     3.7132      0.018      0.026    21.5929 0.0000e+00
      0.025      0.001     6.0418     68.022     42.733  39.823017     2.6094      7.839   174.5017 8.8836e+02     3.7691      0.026      0.038    21.5934 0.0000e+00
      0.028      0.001     6.0496     67.627     42.714  39.808988     2.6277      7.840   174.7498 8.2947e+02     3.8263      0.029      0.043    21.5898 0.0000e+00
      0.028      0.001     6.0510     67.271     42.714  39.811413     2.6269      7.842   174.9416 8.6138e+02     3.7896      0.027      0.040    21.5843 0.0000e+00
      0.026      0.002     6.0309     66.937     42.757  39.852348     2.6084      7.843   175.0991 8.4147e+02     3.7361      0.025      0.036    21.5850 0.0000e+00
      0.024      0.004     5.9950     66.637     42.765  39.859693     2.6024      7.845   175.1060 8.4682e+02     3.7251      0.023      0.033    21.5903 0.0000e+00
      0.023      0.009     5.9561     66.497     42.741  39.836759     2.6380      7.847   175.1968 9.2216e+02     3.7600      0.021      0.031    21.5946 0.0000e+00
      0.025      0.014     5.9266     66.629     42.737  39.828901     2.6978      7.849   175.4228 1.0087e+03     3.7813      0.022      0.033    21.5968 0.0000e+00
      0.031      0.016     5.8981     67.070     42.742  39.828134     2.7257      7.852   175.6016 1.1045e+03     3.7441      0.029      0.042    21.5984 0.0000e+00
      0.041      0.016     5.8651     67.739     42.744  39.827484     2.7253      7.854   175.7232 1.1712e+03     3.7536      0.042      0.060    21.5997 0.0000e+00
      0.049      0.012     5.8500     68.474     42.738  39.821043     2.7436      7.857   175.8608 1.0742e+03     3.8287      0.050      0.073    21.5989 0.0000e+00
      0.051      0.005     5.8605     69.137     42.730  39.813714     2.7811      7.860   176.0606 9.1213e+02     3.8666      0.052      0.075    21.5921 0.0000e+00
      0.049     -0.003     5.9026     69.596     42.716  39.802336     2.8036      7.863   176.2471 8.8460e+02     3.8360      0.049      0.070    21.5840 0.0000e+00
      0.045     -0.009     5.9688     69.719     42.724  39.810398     2.7998      7.866   176.4807 9.1806e+02     3.7652      0.044      0.065    21.5819 0.0000e+00
      0.041     -0.011     6.0369     69.523     42.763  39.847732     2.7931      7.870   176.7339 9.3496e+02     3.7631      0.041      0.059    21.5821 0.0000e+00
      0.036     -0.009     6.0987     69.172     42.789  39.872958     2.8131      7.871   176.8128 9.2798e+02     3.8786      0.035      0.051    21.5828 0.0000e+00
      0.032     -0.003     6.1449     68.803     42.777  39.861554     2.8514      7.871   176.7470 8.9542e+02     3.9312      0.031      0.045    21.5840 0.0000e+00
      0.030      0.007     6.1555     68.478     42.752  39.836770     2.8730      7.870   176.7125 8.5653e+02     3.8192      0.027      0.040    21.5851 0.0000e+00
      0.032      0.017     6.1307     68.232     42.743  39.827149     2.8660      7.870   176.8258 8.8915e+02     3.6858      0.028      0.041    21.5861 0.0000e+00
      0.039      0.024     6.0954     68.078     42.725  39.808681     2.8665      7.870   177.0843 8.8810e+02     3.6848      0.036      0.052    21.5869 0.0000e+00
      0.051      0.025     6.0617     68.011     42.722  39.803859     2.8955      7.871   177.4294 7.6561e+02     3.7723      0.049      0.070    21.5870 0.0000e+00
      0.064      0.022     6.0319     68.041     42.754  39.832315     2.9178      7.872   177.7287 7.6829e+02     3.8214      0.064      0.093    21.5858 0.0000e+00
      0.073      0.017     6.0101     68.173     42.759  39.835430     2.9193      7.873   177.9494 8.2039e+02     3.8003      0.076      0.109    21.5843 0.0000e+00
      0.074      0.009     5.9973     68.317     42.699  39.778046     2.8963      7.874   178.2914 7.6612e+02     3.7906      0.075      0.108    21.5825 0.0000e+00
      0.069     -0.003     5.9916     68.307     42.631  39.709652     2.8651      7.876   178.6799 7.2848e+02     3.8410      0.065      0.095    21.5791 0.0000e+00
      0.066     -0.017     5.9927     68.019     42.633  39.706563     2.8499      7.877   178.9483 8.5073e+02     3.8634      0.062      0.089    21.5769 0.0000e+00
      0.066     -0.027     6.0078     67.469     42.672  39.740690     2.8378      7.879   179.2126 9.5060e+02     3.8559      0.066      0.095    21.5768 0.0000e+00
      0.061     -0.033     6.0267     66.833     42.673  39.741505     2.7770      7.882   179.3803 9.3093e+02     3.8194      0.066      0.096    21.5757 0.0000e+00
      0.046     -0.035     6.0310     66.286     42.648  39.716412     2.6636      7.885   179.4273 9.5177e+02     3.7297      0.046      0.067    21.5681 0.0000e+00
      0.027     -0.035     6.0067     65.853     42.624  39.691140     2.6070      7.886   179.5227 8.8285e+02     3.7275      0.023      0.033    21.5612 0.0000e+00
      0.015     -0.032     5.9513     65.439     42.628  39.689788     2.6254      7.887   179.5874 8.7105e+02     3.8265      0.013      0.019    21.5598 0.0000e+00
      0.010     -0.026     5.8885     64.938     42.651  39.700062     2.6536      7.890   179.6938 9.8230e+02     3.8679      0.009      0.014    21.5598 0.0000e+00
      0.008     -0.018     5.8399     64.334     42.656  39.688421     2.6650      7.892   179.9479 9.8755e+02     3.8179      0.008      0.012    21.5590 0.0000e+00
      0.007     -0.014     5.8066     63.738     42.660  39.675938     2.6541      7.893   180.1651 9.3173e+02     3.7683      0.007      0.011    21.5530 0.0000e+00
      0.006     -0.017     5.7738     63.241     42.675  39.676043     2.6555      7.895   180.3416 9.2044e+02     3.7806      0.006      0.008    21.5514 0.0000e+00
      0.004     -0.024     5.7324     62.878     42.698  39.689662     2.6739      7.898   180.6193 9.3773e+02     3.8302      0.004      0.006    21.5409 0.0000e+00
      0.000     -0.030     5.6765     62.736     42.726  39.713675     2.6840      7.900   180.8553 1.0146e+03     3.8561      0.004      0.006    21.5152 0.0000e+00
     -0.011     -0.034     5.6223     62.853     42.722  39.712532     2.6788      7.900   180.9573 1.1319e+03     3.8206     -0.009     -0.012    21.4962 0.0000e+00
     -0.028     -0.034     5.5820     63.093     42.680  39.675837     2.6612      7.901   181.0787 1.1674e+03     3.7759     -0.032     -0.045    21.4800 0.0000e+00
     -0.042     -0.030     5.5465     63.253     42.649  39.650785     2.6619      7.902   181.2902 1.1249e+03     3.7943     -0.043     -0.063    21.4681 0.0000e+00
     -0.049     -0.021     5.5313     63.225     42.659  39.663477     2.6798      7.903   181.5362 1.0515e+03     3.8036     -0.048     -0.070    21.4686 0.0000e+00
     -0.051     -0.009     5.5468     62.992     42.696  39.702374     2.6856      7.905   181.7300 1.0080e+03     3.8202     -0.052     -0.076    21.4726 0.0000e+00
     -0.050      0.002     5.5755     62.617     42.729  39.740326     2.6740      7.907   181.8263 1.0379e+03     3.8584     -0.051     -0.074    21.4753 0.0000e+00
     -0.046      0.009     5.5922     62.237     42.724  39.741592     2.6554      7.910   181.8403 1.0979e+03     3.7874     -0.045     -0.065    21.4795 0.0000e+00
     -0.041      0.011     5.5892     61.947     42.695  39.717685     2.6861      7.912   181.8995 1.1414e+03     3.7481     -0.039     -0.057    21.4836 0.0000e+00
     -0.037      0.011     5.5672     61.741     42.684  39.705117     2.7616      7.915   182.0254 1.1450e+03     3.7930     -0.036     -0.052    21.4881 0.0000e+00
     -0.033      0.009     5.5268     61.543     42.701  39.716553     2.8033      7.918   182.1575 1.1107e+03     3.8174     -0.032     -0.046    21.4973 0.0000e+00
     -0.031      0.005     5.4896     61.274     42.716  39.729029     2.7992      7.921   182.2927 1.0983e+03     3.8384     -0.030     -0.043    21.5072 0.0000e+00
     -0.031      0.001     5.4638     60.965     42.714  39.729037     2.7860      7.924   182.4556 1.1210e+03     3.8417     -0.030     -0.043    21.5113 0.0000e+00
     -0.032     -0.001     5.4487     60.715     42.697  39.716657     2.7935      7.926   182.6637 1.1541e+03     3.8573     -0.031     -0.045    21.5062 0.0000e+00
     -0.033     -0.003     5.4360     60.569     42.682  39.706272     2.8066      7.929   182.8303 1.1927e+03     3.8221     -0.032     -0.046    21.4986 0.0000e+00
     -0.034     -0.003     5.4110     60.532     42.707  39.730389     2.7951      7.931   183.0076 1.2032e+03     3.7232     -0.034     -0.048    21.4966 0.0000e+00
     -0.036     -0.003     5.3790     60.607     42.734  39.754410     2.7880      7.933   183.1731 1.1831e+03     3.6863     -0.035     -0.051    21.4999 0.0000e+00
     -0.037     -0.002     5.3551     60.742     42.723  39.742861     2.8123      7.936   183.1964 1.1675e+03     3.7523     -0.036     -0.052    21.5054 0.0000e+00
     -0.037      0.000     5.3429     60.872     42.698  39.717675     2.8468      7.939   183.2034 1.1695e+03     3.8377     -0.037     -0.053    21.5094 0.0000e+00
     -0.037      0.001     5.3378     60.987     42.684  39.703734     2.8733      7.942   183.3437 1.1840e+03     3.8306     -0.037     -0.054    21.5100 0.0000e+00
     -0.036      0.001     5.3469     60.972     42.683  39.701219     2.8740      7.945   183.5160 1.1991e+03     3.7682     -0.035     -0.051    21.5085 0.0000e+00
     -0.034     -0.002     5.3628     60.706     42.670  39.687269     2.8551      7.947   183.9955 1.2012e+03     3.7333     -0.033     -0.048    21.5062 0.0000e+00
     -0.034     -0.009     5.3718     60.281     42.646  39.661979     2.8449      7.948   184.7532 1.1807e+03     3.7502     -0.033     -0.047    21.5043 0.0000e+00
     -0.034     -0.018     5.3856     59.769     42.636  39.649295     2.8499      7.949   185.4501 1.1432e+03     3.8022     -0.032     -0.047    21.5029 0.0000e+00
     -0.038     -0.024     5.3937     59.168     42.651  39.660833     2.8579      7.949   191.0456 1.1118e+03     3.8152     -0.035     -0.051    21.5017 0.0000e+00
     -0.048     -0.028     5.3620     58.547     42.668  39.674556     2.8245      7.950   196.9118 1.1076e+03     3.7703     -0.045     -0.065    21.5001 0.0000e+00
     -0.063     -0.028     5.3229     57.991     42.684  39.688288     2.7542      7.953   192.7952 1.1064e+03     3.7369     -0.062     -0.091    21.4963 0.0000e+00
     -0.074     -0.022     5.2812     57.568     42.697  39.699931     2.7234      7.953   187.4748 1.0781e+03     3.7536     -0.076     -0.110    21.4922 0.0000e+00
     -0.080     -0.009     5.2236     57.296     42.684  39.688411     2.7353      7.950   186.8744 1.0390e+03     3.8014     -0.080     -0.116    21.4894 0.0000e+00
     -0.082      0.009     5.1679     57.164     42.670  39.675928     2.7490      7.946   186.9124 1.0167e+03     3.8029     -0.082     -0.119    21.4867 0.0000e+00
     -0.079      0.028     5.1153     57.138     42.671  39.675928     2.7638      7.943   186.9880 1.0307e+03     3.7373     -0.081     -0.118    21.4850 0.0000e+00
     -0.067      0.046     5.0786     57.161     42.686  39.688402     2.7727      7.940   186.8416 1.0850e+03     3.6922     -0.069     -0.100    21.4850 0.0000e+00
     -0.048      0.060     5.0545     57.207     42.701  39.699817     2.7737      7.938   186.5195 1.0995e+03     3.7362     -0.047     -0.068    21.4860 0.0000e+00
     -0.028      0.070     5.0435     57.280     42.690  39.687031     2.8017      7.938   186.2772 9.9522e+02     3.8579     -0.027     -0.040    21.4875 0.0000e+00
     -0.008      0.074     5.0439     57.346     42.664  39.660723     2.8362      7.938   186.2348 9.4199e+02     3.8996     -0.010     -0.015    21.4858 0.0000e+00
      0.014      0.070     5.0470     57.347     42.635  39.635567     2.8318      7.938   186.3512 9.2683e+02     3.7969      0.013      0.019    21.4828 0.0000e+00
      0.035      0.063     5.0502     57.223     42.634  39.636722     2.8320      7.937   186.4799 7.7371e+02     3.7430      0.037      0.052    21.4816 0.0000e+00
      0.052      0.060     5.0585     56.952     42.674  39.674694     2.8718      7.935   186.5863 6.3632e+02     3.7949      0.055      0.079    21.4772 0.0000e+00
      0.062      0.065     5.0666     56.623     42.718  39.713904     2.9215      7.934   186.6908 6.0503e+02     3.8433      0.064      0.093    21.4739 0.0000e+00
      0.067      0.076     5.0682     56.451     42.736  39.730037     2.9343      7.933   186.7977 6.3851e+02     3.8501      0.063      0.091    21.4762 0.0000e+00
      0.078      0.092     5.0587     56.577     42.751  39.742834     2.9102      7.932   187.0186 6.9092e+02     3.8087      0.069      0.101    21.4807 0.0000e+00
      0.105      0.110     5.0319     56.916     42.751  39.741701     2.8964      7.932   187.2970 6.9679e+02     3.7528      0.096      0.139    21.4815 0.0000e+00
      0.146      0.126     4.9955     57.369     42.724  39.716337     2.9164      7.933   187.4955 6.2179e+02     3.7551      0.143      0.207    21.4786 0.0000e+00
      0.191      0.134     4.9724     57.887     42.697  39.690010     2.9524      7.934   187.7842 5.2519e+02     3.8371      0.191      0.277    21.4780 0.0000e+00
      0.232      0.133     4.9908     58.349     42.683  39.677221     2.9655      7.936   188.2067 5.1084e+02     3.8553      0.228      0.330    21.4764 0.0000e+00
      0.267      0.123     5.0244     58.671     42.694  39.688635     2.9590      7.938   188.8183 6.2479e+02     3.7698      0.265      0.383    21.4746 0.0000e+00
      0.295      0.108     5.0624     58.801     42.705  39.701097     2.9978      7.939   189.5867 7.2360e+02     3.7599      0.293      0.424    21.4754 0.0000e+00
      0.315      0.096     5.1156     58.740     42.705  39.700972     3.0771      7.939   190.2697 6.2310e+02     3.8386      0.308      0.448    21.4731 0.0000e+00
      0.334      0.086     5.1574     58.605     42.692  39.687126     3.1110      7.939   190.8822 5.0912e+02     3.9015      0.329      0.477    21.4729 0.0000e+00
      0.353      0.076     5.1871     58.483     42.664  39.660597     3.0993      7.939   191.3128 5.0538e+02     3.9057      0.345      0.500    21.4754 0.0000e+00
      0.375      0.065     5.2005     58.371     42.635  39.634058     3.1350      7.940   191.4318 5.3595e+02     3.8206      0.367      0.531    21.4783 0.0000e+00
      0.396      0.050     5.1886     58.244     42.620  39.620108     3.2431      7.943   191.4605 5.8480e+02     3.7611      0.393      0.568    21.4787 0.0000e+00
      0.411      0.033     5.1744     58.046     42.627  39.618852     3.3247      7.945   191.6601 6.0954e+02     3.8352      0.405      0.588    21.4744 0.0000e+00
      0.417      0.014     5.1651     57.746     42.643  39.618852     3.3400      7.946   191.9528 6.1105e+02     3.8966      0.411      0.597    21.4738 0.0000e+00
      0.415     -0.001     5.1548     57.391     42.661  39.620093     3.2859      7.949   192.1600 6.3109e+02     3.8205      0.410      0.594    21.4768 0.0000e+00
      0.406     -0.011     5.1456     57.067     42.687  39.633835     3.1780      7.951   192.2726 6.0014e+02     3.7010      0.399      0.579    21.4791 0.0000e+00
      0.395     -0.015     5.1307     56.837     42.718  39.658066     3.1339      7.954   192.4539 4.9137e+02     3.7152      0.385      0.559    21.4714 0.0000e+00
      0.388     -0.012     5.1043     56.723     42.720  39.659211     3.1609      7.956   192.8037 4.4799e+02     3.8216      0.378      0.548    21.4491 0.0000e+00
      0.388     -0.005     5.0720     56.755     42.707  39.647683     3.1714      7.958   193.2331 4.6348e+02     3.8603      0.381      0.552    21.4278 0.0000e+00
      0.390      0.003     5.0420     56.929     42.704  39.645605     3.1533      7.959   193.6007 4.7368e+02     3.8417      0.382      0.555    21.4175 0.0000e+00
      0.393      0.011     5.0223     57.179     42.689  39.634085     3.1338      7.961   193.8925 5.0178e+02     3.8016      0.385      0.558    21.4126 0.0000e+00
      0.397      0.017     5.0112     57.473     42.688  39.635324     3.1348      7.963   194.2663 4.8947e+02     3.7856      0.390      0.566    21.4114 0.0000e+00
      0.402      0.023     5.0127     57.741     42.712  39.660594     3.1399      7.964   194.6796 4.3708e+02     3.7850      0.394      0.572    21.4124 0.0000e+00
      0.408      0.031     5.0324     57.863     42.735  39.685777     3.1378      7.963   195.0181 4.0692e+02     3.7591      0.400      0.579    21.4140 0.0000e+00
      0.415      0.041     5.0538     57.856     42.731  39.685967     3.1421      7.963   195.3470 3.9774e+02     3.7805      0.407      0.589    21.4169 0.0000e+00
      0.424      0.051     5.0806     57.836     42.704  39.662890     3.1417      7.963   195.7309 4.0247e+02     3.8039      0.414      0.600    21.4197 0.0000e+00
      0.439      0.058     5.1111     57.828     42.699  39.660602     3.1415      7.964   196.0464 4.2494e+02     3.8025      0.426      0.619    21.4222 0.0000e+00
      0.460      0.063     5.1198     57.749     42.692  39.658314     3.1403      7.965   196.3217 4.4107e+02     3.9013      0.450      0.653    21.4270 0.0000e+00
      0.482      0.065     5.1129     57.524     42.663  39.635228     3.1180      7.964   196.6508 4.3501e+02     4.0419      0.476      0.691    21.4334 0.0000e+00
      0.499      0.065     5.1104     57.149     42.660  39.635322     3.0890      7.964   196.9278 4.2306e+02     4.0675      0.492      0.712    21.4347 0.0000e+00
      0.512      0.063     5.1134     56.703     42.684  39.659457     3.0808      7.965   197.1768 4.1796e+02     4.0064      0.502      0.728    21.4358 0.0000e+00
      0.525      0.059     5.1084     56.258     42.698  39.673188     3.1605      7.968   197.4246 4.2921e+02     3.9862      0.515      0.746    21.4417 0.0000e+00
      0.540      0.057     5.0885     55.818     42.698  39.674425     3.3034      7.969   197.6001 4.4157e+02     4.0275      0.529      0.766    21.4466 0.0000e+00
      0.556      0.057     5.0516     55.378     42.698  39.674425     3.3777      7.969   197.7501 4.5113e+02     4.0622      0.545      0.791    21.4500 0.0000e+00
      0.572      0.057     5.0091     55.016     42.697  39.673177     3.3852      7.969   197.9478 4.8758e+02     4.0646      0.561      0.813    21.4524 0.0000e+00
      0.586      0.057     4.9700     54.816     42.683  39.659333     3.4020      7.970   198.1839 4.9864e+02     4.0223      0.574      0.832    21.4537 0.0000e+00
      0.600      0.055     4.9327     54.741     42.658  39.633968     3.4472      7.972   198.3669 4.5227e+02     3.9943      0.588      0.853    21.4543 0.0000e+00
      0.615      0.052     4.8906     54.717     42.645  39.620331     3.4900      7.972   198.5264 4.1752e+02     4.0344      0.603      0.875    21.4547 0.0000e+00
      0.629      0.049     4.8538     54.691     42.648  39.621361     3.4945      7.973   198.8211 4.2044e+02     4.0289      0.617      0.895    21.4552 0.0000e+00
      0.641      0.047     4.8394     54.606     42.676  39.646421     3.4516      7.976   199.1777 4.4281e+02     3.8931      0.629      0.912    21.4536 0.0000e+00
      0.651      0.045     4.8354     54.450     42.702  39.669487     3.3964      7.977   199.3966 4.3170e+02     3.7242      0.639      0.926    21.4505 0.0000e+00
      0.661      0.043     4.8347     54.256     42.678  39.646399     3.3760      7.977   199.4879 3.9940e+02     3.6952      0.648      0.940    21.4478 0.0000e+00
      0.671      0.042     4.8348     54.038     42.652  39.621111     3.3801      7.977   199.5939 4.0280e+02     3.7808      0.657      0.953    21.4461 0.0000e+00
      0.683      0.043     4.8283     53.790     42.649  39.617574     3.3798      7.978   199.7309 3.9870e+02     3.8023      0.670      0.971    21.4456 0.0000e+00
      0.694      0.044     4.8120     53.535     42.636  39.603633     3.3966      7.979   199.8549 3.8441e+02     3.8189      0.683      0.989    21.4448 0.0000e+00
      0.704      0.044     4.7950     53.332     42.611  39.579478     3.4421      7.979   200.0599 3.8327e+02     3.9144      0.690      1.000    21.4433 0.0000e+00
      0.715      0.044     4.7769     53.239     42.612  39.579362     3.4809      7.979   200.3172 3.8086e+02     4.0334      0.700      1.016    21.4426 0.0000e+00
      0.728      0.039     4.7535     53.236     42.637  39.602229     3.5077      7.979   200.4704 3.8993e+02     4.1306      0.715      1.036    21.4415 0.0000e+00
      0.741      0.033     4.7303     53.242     42.637  39.602105     3.5412      7.980   200.6218 3.8746e+02     4.0995      0.727      1.055    21.4395 0.0000e+00
      0.751      0.025     4.7088     53.181     42.611  39.577864     3.5786      7.981   200.7714 3.7151e+02     3.9988      0.738      1.069    21.4380 0.0000e+00
      0.757      0.015     4.7021     53.018     42.594  39.562988     3.5934      7.982   200.9025 3.6774e+02     3.9718      0.744      1.079    21.4372 0.0000e+00
      0.758      0.008     4.7048     52.774     42.582  39.549163     3.5944      7.984   201.0887 3.7228e+02     4.0128      0.744      1.079    21.4361 0.0000e+00
      0.754      0.004     4.7078     52.460     42.577  39.537626     3.5830      7.985   201.3020 3.8272e+02     4.0153      0.739      1.072    21.4348 0.0000e+00
      0.750      0.005     4.7044     52.085     42.600  39.550414     3.5387      7.985   201.5885 3.8157e+02     3.9001      0.736      1.067    21.4353 0.0000e+00
      0.749      0.012     4.6873     51.679     42.636  39.576838     3.4996      7.984   201.7991 3.7811e+02     3.7824      0.734      1.065    21.4378 0.0000e+00
      0.752      0.022     4.6665     51.298     42.669  39.603263     3.4847      7.983   201.9561 3.8975e+02     3.7530      0.737      1.068    21.4368 0.0000e+00
      0.759      0.033     4.6391     51.001     42.684  39.616060     3.4844      7.983   202.1956 3.9190e+02     3.8513      0.743      1.077    21.4272 0.0000e+00
      0.771      0.043     4.6066     50.791     42.671  39.604647     3.4956      7.983   202.2860 3.7110e+02     4.0153      0.754      1.094    21.4142 0.0000e+00
      0.787      0.049     4.5696     50.654     42.659  39.592195     3.4943      7.984   202.2741 3.4370e+02     4.0275      0.772      1.120    21.4052 0.0000e+00
      0.804      0.051     4.5335     50.577     42.660  39.592426     3.4861      7.986   202.3970 3.2455e+02     3.9652      0.789      1.144    21.4011 0.0000e+00
      0.819      0.050     4.5077     50.501     42.677  39.607427     3.5123      7.987   202.5669 3.3214e+02     4.0136      0.804      1.167    21.4007 0.0000e+00
      0.831      0.050     4.4903     50.404     42.718  39.646649     3.5702      7.988   202.6931 3.4656e+02     4.0997      0.817      1.185    21.4014 0.0000e+00
      0.840      0.052     4.4773     50.391     42.757  39.685898     3.6122      7.988   202.8048 3.2904e+02     4.1178      0.826      1.197    21.4008 0.0000e+00
      0.848      0.056     4.4733     50.666     42.770  39.701213     3.6127      7.987   202.8845 3.0669e+02     4.0615      0.831      1.205    21.3992 0.0000e+00
      0.860      0.059     4.4691     51.906     42.774  39.704895     3.6011      7.987   202.9688 3.1390e+02     4.0348      0.841      1.220    21.3971 0.0000e+00
      0.879      0.060     4.4552     55.283     42.807  39.730414     3.6048      7.987   203.1348 3.2402e+02     4.0683      0.861      1.248    21.3974 0.0000e+00
      0.903      0.057     4.4497     60.929     42.839  39.755907     3.6068      7.988   203.3440 3.0792e+02     4.0564      0.886      1.285    21.4022 0.0000e+00
      0.924      0.051     4.4608     67.411     42.845  39.759274     3.6093      7.990   203.5194 2.9481e+02     4.0274      0.911      1.321    21.4094 0.0000e+00
      0.936      0.045     4.5150     73.376     42.859  39.771127     3.6101      7.990   203.7066 2.9621e+02     4.0250      0.922      1.336    21.4094 0.0000e+00
      0.940      0.039     4.7995     78.218     42.860  39.772290     3.6000      7.991   203.8862 2.9481e+02     4.0271      0.922      1.337    21.4009 0.0000e+00
      0.942      0.036     5.3711     81.720     42.861  39.773341     3.5955      7.993   203.9704 2.9432e+02     4.0536      0.921      1.336    21.3948 0.0000e+00
      0.948      0.039     5.9848     83.804     42.872  39.783832     3.6058      7.994   203.9501 2.9019e+02     4.1058      0.927      1.344    21.3927 0.0000e+00
      0.958      0.046     6.5266     84.447     42.861  39.772208     3.6161      7.994   203.9850 2.8432e+02     4.1455      0.940      1.362    21.3926 0.0000e+00
      0.973      0.052     6.9614     83.884     42.850  39.759716     3.5949      7.995   204.2200 2.7802e+02     4.1243      0.954      1.383    21.3934 0.0000e+00
      0.992      0.053     7.2704     82.648     42.851  39.759715     3.5583      7.996   204.3823 2.6174e+02     4.0883      0.973      1.411    21.3935 0.0000e+00
      1.011      0.050     7.4601     81.325     42.865  39.772200     3.5398      7.997   204.3992 2.5337e+02     4.0524      0.994      1.442    21.3932 0.0000e+00
      1.025      0.044     7.5089     80.255     42.876  39.783737     3.5449      7.998   204.5102 2.5903e+02     4.0314      1.008      1.461    21.3914 0.0000e+00
      1.033      0.038     7.4422     79.464     42.862  39.772294     3.5788      7.999   204.6919 2.5638e+02     4.0392      1.015      1.472    21.3885 0.0000e+00
      1.037      0.033     7.3115     78.858     42.849  39.760764     3.6084      8.000   204.8754 2.5055e+02     3.9767      1.018      1.477    21.3869 0.0000e+00
      1.040      0.030     7.1842     78.391     42.862  39.771263     3.6032      8.001   205.0948 2.4801e+02     3.9586      1.018      1.477    21.3865 0.0000e+00
      1.046      0.028     7.0901     78.047     42.864  39.772304     3.5995      8.002   205.2800 2.4178e+02     4.0595      1.023      1.484    21.3885 0.0000e+00
      1.058      0.028     7.0247     77.804     42.865  39.773354     3.6297      8.002   205.3079 2.3706e+02     4.0690      1.037      1.505    21.3913 0.0000e+00
      1.070      0.027     6.9714     77.639     42.875  39.783947     3.6690      8.003   205.2596 2.3327e+02     3.9371      1.051      1.525    21.3914 0.0000e+00
      1.077      0.026     6.9307     77.504     42.864  39.773466     3.6758      8.005   205.2981 2.3172e+02     3.8311      1.057      1.533    21.3897 0.0000e+00
      1.081      0.025     6.9013     77.379     42.864  39.773553     3.6618      8.005   205.4283 2.3428e+02     3.8123      1.060      1.537    21.3890 0.0000e+00
      1.084      0.023     6.8798     77.297     42.877  39.784997     3.6907      8.006   205.6298 2.4096e+02     3.8793      1.063      1.542    21.3891 0.0000e+00
      1.087      0.023     6.8672     77.258     42.879  39.784902     3.7587      8.007   205.8417 2.4543e+02     4.0268      1.065      1.544    21.3896 0.0000e+00
      1.093      0.025     6.8565     77.215     42.866  39.772410     3.8015      8.008   205.9256 2.3740e+02     4.0929      1.070      1.552    21.3902 0.0000e+00
      1.103      0.027     6.8431     77.164     42.854  39.760879     3.8000      8.009   205.9552 2.3090e+02     4.0298      1.082      1.570    21.3904 0.0000e+00
      1.112      0.030     6.8358     77.137     42.865  39.772409     3.7750      8.011   206.0274 2.3011e+02     3.9813      1.091      1.583    21.3894 0.0000e+00
      1.119      0.032     6.8355     77.156     42.879  39.784891     3.7740      8.012   206.1107 2.2631e+02     3.9852      1.097      1.590    21.3868 0.0000e+00
      1.125      0.032     6.8317     77.217     42.880  39.784881     3.7952      8.012   206.2748 2.2381e+02     4.0073      1.104      1.600    21.3854 0.0000e+00
      1.133      0.032     6.8255     77.291     42.868  39.772285     3.7983      8.013   206.4632 2.2188e+02     4.0437      1.110      1.610    21.3862 0.0000e+00
      1.142      0.032     6.8222     77.355     42.856  39.759507     3.7870      8.015   206.5815 2.1778e+02     4.0501      1.120      1.624    21.3878 0.0000e+00
      1.151      0.033     6.8238     77.429     42.854  39.757304     3.7747      8.015   206.6726 2.1517e+02     4.0502      1.129      1.637    21.3884 0.0000e+00
      1.159      0.035     6.8304     77.519     42.841  39.745651     3.7744      8.016   206.7897 2.1659e+02     4.1133      1.136      1.647    21.3868 0.0000e+00
      1.168      0.039     6.8390     77.584     42.841  39.745536     3.7837      8.016   206.9648 2.1668e+02     4.1645      1.145      1.661    21.3837 0.0000e+00
      1.177      0.044     6.8436     77.605     42.851  39.755920     3.7958      8.016   207.0691 2.1252e+02     4.1572      1.155      1.675    21.3814 0.0000e+00
      1.185      0.048     6.8493     77.586     42.838  39.744267     3.7874      8.016   207.1046 2.0928e+02     4.0926      1.161      1.684    21.3816 0.0000e+00
      1.198      0.052     6.8597     77.521     42.828  39.731566     3.7482      8.016   207.2217 2.0727e+02     4.0316      1.171      1.699    21.3818 0.0000e+00
      1.216      0.056     6.8658     77.441     42.831  39.729277     3.7299      8.016   207.3664 2.0490e+02     4.0697      1.194      1.731    21.3820 0.0000e+00
      1.234      0.058     6.8664     77.372     42.824  39.716587     3.7324      8.015   207.4784 2.0200e+02     4.0755      1.213      1.759    21.3844 0.0000e+00
      1.249      0.059     6.8661     77.325     42.816  39.705039     3.7118      8.015   207.5425 1.9930e+02     3.9985      1.224      1.776    21.3849 0.0000e+00
      1.262      0.057     6.8592     77.324     42.832  39.716577     3.6811      8.016   207.5397 1.9840e+02     3.9928      1.238      1.795    21.3810 0.0000e+00
      1.277      0.052     6.8516     77.378     42.847  39.729164     3.6690      8.017   207.6162 1.9500e+02     4.0404      1.252      1.816    21.3741 0.0000e+00
      1.291      0.046     6.8474     77.452     42.850  39.730299     3.6744      8.018   207.8650 1.9070e+02     4.0623      1.266      1.836    21.3664 0.0000e+00
      1.305      0.040     6.8424     77.518     42.850  39.730299     3.6869      8.018   208.0532 1.9093e+02     4.0529      1.281      1.858    21.3607 0.0000e+00
      1.315      0.034     6.8423     77.592     42.849  39.729164     3.7044      8.019   208.0843 1.9054e+02     3.9952      1.289      1.872    21.3576 0.0000e+00
      1.320      0.029     6.8488     77.676     42.835  39.716578     3.7191      8.019   208.1551 1.8869e+02     3.9443      1.295      1.879    21.3558 0.0000e+00
      1.324      0.025     6.8570     77.743     42.823  39.705038     3.7235      8.020   208.3066 1.8658e+02     3.9843      1.299      1.883    21.3548 0.0000e+00
      1.328      0.024     6.8615     77.771     42.837  39.716568     3.7244      8.021   208.4536 1.8500e+02     4.0347      1.303      1.889    21.3546 0.0000e+00
      1.334      0.025     6.8678     77.742     42.852  39.729051     3.7463      8.021   208.5559 1.8593e+02     3.9391      1.308      1.897    21.3546 0.0000e+00
      1.341      0.028     6.8768     77.654     42.854  39.729051     3.7965      8.022   208.5979 1.8395e+02     3.7501      1.314      1.905    21.3544 0.0000e+00
      1.349      0.032     6.8830     77.548     42.843  39.716559     3.8319      8.023   208.5313 1.7959e+02     3.6626      1.322      1.918    21.3545 0.0000e+00
      1.359      0.037     6.8863     77.458     42.832  39.704925     3.8329      8.024   208.5247 1.7847e+02     3.7350      1.333      1.933    21.3537 0.0000e+00
      1.367      0.044     6.8845     77.379     42.845  39.715310     3.8505      8.024   208.7755 1.7922e+02     3.9077      1.342      1.945    21.3512 0.0000e+00
      1.376      0.053     6.8756     77.336     42.848  39.715196     3.8870      8.024   209.0692 1.7772e+02     4.0433      1.348      1.954    21.3479 0.0000e+00
      1.388      0.062     6.8645     77.352     42.839  39.703545     3.8998      8.023   209.2364 1.7385e+02     4.0078      1.359      1.970    21.3461 0.0000e+00
      1.407      0.071     6.8583     77.402     42.839  39.701352     3.8967      8.023   209.3350 1.7014e+02     3.9237      1.379      2.000    21.3457 0.0000e+00
      1.429      0.077     6.8502     77.466     42.829  39.688679     3.8667      8.023   209.4002 1.6674e+02     3.9485      1.401      2.032    21.3431 0.0000e+00
      1.453      0.078     6.8451     77.536     42.819  39.677236     3.8194      8.022   209.5089 1.6216e+02     4.0343      1.425      2.068    21.3394 0.0000e+00
      1.477      0.073     6.8494     77.615     42.834  39.689918     3.7911      8.022   209.6159 1.5789e+02     4.0389      1.448      2.101    21.3359 0.0000e+00
      1.498      0.063     6.8541     77.682     42.862  39.715093     3.7736      8.022   209.6622 1.5494e+02     3.9696      1.470      2.132    21.3325 0.0000e+00
      1.513      0.050     6.8607     77.709     42.876  39.727775     3.7669      8.022   209.8102 1.5213e+02     3.9484      1.487      2.156    21.3293 0.0000e+00
      1.523      0.039     6.8670     77.720     42.864  39.716332     3.7759      8.023   209.9431 1.5144e+02     3.9875      1.496      2.169    21.3264 0.0000e+00
      1.528      0.031     6.8744     77.723     42.851  39.703660     3.7915      8.024   209.9779 1.5282e+02     4.0661      1.499      2.174    21.3245 0.0000e+00
      1.529      0.028     6.8831     77.703     42.849  39.701476     3.7971      8.025   210.1456 1.5226e+02     4.0790      1.500      2.175    21.3236 0.0000e+00
      1.532      0.028     6.8829     77.688     42.837  39.689929     3.8024      8.025   210.3359 1.4946e+02     3.9381      1.501      2.176    21.3232 0.0000e+00
      1.539      0.031     6.8840     77.684     42.840  39.690969     3.8212      8.025   210.4719 1.4683e+02     3.7980      1.507      2.185    21.3230 0.0000e+00
      1.550      0.035     6.8859     77.674     42.865  39.714045     3.8333      8.026   210.5855 1.4574e+02     3.7853      1.520      2.205    21.3230 0.0000e+00
      1.564      0.036     6.8819     77.627     42.866  39.715094     3.8409      8.027   210.5908 1.4517e+02     3.8188      1.535      2.226    21.3224 0.0000e+00
      1.576      0.034     6.8810     77.525     42.853  39.703650     3.8468      8.027   210.6216 1.4342e+02     3.8263      1.546      2.243    21.3211 0.0000e+00
      1.585      0.030     6.8817     77.442     42.851  39.702601     3.8631      8.027   210.7004 1.4163e+02     3.8425      1.555      2.255    21.3201 0.0000e+00
      1.591      0.025     6.8810     77.425     42.850  39.702411     3.9039      8.028   210.7693 1.4072e+02     3.9135      1.561      2.265    21.3195 0.0000e+00
      1.594      0.021     6.8797     77.429     42.849  39.701352     3.9328      8.029   210.8520 1.4001e+02     4.0013      1.563      2.267    21.3196 0.0000e+00
      1.596      0.020     6.8660     77.421     42.837  39.689803     3.9458      8.029   210.9255 1.3989e+02     4.0497      1.564      2.269    21.3203 0.0000e+00
      1.601      0.022     6.8563     77.395     42.837  39.689699     3.9288      8.029   210.9704 1.4041e+02     3.9856      1.570      2.277    21.3213 0.0000e+00
      1.606      0.027     6.8585     77.375     42.850  39.700085     3.8688      8.029   210.9647 1.4018e+02     3.8074      1.574      2.283    21.3224 0.0000e+00
      1.613      0.033     6.8580     77.363     42.838  39.688451     3.8354      8.030   211.0291 1.3813e+02     3.7052      1.580      2.291    21.3228 0.0000e+00
      1.622      0.038     6.8595     77.344     42.825  39.675959     3.8419      8.030   211.2324 1.3540e+02     3.7744      1.590      2.306    21.3223 0.0000e+00
      1.634      0.042     6.8545     77.329     42.825  39.675969     3.8389      8.030   211.4430 1.3396e+02     3.9274      1.601      2.323    21.3210 0.0000e+00
      1.647      0.046     6.8539     77.334     42.840  39.688565     3.8072      8.029   211.5970 1.3314e+02     4.0179      1.615      2.343    21.3193 0.0000e+00
      1.659      0.050     6.8537     77.369     42.855  39.701333     3.7672      8.028   211.7184 1.3160e+02     3.9801      1.627      2.359    21.3185 0.0000e+00
      1.670      0.051     6.8512     77.439     42.858  39.703421     3.7707      8.029   211.7923 1.3012e+02     3.9488      1.637      2.374    21.3179 0.0000e+00
      1.683      0.051     6.8495     77.532     42.870  39.713816     3.8419      8.031   211.8013 1.2827e+02     3.9469      1.649      2.392    21.3172 0.0000e+00
      1.698      0.050     6.8497     77.611     42.856  39.700084     3.9287      8.032   211.8283 1.2487e+02     3.8886      1.665      2.415    21.3168 0.0000e+00
      1.714      0.048     6.8528     77.657     42.818  39.664315     3.9547      8.032   211.9459 1.2196e+02     3.8243      1.683      2.441    21.3163 0.0000e+00
      1.726      0.048     6.8589     77.659     42.816  39.662102     3.9396      8.032   212.1053 1.2094e+02     3.7843      1.694      2.457    21.3151 0.0000e+00
      1.735      0.048     6.8699     77.634     42.829  39.673337     3.9872      8.032   212.2063 1.2035e+02     3.8154      1.700      2.467    21.3138 0.0000e+00
      1.744      0.049     6.8761     77.599     42.830  39.673223     4.0972      8.032   212.2218 1.1929e+02     3.9612      1.709      2.480    21.3128 0.0000e+00
      1.755      0.050     6.8819     77.556     42.818  39.660730     4.1549      8.032   212.2062 1.1794e+02     4.0777      1.720      2.495    21.3123 0.0000e+00
      1.770      0.051     6.8808     77.510     42.807  39.649200     4.1435      8.033   212.2747 1.1655e+02     4.0295      1.735      2.517    21.3121 0.0000e+00
      1.788      0.051     6.8783     77.468     42.822  39.660739     4.1256      8.034   212.4492 1.1457e+02     3.9252      1.754      2.544    21.3114 0.0000e+00
      1.803      0.050     6.8755     77.429     42.837  39.673327     4.1132      8.035   212.5944 1.1242e+02     3.9433      1.770      2.567    21.3099 0.0000e+00
      1.814      0.047     6.8716     77.378     42.839  39.674472     4.1013      8.035   212.7397 1.1130e+02     4.0438      1.781      2.582    21.3081 0.0000e+00
      1.823      0.043     6.8676     77.315     42.841  39.674576     4.0991      8.035   212.8298 1.1060e+02     4.0816      1.786      2.591    21.3060 0.0000e+00
      1.833      0.042     6.8638     77.270     42.842  39.674586     4.0867      8.036   212.8236 1.0982e+02     4.0237      1.796      2.605    21.3041 0.0000e+00
      1.843      0.042     6.8616     77.256     42.843  39.674587     4.0183      8.036   212.9218 1.0889e+02     3.9590      1.808      2.623    21.3028 0.0000e+00
      1.853      0.044     6.8572     77.242     42.844  39.674587     3.9378      8.036   213.0704 1.0755e+02     3.9824      1.817      2.635    21.3011 0.0000e+00
      1.864      0.048     6.8509     77.221     42.845  39.674588     3.9209      8.036   213.1579 1.0590e+02     4.0670      1.827      2.649    21.2995 0.0000e+00
      1.877      0.052     6.8456     77.186     42.846  39.674588     3.9309      8.036   213.2063 1.0401e+02     4.1288      1.840      2.669    21.2981 0.0000e+00
      1.891      0.055     6.8472     77.126     42.847  39.674588     3.9326      8.036   213.2243 1.0245e+02     4.0799      1.855      2.691    21.2969 0.0000e+00
      1.906      0.056     6.8456     77.061     42.849  39.674588     3.9418      8.036   213.2907 1.0120e+02     3.9546      1.869      2.710    21.2956 0.0000e+00
      1.921      0.054     6.8436     77.001     42.850  39.674588     3.9589      8.037   213.4064 9.9422e+01     3.9456      1.883      2.731    21.2949 0.0000e+00
      1.938      0.051     6.8422     76.940     42.850  39.674589     3.9811      8.038   213.5046 9.7353e+01     4.0393      1.902      2.758    21.2946 0.0000e+00
      1.952      0.047     6.8351     76.889     42.850  39.674589     4.0605      8.039   213.6174 9.5972e+01     4.0632      1.917      2.780    21.2933 0.0000e+00
      1.961      0.045     6.8296     76.880     42.850  39.674590     4.1864      8.039   213.7375 9.5188e+01     3.9948      1.925      2.792    21.2911 0.0000e+00
      1.968      0.045     6.8250     76.911     42.851  39.674599     4.2387      8.039   213.7526 9.4617e+01     3.9297      1.929      2.798    21.2898 0.0000e+00
      1.978      0.045     6.8196     76.946     42.851  39.674703     4.2435      8.038   213.7136 9.3847e+01     3.9591      1.938      2.811    21.2892 0.0000e+00
      1.990      0.046     6.8133     76.967     42.853  39.675848     4.2775      8.038   213.7821 9.2476e+01     4.0082      1.952      2.831    21.2891 0.0000e+00
      2.004      0.049     6.8122     76.979     42.867  39.688435     4.3083      8.039   213.9784 9.1099e+01     4.0114      1.966      2.852    21.2892 0.0000e+00
      2.018      0.050     6.8175     76.994     42.880  39.699975     4.3081      8.040   214.1943 9.0005e+01     3.9982      1.978      2.870    21.2886 0.0000e+00
      2.031      0.049     6.8205     77.025     42.868  39.688445     4.2917      8.040   214.3274 8.8837e+01     3.9862      1.992      2.889    21.2881 0.0000e+00
      2.045      0.048     6.8224     77.053     42.855  39.675952     4.2431      8.040   214.4700 8.7587e+01     4.0366      2.007      2.909    21.2876 0.0000e+00
      2.057      0.049     6.8234     77.062     42.855  39.675848     4.1533      8.041   214.6279 8.6597e+01     4.0603      2.018      2.927    21.2873 0.0000e+00
      2.066      0.051     6.8234     77.063     42.868  39.687187     4.0968      8.042   214.6879 8.5862e+01     4.0338      2.026      2.938    21.2868 0.0000e+00
      2.076      0.056     6.8277     77.065     42.867  39.686129     4.0762      8.042   214.7652 8.4864e+01     4.0240      2.034      2.950    21.2864 0.0000e+00
      2.090      0.062     6.8311     77.080     42.843  39.663052     4.0617      8.040   214.8739 8.3425e+01     3.9757      2.048      2.971    21.2860 0.0000e+00
      2.108      0.067     6.8305     77.117     42.844  39.662003     4.1294      8.040   214.8836 8.1666e+01     3.9957      2.067      2.999    21.2857 0.0000e+00
      2.130      0.070     6.8311     77.152     42.858  39.673447     4.2549      8.040   214.8832 7.9810e+01     4.0954      2.089      3.029    21.2854 0.0000e+00
      2.151      0.071     6.8309     77.145     42.861  39.674487     4.3046      8.040   214.9542 7.8140e+01     4.0887      2.111      3.061    21.2847 0.0000e+00
      2.170      0.068     6.8314     77.069     42.862  39.674580     4.2894      8.040   215.0543 7.6878e+01     4.0172      2.130      3.089    21.2834 0.0000e+00
      2.186      0.063     6.8365     76.950     42.863  39.674580     4.2713      8.040   215.1475 7.5858e+01     4.0166      2.143      3.108    21.2814 0.0000e+00
      2.201      0.057     6.8406     76.851     42.863  39.674477     4.2604      8.041   215.2207 7.4757e+01     4.0819      2.158      3.129    21.2795 0.0000e+00
      2.216      0.052     6.8420     76.804     42.862  39.673332     4.2650      8.042   215.3366 7.3830e+01     4.1239      2.175      3.154    21.2777 0.0000e+00
      2.228      0.048     6.8342     76.783     42.849  39.660744     4.2608      8.042   215.4305 7.3185e+01     4.0789      2.186      3.170    21.2764 0.0000e+00
      2.238      0.045     6.8214     76.758     42.837  39.649196     4.2853      8.042   215.4095 7.2388e+01     4.0159      2.193      3.182    21.2756 0.0000e+00
      2.249      0.042     6.8112     76.738     42.849  39.660631     4.3611      8.042   215.4269 7.1453e+01     4.0120      2.206      3.200    21.2752 0.0000e+00
      2.260      0.040     6.8083     76.725     42.861  39.672074     4.4107      8.044   215.5546 7.0723e+01     4.0659      2.218      3.217    21.2752 0.0000e+00
      2.270      0.039     6.8083     76.731     42.848  39.660631     4.4197      8.045   215.6636 7.0095e+01     4.1200      2.226      3.230    21.2750 0.0000e+00
      2.279      0.039     6.8045     76.757     42.836  39.649196     4.3875      8.046   215.7120 6.9466e+01     4.0861      2.235      3.241    21.2747 0.0000e+00
      2.288      0.039     6.8038     76.779     42.849  39.660744     4.3201      8.047   215.7958 6.8834e+01     3.9972      2.244      3.254    21.2750 0.0000e+00
      2.298      0.040     6.8013     76.784     42.863  39.673333     4.2876      8.046   215.9019 6.8183e+01     3.9679      2.254      3.269    21.2753 0.0000e+00
      2.308      0.043     6.8019     76.779     42.865  39.674476     4.3103      8.046   215.9630 6.7609e+01     4.0049      2.265      3.284    21.2752 0.0000e+00
      2.318      0.045     6.8054     76.759     42.866  39.674571     4.3785      8.048   216.0180 6.6924e+01     4.0350      2.274      3.297    21.2752 0.0000e+00
      2.330      0.046     6.8079     76.713     42.866  39.674477     4.4627      8.050   216.0511 6.5916e+01     3.9905      2.283      3.311    21.2749 0.0000e+00
      2.345      0.044     6.8078     76.624     42.865  39.673333     4.4965      8.051   216.1047 6.4823e+01     3.9446      2.299      3.335    21.2747 0.0000e+00
      2.360      0.040     6.8074     76.487     42.852  39.660746     4.4958      8.051   216.2357 6.3942e+01     3.9580      2.316      3.359    21.2738 0.0000e+00
      2.372      0.035     6.8067     76.346     42.839  39.649207     4.4961      8.051   216.3443 6.3342e+01     3.9480      2.327      3.375    21.2727 0.0000e+00
      2.379      0.030     6.8025     76.248     42.851  39.660746     4.4497      8.051   216.3855 6.3123e+01     3.9261      2.335      3.386    21.2720 0.0000e+00
      2.382      0.025     6.7964     76.222     42.865  39.673333     4.3589      8.051   216.4759 6.3082e+01     3.9327      2.336      3.388    21.2715 0.0000e+00
      2.385      0.025     6.7814     76.272     42.866  39.674476     4.3060      8.050   216.5774 6.2905e+01     3.9933      2.338      3.391    21.2714 0.0000e+00
      2.389      0.029     6.7677     76.352     42.865  39.674571     4.3012      8.050   216.6656 6.2596e+01     4.0439      2.342      3.397    21.2719 0.0000e+00
      2.395      0.035     6.7583     76.430     42.865  39.674477     4.3425      8.050   216.8534 6.2091e+01     4.0323      2.347      3.405    21.2722 0.0000e+00
      2.405      0.041     6.7547     76.503     42.864  39.673332     4.4216      8.050   216.9559 6.1316e+01     4.0228      2.356      3.418    21.2724 0.0000e+00
      2.420      0.045     6.7619     76.563     42.850  39.660734     4.4587      8.050   216.9592 6.0386e+01     3.9982      2.373      3.440    21.2727 0.0000e+00
      2.436      0.049     6.7700     76.594     42.838  39.649082     4.4507      8.050   216.9790 5.9536e+01     4.0083      2.391      3.467    21.2730 0.0000e+00
      2.450      0.051     6.7763     76.581     42.849  39.659372     4.4582      8.050   217.0234 5.8896e+01     4.0763      2.404      3.487    21.2729 0.0000e+00
      2.460      0.051     6.7833     76.547     42.848  39.658218     4.4994      8.050   217.1508 5.8402e+01     4.1032      2.413      3.499    21.2728 0.0000e+00
      2.470      0.050     6.7889     76.532     42.823  39.635132     4.5403      8.049   217.2285 5.7840e+01     4.0602      2.420      3.511    21.2729 0.0000e+00
      2.483      0.048     6.7929     76.534     42.822  39.634092     4.5451      8.049   217.2745 5.7075e+01     3.9999      2.434      3.531    21.2728 0.0000e+00
      2.498      0.046     6.7908     76.539     42.834  39.645640     4.5577      8.050   217.4497 5.6230e+01     3.9891      2.450      3.553    21.2726 0.0000e+00
      2.512      0.044     6.7855     76.549     42.837  39.647835     4.6100      8.050   217.6266 5.5470e+01     4.0325      2.464      3.574    21.2724 0.0000e+00
      2.523      0.040     6.7852     76.572     42.852  39.660622     4.6443      8.050   217.6926 5.4832e+01     4.0815      2.475      3.590    21.2723 0.0000e+00
      2.531      0.033     6.7855     76.605     42.867  39.673322     4.6559      8.050   217.7312 5.4317e+01     4.1029      2.482      3.600    21.2725 0.0000e+00
      2.539      0.026     6.7861     76.608     42.870  39.674466     4.6590      8.051   217.7485 5.3975e+01     4.0854      2.490      3.612    21.2727 0.0000e+00
      2.545      0.021     6.7867     76.561     42.870  39.674459     4.6488      8.051   217.7304 5.3780e+01     4.0749      2.498      3.623    21.2725 0.0000e+00
      2.549      0.021     6.7881     76.503     42.870  39.673229     4.6398      8.051   217.7694 5.3654e+01     4.1132      2.500      3.627    21.2715 0.0000e+00
      2.550      0.025     6.7935     76.465     42.857  39.659594     4.6334      8.052   217.9620 5.3457e+01     4.1382      2.500      3.627    21.2699 0.0000e+00
      2.553      0.032     6.7950     76.431     42.834  39.636518     4.6381      8.053   218.1670 5.3087e+01     4.1037      2.502      3.629    21.2685 0.0000e+00
      2.560      0.041     6.7889     76.392     42.847  39.648065     4.6640      8.052   218.2695 5.2588e+01     4.0375      2.508      3.638    21.2680 0.0000e+00
      2.573      0.051     6.7821     76.346     42.874  39.672287     4.7049      8.051   218.3399 5.1850e+01     4.0210      2.520      3.656    21.2671 0.0000e+00
      2.592      0.060     6.7811     76.300     42.877  39.675529     4.7418      8.051   218.3309 5.0938e+01     4.0757      2.542      3.687    21.2647 0.0000e+00
      2.612      0.067     6.7778     76.279     42.890  39.687266     4.7768      8.052   218.3321 5.0150e+01     4.1174      2.563      3.718    21.2624 0.0000e+00
      2.629      0.071     6.7748     76.262     42.891  39.687275     4.8455      8.052   218.4404 4.9415e+01     4.0811      2.578      3.738    21.2613 0.0000e+00
      2.646      0.070     6.7712     76.244     42.879  39.675634     4.9311      8.052   218.5215 4.8550e+01     3.9785      2.594      3.762    21.2612 0.0000e+00
      2.666      0.065     6.7646     76.229     42.878  39.673441     4.9622      8.052   218.5387 4.7595e+01     3.9362      2.614      3.790    21.2612 0.0000e+00
      2.686      0.059     6.7651     76.184     42.864  39.660758     4.9640      8.052   218.5625 4.6744e+01     4.0140      2.634      3.821    21.2606 0.0000e+00
      2.702      0.052     6.7635     76.118     42.852  39.649211     4.9614      8.053   218.6379 4.6130e+01     4.1333      2.652      3.846    21.2601 0.0000e+00
      2.713      0.046     6.7608     76.084     42.864  39.660749     4.9225      8.054   218.7618 4.5752e+01     4.2173      2.662      3.861    21.2595 0.0000e+00
      2.720      0.041     6.7620     76.075     42.878  39.673336     4.8765      8.055   218.8549 4.5496e+01     4.2088      2.668      3.870    21.2589 0.0000e+00
      2.726      0.038     6.7581     76.038     42.879  39.674480     4.8547      8.055   218.9039 4.5147e+01     4.2015      2.673      3.876    21.2586 0.0000e+00
      2.735      0.037     6.7490     75.980     42.879  39.674584     4.8832      8.055   218.9244 4.4676e+01     4.2665      2.681      3.888    21.2584 0.0000e+00
      2.746      0.039     6.7460     75.941     42.878  39.674594     4.9550      8.055   218.9303 4.4178e+01     4.3117      2.694      3.905    21.2581 0.0000e+00
      2.758      0.044     6.7487     75.930     42.878  39.674595     4.9992      8.054   219.0610 4.3722e+01     4.3032      2.705      3.923    21.2583 0.0000e+00
      2.768      0.051     6.7445     75.936     42.879  39.674595     4.9931      8.053   219.2142 4.3289e+01     4.2668      2.714      3.936    21.2586 0.0000e+00
      2.779      0.057     6.7371     75.937     42.883  39.674586     4.9976      8.053   219.2342 4.2758e+01     4.3153      2.724      3.951    21.2586 0.0000e+00
      2.793      0.061     6.7342     75.904     42.887  39.674482     5.0367      8.053   219.2169 4.2021e+01     4.4800      2.737      3.969    21.2589 0.0000e+00
      2.812      0.062     6.7331     75.800     42.890  39.673339     5.0586      8.053   219.2625 4.1103e+01     4.5838      2.756      3.997    21.2596 0.0000e+00
      2.835      0.062     6.7346     75.621     42.878  39.660752     5.0538      8.054   219.4412 4.0274e+01     4.5454      2.782      4.036    21.2590 0.0000e+00
      2.854      0.058     6.7359     75.412     42.865  39.649213     5.0456      8.055   219.5716 3.9767e+01     4.4601      2.802      4.064    21.2547 0.0000e+00
      2.865      0.052     6.7351     75.194     42.876  39.660751     5.1176      8.055   219.5480 3.9482e+01     4.4058      2.812      4.078    21.2491 0.0000e+00
      2.874      0.047     6.7277     75.001     42.887  39.673338     5.2836      8.055   219.5861 3.9155e+01     4.3677      2.819      4.087    21.2444 0.0000e+00
      2.884      0.043     6.7087     74.886     42.887  39.674483     5.3791      8.055   219.6886 3.8779e+01     4.3072      2.828      4.102    21.2424 0.0000e+00
      2.894      0.043     6.6904     74.869     42.886  39.674598     5.3822      8.055   219.7541 3.8450e+01     4.2207      2.838      4.116    21.2436 0.0000e+00
      2.904      0.044     6.6701     74.931     42.887  39.674725     5.3629      8.056   219.7761 3.8004e+01     4.2777      2.846      4.127    21.2457 0.0000e+00
      2.916      0.045     6.6500     75.043     42.889  39.676014     5.3368      8.057   219.7831 3.7437e+01     4.5531      2.859      4.147    21.2471 0.0000e+00
      2.930      0.044     6.6396     75.192     42.905  39.690184     5.3329      8.056   219.8384 3.6967e+01     4.7837      2.875      4.169    21.2493 0.0000e+00
      2.943      0.042     6.6380     75.331     42.936  39.719134     5.3323      8.056   219.9289 3.6611e+01     4.8116      2.887      4.187    21.2511 0.0000e+00
      2.954      0.040     6.6456     75.376     42.996  39.772185     5.3302      8.056   220.0166 3.6319e+01     4.7871      2.897      4.202    21.2501 0.0000e+00
      2.962      0.038     6.6550     75.301     43.058  39.823924     5.3481      8.057   220.1245 3.6085e+01     4.8293      2.906      4.215    21.2487 0.0000e+00
      2.967      0.038     6.6694     75.123     43.085  39.836996     5.3742      8.057   220.2859 3.5825e+01     4.9123      2.909      4.219    21.2491 0.0000e+00
      2.975      0.040     6.6858     74.764     43.134  39.866756     5.4046      8.056   220.4196 3.5448e+01     5.0052      2.916      4.228    21.2482 0.0000e+00
      2.987      0.043     6.6909     74.106     43.221  39.929882     5.5573      8.056   220.4515 3.5038e+01     5.0635      2.931      4.250    21.2471 0.0000e+00
      3.000      0.046     6.6819     73.130     43.349  40.029067     5.8309      8.056   220.4126 3.4670e+01     5.1054      2.943      4.269    21.2426 0.0000e+00
      3.012      0.048     6.6715     71.932     43.600  40.240938     5.9905      8.056   220.3798 3.4239e+01     5.1699      2.953      4.283    21.2269 0.0000e+00
      3.026      0.050     6.6476     70.652     43.868  40.460729     6.0726      8.055   220.4850 3.3788e+01     5.2627      2.968      4.304    21.2092 0.0000e+00
      3.039      0.051     6.5910     69.298     44.049  40.592191     6.7735      8.053   220.6528 3.3448e+01     5.4426      2.982      4.326    21.1891 0.0000e+00
      3.050      0.053     6.5057     67.714     44.254  40.751494     8.0475      8.053   220.7734 3.3108e+01     5.6366      2.991      4.338    21.1641 0.0000e+00
      3.063      0.054     6.3937     65.601     44.398  40.863638     8.7422      8.052   220.9104 3.2653e+01     5.6960      3.002      4.354    21.1459 0.0000e+00
      3.078      0.054     6.2847     62.801     44.421  40.869183     8.8307      8.050   221.0195 3.2170e+01     5.6821      3.019      4.378    21.1190 0.0000e+00
      3.094      0.054     6.1743     59.523     44.371  40.818512     9.1102      8.048   221.1462 3.1711e+01     5.7071      3.036      4.403    21.0663 0.0000e+00
      3.109      0.053     6.0481     56.008     44.227  40.695223     9.6152      8.046   221.3231 3.1269e+01     5.7589      3.050      4.423    21.0325 0.0000e+00
      3.122      0.050     5.8729     52.570     44.167  40.647834     9.8854      8.044   221.4380 3.0924e+01     5.7624      3.063      4.442    21.0170 0.0000e+00
      3.134      0.045     5.6104     49.636     44.296  40.753277     9.9045      8.042   221.5030 3.0629e+01     5.6819      3.074      4.458    20.9896 0.0000e+00
      3.144      0.040     5.3161     47.564     44.551  40.954657     9.9048      8.039   221.5920 3.0331e+01     5.6054      3.084      4.473    20.9843 0.0000e+00
      3.154      0.035     4.9916     46.597     44.837  41.178684     9.8725      8.036   221.7402 3.0080e+01     5.6569      3.093      4.486    21.0023 0.0000e+00
      3.163      0.031     4.6659     46.574     45.014  41.304057     9.8225      8.032   222.0039 2.9876e+01     5.7582      3.103      4.500    21.0220 0.0000e+00
      3.170      0.028     4.3988     46.946     45.142  41.391543     9.7989      8.030   222.2855 2.9733e+01     5.7372      3.109      4.510    21.0055 0.0000e+00
      3.175      0.027     4.2043     47.105     45.406  41.601759     9.7952      8.029   222.4785 2.9600e+01     5.6415      3.113      4.515    20.9601 0.0000e+00
      3.181      0.028     4.1274     46.561     45.902  42.005144     9.9190      8.025   222.7883 2.9420e+01     5.5575      3.119      4.524    20.9153 0.0000e+00
      3.188      0.030     4.1505     45.176     46.495  42.460624    10.1808      8.020   223.1922 2.9236e+01     5.5067      3.126      4.534    20.8690 0.0000e+00
      3.194      0.035     4.2041     43.111     46.922  42.729399    10.3387      8.015   223.4902 2.9018e+01     5.5062      3.131      4.541    20.8419 0.0000e+00
      3.203      0.039     4.2388     40.352     47.192  42.842819    10.4048      8.010   223.8965 2.8680e+01     5.4832      3.139      4.553    20.8129 0.0000e+00
      3.215      0.042     4.1999     36.668     47.436  42.943189    11.0878      8.005   224.4901 2.8253e+01     5.4335      3.153      4.573    20.7654 0.0000e+00
      3.229      0.045     4.0701     32.010     47.605  42.990713    12.3801      8.001   224.9896 2.7894e+01     5.4179      3.168      4.594    20.6749 0.0000e+00
      3.242      0.047     3.8980     26.855     47.605  42.909510    13.1293      7.997   225.4618 2.7657e+01     5.4652      3.179      4.612    20.5288 0.0000e+00
      3.252      0.048     3.6708     21.984     47.584  42.849869    13.5127      7.992   225.9828 2.7435e+01     5.5263      3.189      4.626    20.3817 0.0000e+00
      3.263      0.049     3.3516     17.849     47.788  43.031214    16.8403      7.987   226.3848 2.7144e+01     5.7131      3.199      4.639    20.2536 0.0000e+00
      3.276      0.050     2.9220     14.589     48.254  43.451840    22.9258      7.982   226.7093 2.6815e+01     6.0842      3.212      4.659    20.1436 0.0000e+00
      3.289      0.052     2.4246     12.339     48.776  43.873318    26.3165      7.977   227.0669 2.6490e+01     6.3241      3.224      4.677    20.0453 0.0000e+00
      3.302      0.052     1.9731     11.158     49.119  44.064836    27.4166      7.971   227.4394 2.6143e+01     6.4617      3.238      4.696    20.0036 0.0000e+00
      3.317      0.051     1.5959     10.808     49.241  44.053479    36.2011      7.964   227.7712 2.5750e+01     7.2352      3.253      4.718    20.0159 0.0000e+00
      3.332      0.048     1.2929     10.713     49.269  43.989739    52.2367      7.956   228.2388 2.5392e+01     8.5378      3.268      4.740    20.0370 0.0000e+00
      3.344      0.044     1.0858     10.311     49.367  43.992288    60.9740      7.948   228.9633 2.5139e+01     9.1627      3.281      4.759    20.0087 0.0000e+00
      3.354      0.043     0.9875      9.505     49.635  44.147660    61.8235      7.939   229.4763 2.4941e+01     9.1539      3.290      4.772    19.8468 0.0000e+00
      3.362      0.043     0.9800      8.564     49.931  44.344771    62.5499      7.931   229.6236 2.4758e+01     9.2172      3.298      4.783    19.7058 0.0000e+00
      3.369      0.044     0.9955      7.726     50.061  44.407686    69.8564      7.922   230.3133 2.4543e+01     9.9285      3.303      4.790    19.6439 0.0000e+00
      3.379      0.045     0.9623      7.087     50.242  44.527427    83.2479      7.913   231.7927 2.4206e+01    11.1606      3.312      4.802    19.5527 0.0000e+00
      3.395      0.048     0.8760      6.629     50.999  45.157727    90.4801      7.903   232.9698 2.3807e+01    11.7834      3.330      4.829    19.4589 0.0000e+00
      3.412      0.051     0.7839      6.325     52.194  46.124891    90.2331      7.894   233.5333 2.3475e+01    11.7882      3.348      4.856    19.3977 0.0000e+00
      3.424      0.052     0.7040      6.217     52.967  46.635570    80.2027      7.886   234.1324 2.3196e+01    11.3894      3.359      4.872    19.3470 0.0000e+00
      3.435      0.050     0.6472      6.266     53.192  46.634426    61.7233      7.879   234.9645 2.2887e+01    10.6849      3.368      4.884    19.3012 0.0000e+00
      3.449      0.047     0.6080      6.268     53.486  46.745631    51.5906      7.871   235.6787 2.2532e+01    10.3066      3.381      4.904    19.2843 0.0000e+00
      3.463      0.045     0.5767      6.028     54.122  47.218119    49.9591      7.862   235.9712 2.2241e+01    10.1968      3.398      4.928    19.2227 0.0000e+00
      3.473      0.045     0.5696      5.547     54.848  47.776166    41.9632      7.853   236.0909 2.2041e+01     9.4606      3.407      4.942    19.0300 0.0000e+00
      3.482      0.046     0.5848      4.986     55.409  48.159944    27.4483      7.845   236.1796 2.1809e+01     8.1342      3.413      4.950    18.8051 0.0000e+00
      3.492      0.048     0.5952      4.480     55.851  48.429837    19.5332      7.835   236.1836 2.1509e+01     7.4476      3.423      4.965    18.6679 0.0000e+00
      3.505      0.048     0.5729      4.047     56.198  48.626668    18.7154      7.826   236.2256 2.1205e+01     7.3759      3.437      4.985    18.6174 0.0000e+00
      3.519      0.047     0.5207      3.611     56.316  48.634964    17.4021      7.818   236.3436 2.0890e+01     7.1990      3.451      5.004    18.5671 0.0000e+00
      3.534      0.042     0.4652      3.190     55.904  48.212577    15.0898      7.811   236.7492 2.0565e+01     6.9141      3.466      5.027    18.4557 0.0000e+00
      3.548      0.032     0.4169      2.885     54.873  47.328859    13.8294      7.803   237.3438 2.0335e+01     6.7662      3.483      5.050    18.3456 0.0000e+00
      3.557      0.021     0.3827      2.702     54.176  46.838256    13.7652      7.794   237.6821 2.0228e+01     6.8116      3.491      5.063    18.2586 0.0000e+00
      3.560      0.012     0.3415      2.583     54.382  47.169368    14.3138      7.786   237.8281 2.0253e+01     6.8137      3.493      5.067    18.1702 0.0000e+00
      3.555      0.008     0.2956      2.528     54.837  47.650367    15.3264      7.779   237.9916 2.0412e+01     6.7234      3.489      5.060    18.0970 0.0000e+00
      3.548      0.012     0.2687      2.653     55.494  48.210072    15.8624      7.772   238.1104 2.0460e+01     6.6420      3.477      5.043    18.0771 0.0000e+00
      3.548      0.023     0.2526      2.999     56.429  48.921043    15.8760      7.766   238.1463 2.0297e+01     6.5812      3.476      5.041    18.2024 0.0000e+00
      3.555      0.040     0.2424      3.438     57.247  49.453059    15.7407      7.760   238.1667 2.0049e+01     6.5695      3.486      5.055    18.3971 0.0000e+00
      3.569      0.058     0.2302      3.826     57.916  49.817014    14.2842      7.752   238.1848 1.9616e+01     6.9444      3.497      5.070    18.4726 0.0000e+00
      3.589      0.070     0.2392      4.076     58.401  50.019626    11.6001      7.745   238.4510 1.8966e+01     7.6638      3.517      5.100    18.4615 0.0000e+00
      3.616      0.074     0.2793      4.115     58.578  49.997707    10.1213      7.739   239.1480 1.8244e+01     8.0266      3.546      5.143    18.3711 0.0000e+00
      3.643      0.069     0.3265      3.943     58.546  49.869251     9.9289      7.732   239.7294 1.7548e+01     8.0512      3.575      5.184    18.1963 0.0000e+00
      3.663      0.059     0.3662      3.609     58.496  49.799738     9.4480      7.726   239.8882 1.6988e+01     8.3029      3.596      5.215    18.0072 0.0000e+00
      3.675      0.046     0.3952      3.151     58.532  49.855647     8.6102      7.721   240.0361 1.6608e+01     8.7808      3.607      5.231    17.8078 0.0000e+00
      3.679      0.035     0.4002      2.663     58.706  50.037325     8.1637      7.716   240.3982 1.6325e+01     9.0813      3.609      5.235    17.6476 0.0000e+00
      3.681      0.027     0.3808      2.271     59.140  50.409059     8.1437      7.712   240.8249 1.6058e+01     9.1009      3.610      5.236    17.5635 0.0000e+00
      3.685      0.026     0.3503      2.040     59.783  50.921457     8.3439      7.707   241.1516 1.5777e+01     8.9163      3.612      5.238    17.5440 0.0000e+00
      3.691      0.029     0.3018      1.942     60.639  51.597334     8.7288      7.703   241.3376 1.5472e+01     8.6244      3.619      5.248    17.5820 0.0000e+00
      3.700      0.034     0.2506      1.932     61.600  52.357986     8.9519      7.699   241.4382 1.5132e+01     8.4749      3.628      5.261    17.6261 0.0000e+00
      3.710      0.036     0.2103      1.977     61.718  52.371176     8.9523      7.696   241.5085 1.4737e+01     8.5102      3.637      5.275    17.6268 0.0000e+00
      3.723      0.035     0.1902      2.033     60.824  51.502658     8.5263      7.691   241.4985 1.4355e+01     8.6072      3.651      5.296    17.5912 0.0000e+00
      3.735      0.030     0.1831      2.083     60.077  50.810308     7.7296      7.687   241.3179 1.4080e+01     8.6906      3.664      5.315    17.5351 0.0000e+00
      3.744      0.025     0.1822      2.093     59.895  50.667503     7.2923      7.683   241.0452 1.3926e+01     8.6995      3.674      5.328    17.5052 0.0000e+00
      3.747      0.021     0.1900      2.049     60.151  50.918994     7.2176      7.679   240.7831 1.3873e+01     8.7149      3.676      5.332    17.4411 0.0000e+00
      3.747      0.020     0.1946      1.986     61.262  51.882670     6.7771      7.675   240.5571 1.3823e+01     8.9109      3.674      5.329    17.3077 0.0000e+00
      3.747      0.023     0.2020      1.938     63.495  53.746589     5.9608      7.671   240.2916 1.3670e+01     9.1558      3.673      5.327    17.2574 0.0000e+00
      3.752      0.029     0.2034      1.914     66.040  55.800998     5.5045      7.666   239.8962 1.3416e+01     9.2164      3.678      5.335    17.2910 0.0000e+00
      3.762      0.037     0.1973      1.908     68.710  57.923468     5.4048      7.663   239.5619 1.3095e+01     9.1656      3.688      5.350    17.3228 0.0000e+00
      3.777      0.043     0.1895      1.900     71.386  60.035896     4.9383      7.661   239.3479 1.2759e+01     9.1914      3.703      5.371    17.3551 0.0000e+00
      3.792      0.048     0.1850      1.872     72.597  60.887535     4.1091      7.657   239.1146 1.2496e+01     9.2889      3.720      5.395    17.3475 0.0000e+00
      3.805      0.050     0.1834      1.835     72.684  60.788198     3.6520      7.650   238.7205 1.2280e+01     9.3192      3.733      5.415    17.2525 0.0000e+00
      3.817      0.052     0.1835      1.801     73.465  61.312259     3.6147      7.643   238.1958 1.2020e+01     9.2842      3.742      5.429    17.1443 0.0000e+00
      3.828      0.052     0.1846      1.768     75.395  62.839974     3.6078      7.638   237.7613 1.1745e+01     9.2409      3.754      5.445    17.0595 0.0000e+00
      3.840      0.052     0.1812      1.725     77.887  64.837333     3.5521      7.632   237.3387 1.1436e+01     9.2068      3.765      5.461    16.9345 0.0000e+00
      3.855      0.054     0.1778      1.679     80.358  66.781597     3.4654      7.627   236.8718 1.1033e+01     9.1795      3.778      5.480    16.7976 0.0000e+00
      3.871      0.057     0.1747      1.651     82.129  68.110360     3.4334      7.622   236.5044 1.0668e+01     9.2177      3.798      5.509    16.7112 0.0000e+00
      3.885      0.058     0.1725      1.645     82.854  68.574656     3.4481      7.616   236.1659 1.0389e+01     9.3274      3.812      5.528    16.6702 0.0000e+00
      3.899      0.058     0.1684      1.640     82.596  68.264301     3.4017      7.609   235.7904 1.0009e+01     9.4121      3.820      5.540    16.6286 0.0000e+00
      3.915      0.056     0.1629      1.626     81.842  67.598905     3.2883      7.604   235.4923 9.5512e+00     9.4570      3.839      5.568    16.5589 0.0000e+00
      3.932      0.052     0.1602      1.623     81.358  67.202316     3.2101      7.599   235.2286 9.2120e+00     9.4257      3.859      5.597    16.4592 0.0000e+00
      3.946      0.048     0.1612      1.628     81.185  67.091615     3.1890      7.595   234.9243 8.9604e+00     9.3760      3.870      5.613    16.3708 0.0000e+00
      3.956      0.044     0.1615      1.610     81.123  67.086610     3.1406      7.591   234.2223 8.6903e+00     9.5385      3.880      5.627    16.3073 0.0000e+00
      3.966      0.040     0.1591      1.585     80.936  66.951212     3.0500      7.589   232.7638 8.4405e+00     9.8534      3.890      5.642    16.2839 0.0000e+00
      3.974      0.037     0.1578      1.576     80.764  66.789068     2.9925      7.586   231.0559 8.2284e+00     9.9384      3.897      5.653    16.2934 0.0000e+00
      3.981      0.036     0.1614      1.566     81.470  67.350318     2.9778      7.585   229.3180 7.9470e+00     9.8489      3.902      5.659    16.3085 0.0000e+00
      3.991      0.036     0.1579      1.567     83.042  68.589542     2.9714      7.585   227.4962 7.6162e+00     9.8980      3.913      5.675    16.3534 0.0000e+00
      4.002      0.036     0.1535      1.581     84.386  69.506803     2.9658      7.585   226.0638 7.3695e+00    10.0541      3.927      5.696    16.3698 0.0000e+00
      4.012      0.035     0.1555      1.598     84.916  69.670163     2.9678      7.586   225.0775 7.1144e+00    10.1651      3.934      5.706    16.3400 0.0000e+00
      4.021      0.029     0.1525      1.613     84.609  69.229679     2.9709      7.586   224.3460 6.7505e+00    10.2147      3.943      5.717    16.3303 0.0000e+00
      4.031      0.017     0.1531      1.613     83.299  68.121194     2.9279      7.586   223.5003 6.4115e+00    10.3131      3.953      5.733    16.3331 0.0000e+00
      4.039      0.002     0.1554      1.592     81.415  66.690189     2.8392      7.585   222.0798 6.2869e+00    10.4666      3.961      5.746    16.2097 0.0000e+00
      4.041     -0.010     0.1575      1.550     80.415  66.099361     2.7812      7.583   220.5069 6.5812e+00    10.5681      3.966      5.753    15.9886 0.0000e+00
      4.032     -0.016     0.1604      1.517     80.967  66.760840     2.7758      7.582   219.1946 7.2607e+00    10.5836      3.959      5.742    15.8748 0.0000e+00
      4.015     -0.015     0.1601      1.517     82.515  68.079356     2.8490      7.582   217.8290 7.8413e+00    10.5516      3.936      5.709    15.8592 0.0000e+00
      4.001     -0.006     0.1586      1.529     84.517  69.585567     2.9831      7.582   216.3855 7.9521e+00    10.5218      3.917      5.681    15.9181 0.0000e+00
      3.999      0.009     0.1524      1.539     86.308  70.799408     3.0490      7.582   215.0766 7.7331e+00    10.5307      3.918      5.683    16.0996 0.0000e+00
      4.008      0.029     0.1467      1.561     87.752  71.696380     3.0385      7.584   213.8774 7.2847e+00    10.5231      3.929      5.698    16.2681 0.0000e+00
      4.024      0.049     0.1487      1.597     89.047  72.485104     3.0144      7.585   212.8126 6.5878e+00    10.5326      3.944      5.720    16.2911 0.0000e+00
      4.044      0.065     0.1510      1.631     89.832  72.834821     2.9320      7.585   211.9254 5.9361e+00    11.8064      3.967      5.755    16.1891 0.0000e+00
      4.061      0.071     0.1509      1.653     90.275  72.873321     2.8004      7.585   211.1515 5.3657e+00    14.3444      3.983      5.778    16.0162 0.0000e+00
      4.080      0.066     0.1540      1.654     90.371  72.695929     2.7374      7.585   210.4242 4.6033e+00    15.7712      3.998      5.798    15.8383 0.0000e+00
      4.104      0.051     0.1588      1.639     89.244  71.706724     2.7449      7.585   209.5852 3.9106e+00    15.8720      4.026      5.839    15.7029 0.0000e+00
      4.126      0.028     0.1629      1.622     87.029  70.065982     2.7662      7.586   208.4929 3.6474e+00    16.0079      4.052      5.876    15.5518 0.0000e+00
      4.134      0.003     0.1662      1.592     84.753  68.557669     2.7862      7.586   207.3703 3.7343e+00    16.3213      4.059      5.888    15.3440 0.0000e+00
      4.129     -0.020     0.1671      1.533     82.989  67.516373     2.7875      7.585   206.4228 4.1185e+00    16.4838      4.053      5.878    15.1817 0.0000e+00
      4.110     -0.039     0.1643      1.477     82.109  67.136267     2.7908      7.585   205.3818 4.8391e+00    16.4011      4.034      5.851    15.1250 0.0000e+00
      4.085     -0.053     0.1630      1.443     81.752  67.076279     2.8591      7.585   203.9898 5.5366e+00    15.1848      4.003      5.806    15.2063 0.0000e+00
      4.066     -0.065     0.1607      1.422     80.622  66.282935     2.9802      7.585   202.9287 5.7650e+00    12.9824      3.981      5.774    15.4357 0.0000e+00
      4.058     -0.076     0.1518      1.419     78.502  64.661268     3.0480      7.586   202.7040 5.7596e+00    11.8051      3.979      5.772    15.6907 0.0000e+00
      4.051     -0.085     0.1447      1.447     76.301  63.037234     3.0720      7.586   202.6499 6.1441e+00    11.6074      3.980      5.772    15.9005 0.0000e+00
      4.030     -0.089     0.1420      1.487     74.939  62.150760     3.3452      7.587   202.4467 7.1096e+00    11.0022      3.959      5.742    16.0493 0.0000e+00
      3.993     -0.087     0.1396      1.532     75.283  62.647693     3.8711      7.588   202.0536 8.2522e+00    10.0899      3.918      5.682    16.1057 0.0000e+00
      3.953     -0.080     0.1379      1.602     76.977  64.153615     4.1704      7.589   201.5971 9.0852e+00     9.6626      3.872      5.616    16.1570 0.0000e+00
      3.925     -0.069     0.1416      1.694     78.271  65.173275     4.2169      7.588   201.5726 9.3261e+00     9.5937      3.840      5.568    16.2935 0.0000e+00
      3.916     -0.057     0.1460      1.802     78.076  64.873356     4.4002      7.588   201.7579 9.1349e+00     9.4963      3.837      5.565    16.4720 0.0000e+00
      3.921     -0.048     0.1478      1.907     77.147  64.021977     4.7219      7.587   201.7733 8.9633e+00     9.4068      3.847      5.580    16.6297 0.0000e+00
      3.923     -0.044     0.1551      1.962     77.128  64.029141     4.8863      7.586   201.6728 9.0515e+00     9.3663      3.851      5.585    16.7091 0.0000e+00
      3.914     -0.044     0.1646      1.970     78.753  65.404705     4.8815      7.585   201.5752 9.4997e+00     9.3810      3.844      5.576    16.6533 0.0000e+00
      3.890     -0.045     0.1752      1.978     80.959  67.119189     4.7131      7.586   201.6253 1.0208e+01     9.4145      3.818      5.537    16.5187 0.0000e+00
      3.862     -0.045     0.1888      1.987     82.236  67.919067     4.4057      7.586   201.8477 1.0706e+01     9.4638      3.781      5.483    16.4585 0.0000e+00
      3.847     -0.042     0.1940      1.975     81.871  67.386213     4.2366      7.585   202.0267 1.0715e+01     9.5332      3.765      5.460    16.4979 0.0000e+00
      3.847     -0.041     0.1911      1.940     79.777  65.569494     4.2082      7.585   202.0701 1.0560e+01     9.5363      3.773      5.472    16.5613 0.0000e+00
      3.851     -0.044     0.1931      1.892     77.148  63.491699     4.1957      7.585   202.1997 1.0559e+01     9.4330      3.779      5.481    16.4962 0.0000e+00
      3.848     -0.050     0.1959      1.832     76.082  62.851428     4.3023      7.584   202.3033 1.0826e+01     9.3424      3.778      5.479    16.2767 0.0000e+00
      3.834     -0.055     0.1954      1.755     77.019  63.864703     4.5320      7.581   202.2911 1.1496e+01     9.3294      3.768      5.464    16.1172 0.0000e+00
      3.804     -0.059     0.1915      1.687     78.518  65.196044     4.6837      7.579   202.3966 1.2381e+01     9.3441      3.733      5.413    16.0542 0.0000e+00
      3.771     -0.057     0.1866      1.667     79.387  65.859356     4.7550      7.579   202.4596 1.2911e+01     9.2816      3.690      5.352    16.0984 0.0000e+00
      3.755     -0.049     0.1807      1.692     79.501  65.848095     5.3604      7.579   202.3639 1.2926e+01     9.1882      3.676      5.332    16.3015 0.0000e+00
      3.755     -0.040     0.1713      1.717     78.874  65.250381     6.5020      7.578   202.2729 1.2843e+01     9.1717      3.684      5.342    16.5010 0.0000e+00
      3.756     -0.038     0.1625      1.730     76.275  63.080407     7.1380      7.578   202.1334 1.2862e+01     9.2181      3.685      5.345    16.5490 0.0000e+00
      3.754     -0.048     0.1602      1.725     72.292  59.878689     7.2164      7.579   201.8816 1.2928e+01     9.2701      3.682      5.340    16.4839 0.0000e+00
      3.749     -0.067     0.1666      1.709     70.570  58.685836     7.3586      7.581   201.7236 1.3229e+01     9.1866      3.680      5.337    16.3993 0.0000e+00
      3.732     -0.082     0.1680      1.692     72.266  60.347940     7.5920      7.584   201.6850 1.4245e+01     8.9604      3.671      5.324    16.3503 0.0000e+00
      3.694     -0.088     0.1705      1.678     75.267  62.949935     7.7165      7.587   201.5875 1.5883e+01     8.7548      3.627      5.261    16.3228 0.0000e+00
      3.648     -0.087     0.1693      1.695     76.978  64.289035     7.7989      7.587   201.2325 1.7016e+01     8.6484      3.567      5.173    16.3640 0.0000e+00
      3.620     -0.085     0.1659      1.753     75.329  62.751594     8.5882      7.587   200.8348 1.7161e+01     8.6645      3.541      5.135    16.5685 0.0000e+00
      3.613     -0.084     0.1651      1.835     70.709  58.845939    10.0346      7.587   200.9093 1.6986e+01     8.7775      3.541      5.136    16.7959 0.0000e+00
      3.612     -0.083     0.1608      1.915     67.258  56.135379    10.8384      7.587   201.2721 1.7035e+01     8.8545      3.543      5.139    16.8636 0.0000e+00
      3.603     -0.081     0.1631      1.966     68.294  57.293600    10.9586      7.590   201.6082 1.7810e+01     8.8436      3.541      5.134    16.7752 0.0000e+00
      3.573     -0.081     0.1699      1.991     71.128  59.828725    11.4208      7.593   201.7896 1.9424e+01     8.7477      3.512      5.094    16.6202 0.0000e+00
      3.528     -0.081     0.1790      2.041     72.136  60.617124    12.2571      7.595   201.8305 2.0867e+01     8.5837      3.455      5.011    16.5377 0.0000e+00
      3.492     -0.079     0.1875      2.133     71.664  60.092886    12.7303      7.596   201.8455 2.1257e+01     8.5001      3.413      4.950    16.6811 0.0000e+00
      3.482     -0.074     0.1916      2.217     69.625  58.318177    12.8721      7.597   201.7127 2.1035e+01     8.5225      3.412      4.949    16.9840 0.0000e+00
      3.483     -0.068     0.1906      2.256     66.920  56.118864    13.7467      7.599   201.6015 2.0972e+01     8.5126      3.419      4.959    17.1266 0.0000e+00
      3.478     -0.061     0.1949      2.254     66.826  56.240921    15.3153      7.601   201.6194 2.1282e+01     8.4146      3.414      4.952    17.0186 0.0000e+00
      3.460     -0.058     0.2071      2.240     68.595  57.889337    16.1578      7.601   201.4986 2.2111e+01     8.2951      3.401      4.932    16.9040 0.0000e+00
      3.430     -0.058     0.2171      2.271     69.432  58.582864    16.2419      7.600   201.2592 2.3106e+01     8.2631      3.364      4.879    16.8474 0.0000e+00
      3.402     -0.061     0.2197      2.369     67.970  57.258095    16.3829      7.600   201.0473 2.3431e+01     8.3002      3.327      4.824    16.8686 0.0000e+00
      3.392     -0.065     0.2185      2.496     64.256  54.129969    17.8037      7.602   201.0873 2.3251e+01     8.3345      3.324      4.820    17.0880 0.0000e+00
      3.392     -0.069     0.2132      2.584     61.112  51.691137    20.4039      7.605   201.3995 2.3293e+01     8.3708      3.330      4.830    17.2570 0.0000e+00
      3.385     -0.069     0.2156      2.604     61.239  52.157644    21.8119      7.608   201.4668 2.3810e+01     8.3631      3.325      4.821    17.2039 0.0000e+00
      3.363     -0.066     0.2276      2.639     63.917  54.690517    21.9267      7.610   201.2122 2.4919e+01     8.3086      3.305      4.794    17.0908 0.0000e+00
      3.326     -0.061     0.2418      2.781     65.737  56.214872    21.9911      7.612   201.0751 2.6135e+01     8.3610      3.261      4.730    17.0460 0.0000e+00
      3.295     -0.050     0.2528      3.049     64.507  54.965158    22.1171      7.616   201.1851 2.6552e+01     8.5190      3.221      4.671    17.2349 0.0000e+00
      3.286     -0.032     0.2474      3.385     62.152  52.853676    22.1851      7.618   201.3385 2.6268e+01     8.5452      3.219      4.668    17.6132 0.0000e+00
      3.292     -0.012     0.2461      3.673     61.231  52.150991    22.1717      7.616   201.4660 2.5867e+01     8.4736      3.229      4.683    17.8740 0.0000e+00
      3.302      0.001     0.2597      3.838     61.847  52.819935    21.9793      7.614   201.6094 2.5405e+01     8.4728      3.236      4.694    17.8162 0.0000e+00
      3.312     -0.000     0.2882      3.921     63.227  54.083566    21.6233      7.612   201.7808 2.5064e+01     8.5010      3.250      4.713    17.5476 0.0000e+00
      3.318     -0.010     0.3262      4.013     64.747  55.363368    21.4465      7.609   201.9899 2.5050e+01     8.5412      3.257      4.724    17.4436 0.0000e+00
      3.313     -0.022     0.3559      4.128     65.594  55.972994    21.5070      7.607   202.0733 2.5478e+01     8.5837      3.254      4.721    17.5705 0.0000e+00
      3.295     -0.032     0.3691      4.218     65.337  55.611210    22.1298      7.607   202.0142 2.6241e+01     8.5015      3.233      4.689    17.7199 0.0000e+00
      3.274     -0.042     0.3710      4.228     63.875  54.291615    23.2425      7.608   201.9639 2.6623e+01     8.2993      3.203      4.645    17.7953 0.0000e+00
      3.264     -0.052     0.3803      4.127     61.066  51.957405    23.8243      7.609   202.0670 2.6561e+01     8.2228      3.199      4.639    17.7786 0.0000e+00
      3.262     -0.062     0.3946      3.955     58.283  49.805332    23.7702      7.610   202.4866 2.6715e+01     8.2594      3.202      4.645    17.6737 0.0000e+00
      3.254     -0.068     0.4054      3.786     57.521  49.480285    22.7389      7.611   202.9935 2.7310e+01     8.0592      3.195      4.634    17.5279 0.0000e+00
      3.233     -0.070     0.4095      3.666     58.857  50.885061    20.8517      7.613   203.2920 2.8350e+01     7.6465      3.177      4.607    17.4623 0.0000e+00
      3.201     -0.070     0.3974      3.655     60.458  52.313429    19.8122      7.615   203.5136 2.9563e+01     7.3685      3.140      4.554    17.4866 0.0000e+00
      3.168     -0.066     0.3759      3.812     60.772  52.463442    19.6926      7.616   203.6946 3.0284e+01     7.2590      3.100      4.495    17.6806 0.0000e+00
      3.151     -0.060     0.3570      4.113     59.780  51.492216    19.6129      7.617   203.8450 3.0366e+01     7.1433      3.084      4.473    18.0342 0.0000e+00
      3.148     -0.057     0.3415      4.461     58.002  49.968318    18.9319      7.617   204.1278 3.0301e+01     6.8232      3.087      4.477    18.2938 0.0000e+00
      3.149     -0.062     0.3371      4.759     56.538  48.832870    17.6756      7.618   204.4465 3.0387e+01     6.4290      3.090      4.482    18.3218 0.0000e+00
      3.144     -0.072     0.3544      4.941     56.446  48.938771    16.9833      7.619   204.7734 3.0822e+01     6.2372      3.087      4.477    18.1499 0.0000e+00
      3.125     -0.082     0.3881      5.040     57.201  49.725273    16.9865      7.618   205.0690 3.1966e+01     6.1437      3.074      4.458    18.0131 0.0000e+00
      3.086     -0.087     0.4234      5.178     57.979  50.405998    17.8147      7.618   205.1812 3.3622e+01     6.1871      3.030      4.395    18.0396 0.0000e+00
      3.041     -0.084     0.4536      5.445     58.547  50.819869    19.3472      7.618   205.2694 3.4757e+01     6.4201      2.971      4.309    18.1541 0.0000e+00
      3.014     -0.073     0.4683      5.808     58.617  50.792447    20.1842      7.618   205.4473 3.4995e+01     6.6035      2.949      4.277    18.3643 0.0000e+00
      3.007     -0.056     0.4701      6.145     58.363  50.518809    20.1786      7.618   205.7831 3.4991e+01     6.6289      2.950      4.278    18.5141 0.0000e+00
      3.005     -0.043     0.4802      6.370     57.544  49.797164    19.2791      7.619   206.4045 3.5013e+01     6.4196      2.947      4.275    18.4883 0.0000e+00
      3.005     -0.040     0.5070      6.469     55.961  48.479854    17.6317      7.620   206.9378 3.5016e+01     6.0536      2.947      4.276    18.3978 0.0000e+00
      3.004     -0.046     0.5477      6.452     55.632  48.369094    16.7484      7.620   207.0684 3.5220e+01     5.8926      2.949      4.277    18.3063 0.0000e+00
      2.993     -0.053     0.5833      6.401     57.146  49.854900    16.7718      7.620   207.1240 3.6021e+01     5.9761      2.943      4.267    18.2626 0.0000e+00
      2.966     -0.055     0.6037      6.567     58.217  50.762230    17.7398      7.620   207.3525 3.7353e+01     6.2090      2.912      4.225    18.2578 0.0000e+00
      2.933     -0.052     0.6135      7.217     58.039  50.450605    19.4971      7.621   207.7656 3.8197e+01     6.4881      2.867      4.159    18.2524 0.0000e+00
      2.917     -0.044     0.6077      8.219     57.580  49.960097    20.4495      7.622   208.1604 3.8151e+01     6.5845      2.854      4.139    18.4510 0.0000e+00
      2.918     -0.034     0.5918      9.075     57.509  49.911090    20.5659      7.622   208.3400 3.7986e+01     6.6239      2.863      4.153    18.7083 0.0000e+00
      2.920     -0.027     0.5934      9.460     57.422  49.858132    20.8206      7.622   208.3886 3.7986e+01     6.7247      2.864      4.154    18.6420 0.0000e+00
      2.920     -0.031     0.6613      9.392     56.427  49.002347    21.2481      7.622   208.4043 3.8031e+01     6.7784      2.863      4.153    18.4202 0.0000e+00
      2.917     -0.042     0.7806      9.020     55.408  48.198598    21.4745      7.621   208.4442 3.8331e+01     6.7605      2.864      4.154    18.3329 0.0000e+00
      2.907     -0.051     0.8707      8.471     55.972  48.838359    21.5848      7.620   208.5264 3.9153e+01     6.6794      2.856      4.141    18.3960 0.0000e+00
      2.882     -0.053     0.9029      7.914     57.035  49.817447    22.7566      7.618   208.7097 4.0577e+01     6.6861      2.831      4.105    18.4291 0.0000e+00
      2.851     -0.048     0.8915      7.736     57.275  49.941674    24.9059      7.618   208.9402 4.1752e+01     6.8411      2.790      4.048    18.3869 0.0000e+00
      2.831     -0.039     0.8509      8.198     57.025  49.641859    26.0812      7.618   209.0757 4.1719e+01     6.9476      2.766      4.012    18.4420 0.0000e+00
      2.832     -0.032     0.7945      8.976     56.278  48.986044    26.1897      7.619   209.1434 4.1184e+01     6.9497      2.776      4.025    18.6669 0.0000e+00
      2.841     -0.032     0.7261      9.573     54.545  47.536071    26.0502      7.620   209.2433 4.0970e+01     6.8663      2.789      4.044    18.7349 0.0000e+00
      2.844     -0.040     0.6947      9.830     52.471  45.887246    24.4114      7.620   209.2498 4.1083e+01     6.6911      2.792      4.051    18.5763 0.0000e+00
      2.837     -0.052     0.7570      9.874     51.703  45.493103    21.4234      7.621   209.0503 4.1728e+01     6.5391      2.787      4.044    18.4912 0.0000e+00
      2.816     -0.062     0.8514     10.060     52.358  46.326105    19.8023      7.621   208.8966 4.3163e+01     6.4636      2.768      4.014    18.5064 0.0000e+00
      2.780     -0.066     0.9084     10.971     53.316  47.262276    19.7176      7.621   208.9399 4.4877e+01     6.4263      2.726      3.954    18.5422 0.0000e+00
      2.747     -0.061     0.9264     13.044     53.921  47.734146    20.2657      7.623   209.0584 4.5701e+01     6.4639      2.682      3.890    18.6637 0.0000e+00
      2.734     -0.052     0.9141     16.021     53.831  47.523829    21.2781      7.625   209.2106 4.5542e+01     6.5771      2.675      3.880    18.9950 0.0000e+00
      2.737     -0.042     0.9042     19.053     52.706  46.433293    21.8131      7.626   209.3176 4.5378e+01     6.6681      2.687      3.897    19.3124 0.0000e+00
      2.740     -0.040     0.9656     21.306     50.847  44.832801    21.6906      7.628   209.3191 4.5576e+01     6.6760      2.689      3.900    19.3688 0.0000e+00
      2.736     -0.048     1.1685     22.417     49.435  43.788790    19.7707      7.630   209.3149 4.6044e+01     6.4673      2.685      3.894    19.2789 0.0000e+00
      2.724     -0.060     1.4814     22.712     49.124  43.776680    16.2118      7.631   209.3525 4.6946e+01     6.0917      2.675      3.880    19.1322 0.0000e+00
      2.700     -0.067     1.7959     23.060     49.439  44.242445    14.2415      7.632   209.4290 4.8567e+01     5.9264      2.653      3.849    18.9925 0.0000e+00
      2.665     -0.067     2.0181     24.302     49.700  44.532920    13.8934      7.633   209.6377 5.0400e+01     5.9377      2.612      3.789    19.0121 0.0000e+00
      2.636     -0.057     2.0993     26.641     49.690  44.495888    11.9849      7.633   209.9842 5.1218e+01     5.6136      2.575      3.735    19.2604 0.0000e+00
      2.627     -0.043     2.0801     29.604     49.599  44.365950     8.5037      7.634   210.1767 5.1018e+01     4.9454      2.572      3.730    19.5921 0.0000e+00
      2.630     -0.028     2.0703     32.500     49.544  44.294802     6.6008      7.634   210.0731 5.0815e+01     4.5196      2.580      3.742    19.7929 0.0000e+00
      2.633     -0.021     2.1760     34.833     49.288  44.079960     6.4813      7.636   209.8493 5.0827e+01     4.4619      2.582      3.744    19.8263 0.0000e+00
      2.633     -0.024     2.4122     36.410     48.563  43.482166     7.3003      7.638   209.7940 5.0921e+01     4.6238      2.582      3.745    19.7732 0.0000e+00
      2.629     -0.032     2.7107     37.230     47.735  42.843171     8.8547      7.639   210.0065 5.1375e+01     4.9052      2.582      3.743    19.7094 0.0000e+00
      2.618     -0.038     2.9943     37.436     47.123  42.447540     9.7111      7.638   210.2683 5.2392e+01     5.0295      2.571      3.729    19.6808 0.0000e+00
      2.597     -0.038     3.2101     37.465     46.647  42.189782     9.7971      7.638   210.3773 5.3723e+01     4.9987      2.547      3.694    19.7059 0.0000e+00
      2.576     -0.035     3.3515     38.094     46.567  42.265691     9.8777      7.639   210.2924 5.4433e+01     4.9773      2.520      3.654    19.7426 0.0000e+00
      2.568     -0.035     3.4158     39.841     46.790  42.540447    10.8517      7.641   210.1880 5.4145e+01     5.1124      2.513      3.645    19.8485 0.0000e+00
      2.572     -0.040     3.4112     42.521     46.651  42.401877    12.6600      7.642   210.1472 5.3805e+01     5.4363      2.524      3.661    20.0313 0.0000e+00
      2.574     -0.050     3.3707     45.653     46.225  41.986547    13.6477      7.645   210.1427 5.3972e+01     5.6485      2.528      3.666    20.2226 0.0000e+00
      2.567     -0.064     3.3910     48.668     46.111  41.898124    13.6553      7.647   210.3065 5.4836e+01     5.6285      2.522      3.658    20.4087 0.0000e+00
      2.544     -0.075     3.5578     51.081     46.365  42.157929    12.7438      7.648   210.4927 5.6691e+01     5.4345      2.501      3.629    20.4972 0.0000e+00
      2.507     -0.079     3.8165     52.888     46.914  42.652544    11.0740      7.648   210.5009 5.9050e+01     5.1122      2.460      3.568    20.4455 0.0000e+00
      2.469     -0.073     4.1220     54.299     47.633  43.245087    10.1714      7.649   210.4059 6.0779e+01     4.9422      2.413      3.501    20.3779 0.0000e+00
      2.446     -0.060     4.4124     55.234     47.950  43.419307    10.0782      7.652   210.1185 6.1227e+01     4.9856      2.390      3.467    20.4233 0.0000e+00
      2.443     -0.049     4.6213     55.390     47.375  42.791186     9.7802      7.655   209.6075 6.0892e+01     4.8847      2.393      3.470    20.4745 0.0000e+00
      2.449     -0.045     4.7714     54.468     46.365  41.870603     9.2317      7.658   209.2175 6.0575e+01     4.5764      2.402      3.483    20.4733 0.0000e+00
      2.451     -0.049     4.9088     52.352     45.892  41.555351     8.9310      7.660   209.1884 6.0902e+01     4.4009      2.407      3.492    20.4163 0.0000e+00
      2.441     -0.056     5.0195     49.583     46.124  41.899306     8.8339      7.662   209.3416 6.2366e+01     4.4364      2.401      3.483    20.2731 0.0000e+00
      2.413     -0.064     5.0575     47.406     46.629  42.411801     7.9749      7.664   209.4349 6.4735e+01     4.4246      2.371      3.439    20.1144 0.0000e+00
      2.376     -0.069     4.9860     46.737     46.959  42.674366     6.3849      7.667   209.2846 6.6643e+01     4.2925      2.325      3.372    20.0854 0.0000e+00
      2.351     -0.070     4.7640     47.424     46.749  42.408128     5.5064      7.671   208.9010 6.7235e+01     4.2051      2.298      3.332    20.2646 0.0000e+00
      2.343     -0.070     4.4448     48.629     46.112  41.794908     5.4183      7.676   208.5829 6.7297e+01     4.1878      2.297      3.331    20.4576 0.0000e+00
      2.341     -0.070     4.2083     49.562     45.570  41.353013     5.3776      7.680   208.5359 6.7668e+01     4.2203      2.299      3.334    20.5100 0.0000e+00
      2.331     -0.070     4.1643     50.034     45.424  41.317689     5.3144      7.684   208.6760 6.8844e+01     4.2910      2.290      3.323    20.4514 0.0000e+00
      2.309     -0.072     4.2665     50.404     45.602  41.558354     5.2689      7.687   208.9868 7.0775e+01     4.3254      2.268      3.290    20.3348 0.0000e+00
      2.277     -0.069     4.4121     51.130     45.753  41.724271     5.2437      7.688   209.5399 7.2890e+01     4.3622      2.232      3.237    20.2701 0.0000e+00
      2.247     -0.056     4.4936     52.359     45.773  41.737109     5.2017      7.688   210.0297 7.4667e+01     4.3266      2.198      3.188    20.3483 0.0000e+00
      2.229     -0.035     4.5085     53.788     45.904  41.840501     5.0775      7.688   210.2622 7.5288e+01     4.1688      2.180      3.162    20.4867 0.0000e+00
      2.226     -0.012     4.5161     54.967     45.997  41.895389     4.9067      7.689   210.3717 7.4490e+01     4.0941      2.177      3.159    20.5840 0.0000e+00
      2.236      0.005     4.5725     55.747     45.962  41.829503     4.8178      7.691   210.3215 7.3362e+01     4.0716      2.190      3.175    20.6085 0.0000e+00
      2.252      0.008     4.6977     56.213     45.955  41.805461     4.8021      7.693   210.1721 7.2484e+01     4.0338      2.211      3.206    20.5839 0.0000e+00
      2.265     -0.008     4.8455     56.310     45.877  41.731612     4.8080      7.696   210.2000 7.1836e+01     4.0804      2.225      3.227    20.5758 0.0000e+00
      2.268     -0.037     4.9593     55.953     45.621  41.507821     4.8393      7.700   210.4009 7.2070e+01     4.1234      2.229      3.233    20.5414 0.0000e+00
      2.256     -0.067     5.0256     55.243     45.379  41.321002     4.8725      7.704   210.5361 7.3482e+01     4.0747      2.218      3.218    20.4876 0.0000e+00
      2.228     -0.087     5.0739     54.403     45.250  41.249946     4.8765      7.705   210.5446 7.6285e+01     3.9702      2.190      3.177    20.4763 0.0000e+00
      2.185     -0.093     5.0874     53.763     45.104  41.156497     4.8547      7.706   210.5892 8.0001e+01     3.9186      2.143      3.109    20.4763 0.0000e+00
      2.140     -0.085     5.0510     53.725     45.052  41.143178     4.8252      7.708   210.8177 8.2709e+01     3.9631      2.090      3.032    20.4741 0.0000e+00
      2.115     -0.068     4.9751     54.373     45.111  41.215887     4.8110      7.710   211.1552 8.3284e+01     4.0305      2.065      2.996    20.5165 0.0000e+00
      2.112     -0.052     4.8850     55.390     45.034  41.147110     4.8077      7.713   211.4004 8.2685e+01     4.0847      2.069      3.001    20.5841 0.0000e+00
      2.118     -0.047     4.8069     56.510     44.804  40.946257     4.6443      7.717   211.4603 8.2014e+01     4.0712      2.076      3.011    20.6170 0.0000e+00
      2.123     -0.056     4.7936     57.551     44.635  40.818332     4.3243      7.722   211.4489 8.1985e+01     4.0391      2.084      3.023    20.6623 0.0000e+00
      2.116     -0.074     4.8679     58.406     44.590  40.806279     4.1517      7.726   211.5214 8.3793e+01     4.0375      2.084      3.023    20.6916 0.0000e+00
      2.086     -0.094     4.9654     59.185     44.563  40.800559     4.1474      7.730   211.5625 8.7528e+01     4.0175      2.054      2.978    20.6728 0.0000e+00
      2.039     -0.110     5.0707     60.002     44.488  40.749208     4.2059      7.735   211.4293 9.1933e+01     4.0022      1.999      2.899    20.6798 0.0000e+00
      1.994     -0.124     5.1672     60.826     44.338  40.629670     4.3017      7.741   211.2007 9.5020e+01     3.9896      1.948      2.825    20.7207 0.0000e+00
      1.967     -0.133     5.2327     61.621     44.173  40.497632     4.3577      7.746   211.1222 9.6240e+01     4.0016      1.923      2.789    20.7586 0.0000e+00
      1.950     -0.130     5.2958     62.397     44.136  40.485547     4.3823      7.750   211.2545 9.8370e+01     4.0101      1.918      2.781    20.7721 0.0000e+00
      1.922     -0.116     5.3706     63.160     44.184  40.547052     4.5910      7.754   211.3375 1.0335e+02     4.0242      1.895      2.749    20.7923 0.0000e+00
      1.877     -0.101     5.4429     63.952     44.171  40.543187     4.9825      7.757   211.3511 1.0894e+02     4.1040      1.840      2.669    20.8155 0.0000e+00
      1.834     -0.088     5.5108     64.778     44.116  40.502297     5.1885      7.760   211.3333 1.1218e+02     4.1557      1.787      2.592    20.8305 0.0000e+00
      1.814     -0.078     5.5778     65.493     44.095  40.496912     5.1916      7.765   211.1228 1.1252e+02     4.2056      1.772      2.570    20.8621 0.0000e+00
      1.813     -0.072     5.6415     65.950     44.067  40.478101     5.1703      7.770   210.9562 1.1159e+02     4.2623      1.779      2.580    20.8864 0.0000e+00
      1.814     -0.068     5.7097     66.180     44.057  40.465261     5.0224      7.772   211.2127 1.1204e+02     4.2260      1.781      2.584    20.8887 0.0000e+00
      1.804     -0.064     5.7893     66.263     44.132  40.532052     4.7515      7.772   211.7285 1.1525e+02     4.1081      1.777      2.577    20.8930 0.0000e+00
      1.776     -0.060     5.8572     66.217     44.195  40.587550     4.5840      7.772   212.1156 1.2010e+02     3.9986      1.748      2.535    20.9203 0.0000e+00
      1.736     -0.055     5.8936     66.081     44.177  40.565101     4.5442      7.773   212.1941 1.2396e+02     3.9948      1.695      2.459    20.9310 0.0000e+00
      1.711     -0.052     5.9122     65.911     44.125  40.514470     4.4949      7.776   211.9899 1.2497e+02     4.0627      1.664      2.415    20.9145 0.0000e+00
      1.712     -0.057     5.9205     65.683     44.019  40.419617     4.4209      7.780   211.7115 1.2302e+02     4.1027      1.675      2.430    20.9170 0.0000e+00
      1.726     -0.068     5.9152     65.384     43.883  40.306752     4.3823      7.784   211.7531 1.2096e+02     4.1020      1.697      2.462    20.9167 0.0000e+00
      1.729     -0.081     5.9009     65.104     43.844  40.292201     4.3697      7.787   212.1485 1.2295e+02     4.0554      1.707      2.475    20.9036 0.0000e+00
      1.701     -0.092     5.8881     64.948     43.910  40.370647     4.3935      7.788   212.4487 1.3042e+02     4.0505      1.683      2.442    20.9019 0.0000e+00
      1.644     -0.102     5.8696     65.035     43.971  40.430226     4.4617      7.789   212.3715 1.3943e+02     4.1454      1.613      2.338    20.9027 0.0000e+00
      1.587     -0.109     5.8367     65.429     43.922  40.377929     4.4958      7.793   212.0753 1.4352e+02     4.1782      1.541      2.235    20.9157 0.0000e+00
      1.562     -0.112     5.8055     65.985     43.781  40.246039     4.4893      7.799   211.9646 1.4288e+02     4.1056      1.521      2.207    20.9466 0.0000e+00
      1.563     -0.107     5.7853     66.466     43.679  40.168291     4.4247      7.805   212.1506 1.4226e+02     4.0187      1.535      2.226    20.9714 0.0000e+00
      1.558     -0.095     5.7873     66.789     43.691  40.199476     4.3137      7.809   212.3460 1.4491e+02     3.9826      1.541      2.234    20.9763 0.0000e+00
      1.526     -0.086     5.8310     67.082     43.730  40.242335     4.2708      7.813   212.4344 1.5306e+02     4.0104      1.505      2.182    20.9575 0.0000e+00
      1.480     -0.087     5.8915     67.481     43.733  40.242255     4.2886      7.817   212.3592 1.6141e+02     4.0473      1.442      2.092    20.9472 0.0000e+00
      1.448     -0.096     5.9344     67.914     43.686  40.198509     4.3715      7.821   212.0387 1.6461e+02     4.0523      1.411      2.047    20.9743 0.0000e+00
      1.436     -0.103     5.9535     68.195     43.563  40.094184     4.5239      7.826   211.8292 1.6499e+02     4.0023      1.407      2.042    21.0067 0.0000e+00
      1.430     -0.103     5.9725     68.263     43.506  40.059768     4.6157      7.829   211.9771 1.6527e+02     3.9902      1.406      2.039    21.0112 0.0000e+00
      1.410     -0.096     6.0125     68.266     43.532  40.099738     4.6411      7.830   212.1914 1.7036e+02     4.0770      1.393      2.021    21.0023 0.0000e+00
      1.367     -0.088     6.0594     68.426     43.497  40.069771     4.6480      7.831   212.3558 1.7899e+02     4.0949      1.343      1.949    21.0005 0.0000e+00
      1.322     -0.078     6.0864     68.803     43.437  40.014750     4.6074      7.831   212.5016 1.8499e+02     4.0010      1.285      1.862    21.0071 0.0000e+00
      1.298     -0.068     6.0830     69.219     43.419  40.005649     4.5411      7.833   212.4059 1.8677e+02     3.9322      1.264      1.834    21.0349 0.0000e+00
      1.297     -0.061     6.0715     69.534     43.427  40.023218     4.5051      7.837   212.2309 1.8709e+02     3.9811      1.270      1.843    21.0613 0.0000e+00
      1.303     -0.056     6.0829     69.824     43.435  40.036806     4.5044      7.841   212.4509 1.8749e+02     4.1138      1.279      1.855    21.0553 0.0000e+00
      1.303     -0.054     6.1262     70.215     43.439  40.043026     4.4161      7.842   212.9150 1.8660e+02     4.1019      1.286      1.865    21.0502 0.0000e+00
      1.284     -0.056     6.1676     70.657     43.431  40.034954     4.2112      7.840   213.1961 1.8960e+02     3.9064      1.268      1.841    21.0640 0.0000e+00
      1.247     -0.058     6.1899     70.984     43.393  40.002665     4.0834      7.840   213.2676 1.9452e+02     3.7645      1.220      1.769    21.0779 0.0000e+00
      1.216     -0.060     6.2087     71.150     43.348  39.969940     4.0612      7.842   213.1782 1.9551e+02     3.7869      1.181      1.713    21.0848 0.0000e+00
      1.206     -0.066     6.2447     71.213     43.324  39.956610     4.0336      7.846   213.0614 1.9505e+02     3.8703      1.177      1.709    21.0871 0.0000e+00
      1.211     -0.073     6.2931     71.254     43.331  39.968440     3.9915      7.848   213.2326 1.9536e+02     3.8843      1.188      1.723    21.0850 0.0000e+00
      1.211     -0.078     6.3221     71.352     43.348  39.986057     3.9682      7.848   213.6136 1.9925e+02     3.8198      1.197      1.735    21.0853 0.0000e+00
      1.190     -0.083     6.3328     71.496     43.341  39.979226     3.9769      7.848   213.8812 2.0875e+02     3.7728      1.179      1.710    21.0982 0.0000e+00
      1.143     -0.089     6.3349     71.623     43.308  39.949314     4.1054      7.849   213.8877 2.1815e+02     3.8634      1.120      1.624    21.1114 0.0000e+00
      1.096     -0.096     6.3339     71.708     43.296  39.941708     4.3394      7.853   213.6918 2.2005e+02     4.0272      1.062      1.541    21.1165 0.0000e+00
      1.074     -0.098     6.3433     71.743     43.300  39.950729     4.4589      7.858   213.5783 2.1990e+02     4.0792      1.046      1.517    21.1186 0.0000e+00
      1.072     -0.091     6.3600     71.759     43.275  39.931471     4.4601      7.863   213.7190 2.2410e+02     4.0128      1.055      1.528    21.1163 0.0000e+00
      1.062     -0.076     6.3706     71.817     43.237  39.899253     4.3960      7.865   214.0171 2.3395e+02     3.9084      1.052      1.525    21.1149 0.0000e+00
      1.033     -0.061     6.3785     71.926     43.208  39.878495     4.2743      7.863   214.1710 2.4145e+02     3.8419      1.014      1.471    21.1211 0.0000e+00
      0.999     -0.056     6.3802     72.062     43.189  39.870888     4.2201      7.862   214.0315 2.3964e+02     3.8581      0.971      1.409    21.1284 0.0000e+00
      0.984     -0.058     6.3774     72.222     43.179  39.870763     4.2155      7.864   213.9640 2.3785e+02     3.8312      0.958      1.389    21.1322 0.0000e+00
      0.985     -0.062     6.3830     72.413     43.181  39.876993     4.1933      7.866   214.2160 2.3786e+02     3.7554      0.965      1.399    21.1344 0.0000e+00
      0.988     -0.062     6.3930     72.648     43.187  39.882757     4.1523      7.866   214.4977 2.4621e+02     3.7954      0.975      1.414    21.1403 0.0000e+00
      0.976     -0.061     6.4033     72.919     43.182  39.876992     4.1014      7.866   214.6170 2.6080e+02     3.9394      0.968      1.404    21.1546 0.0000e+00
      0.942     -0.064     6.4155     73.153     43.177  39.870750     4.0860      7.867   214.4535 2.7478e+02     4.0615      0.924      1.341    21.1667 0.0000e+00
      0.907     -0.072     6.4319     73.281     43.177  39.870750     4.0825      7.872   214.0692 2.8020e+02     4.0755      0.879      1.275    21.1707 0.0000e+00
      0.890     -0.079     6.4522     73.346     43.182  39.876991     4.0510      7.878   214.0152 2.7026e+02     4.0073      0.867      1.257    21.1698 0.0000e+00
      0.887     -0.078     6.4791     73.380     43.186  39.882756     4.0218      7.881   214.4019 2.6757e+02     3.9537      0.872      1.265    21.1672 0.0000e+00
      0.877     -0.068     6.5047     73.367     43.178  39.876986     4.0198      7.881   214.9597 2.7809e+02     3.9742      0.870      1.262    21.1668 0.0000e+00
      0.850     -0.053     6.5120     73.328     43.169  39.870696     4.0270      7.879   215.5110 2.8775e+02     4.0492      0.835      1.212    21.1662 0.0000e+00
      0.818     -0.037     6.5165     73.313     43.165  39.870159     3.9764      7.876   215.8187 2.8887e+02     4.0072      0.794      1.151    21.1675 0.0000e+00
      0.802     -0.018     6.5212     73.340     43.158  39.870507     3.8826      7.875   215.9274 2.9578e+02     3.8419      0.780      1.131    21.1713 0.0000e+00
      0.806      0.004     6.5182     73.391     43.157  39.874907     3.8411      7.875   216.0505 3.0027e+02     3.7586      0.785      1.140    21.1732 0.0000e+00
      0.823      0.023     6.5131     73.454     43.140  39.859907     3.8415      7.876   216.1023 2.9279e+02     3.7859      0.805      1.167    21.1745 0.0000e+00
      0.844      0.025     6.5103     73.535     43.092  39.816070     3.8375      7.879   216.0380 3.0062e+02     3.8991      0.832      1.205    21.1764 0.0000e+00
      0.860      0.004     6.5131     73.636     43.059  39.789110     3.8176      7.883   215.9605 3.0438e+02     3.9996      0.845      1.226    21.1849 0.0000e+00
      0.868     -0.032     6.5167     73.748     43.055  39.787793     3.7918      7.887   216.0262 2.9889e+02     3.9761      0.853      1.238    21.1949 0.0000e+00
      0.862     -0.067     6.5222     73.862     43.066  39.800157     3.7839      7.890   216.3162 3.0957e+02     3.9227      0.857      1.243    21.1916 0.0000e+00
      0.829     -0.094     6.5292     73.957     43.076  39.811675     3.8219      7.892   216.4558 3.4838e+02     3.9697      0.823      1.194    21.1928 0.0000e+00
      0.774     -0.114     6.5379     74.052     43.060  39.800133     3.8932      7.893   216.1656 3.7789e+02     4.0996      0.754      1.095    21.1992 0.0000e+00
      0.729     -0.133     6.5475     74.177     43.040  39.787543     3.9219      7.896   215.6469 3.5564e+02     4.1269      0.703      1.020    21.1999 0.0000e+00
      0.707     -0.147     6.5586     74.321     43.034  39.786388     3.9031      7.901   215.3454 3.4851e+02     4.0266      0.690      1.001    21.2029 0.0000e+00
      0.693     -0.150     6.5666     74.476     43.033  39.786171     3.8816      7.905   215.4463 3.6288e+02     3.9459      0.688      0.999    21.2050 0.0000e+00
      0.658     -0.143     6.5715     74.602     43.033  39.784913     3.8703      7.905   215.7481 3.6533e+02     3.9365      0.656      0.952    21.2093 0.0000e+00
      0.598     -0.131     6.5841     74.647     43.015  39.771180     3.8668      7.905   216.0683 3.9956e+02     3.9815      0.586      0.849    21.2159 0.0000e+00
      0.541     -0.114     6.5954     74.647     42.980  39.747052     3.8558      7.905   216.2211 4.3538e+02     4.0118      0.518      0.752    21.2221 0.0000e+00
      0.509     -0.089     6.6094     74.663     42.971  39.747041     3.8371      7.906   216.2188 4.2147e+02     3.9606      0.490      0.710    21.2237 0.0000e+00
      0.500     -0.057     6.6257     74.720     42.988  39.771062     3.8156      7.909   216.1268 4.0981e+02     3.9095      0.486      0.705    21.2184 0.0000e+00
      0.504     -0.026     6.6261     74.823     42.993  39.783648     3.7955      7.914   216.0552 4.1248e+02     3.9737      0.493      0.715    21.2219 0.0000e+00
      0.512     -0.004     6.6222     74.950     42.973  39.772309     3.7931      7.917   216.2994 3.8359e+02     4.0546      0.504      0.731    21.2341 0.0000e+00
      0.517      0.006     6.6227     75.096     42.953  39.760891     3.7960      7.918   216.7559 3.5964e+02     4.0336      0.510      0.739    21.2435 0.0000e+00
      0.515      0.009     6.6252     75.279     42.959  39.772534     3.8137      7.917   217.1009 3.5893e+02     3.9241      0.507      0.734    21.2537 0.0000e+00
      0.511      0.008     6.6349     75.489     42.970  39.786161     3.8653      7.916   217.2014 3.5441e+02     3.8239      0.498      0.723    21.2631 0.0000e+00
      0.512      0.007     6.6451     75.708     42.983  39.798738     3.9120      7.917   217.1968 3.9501e+02     3.8134      0.500      0.726    21.2703 0.0000e+00
      0.519      0.006     6.6555     75.902     42.987  39.797680     3.9369      7.920   217.2171 4.4871e+02     3.8306      0.509      0.738    21.2806 0.0000e+00
      0.525      0.007     6.6717     76.026     42.968  39.773366     4.0171      7.922   217.1891 4.5262e+02     3.8620      0.516      0.748    21.2871 0.0000e+00
      0.526      0.009     6.6902     76.048     42.962  39.758601     4.1572      7.925   217.2887 4.3084e+02     3.9193      0.517      0.752    21.2910 0.0000e+00
      0.524      0.012     6.7106     75.985     42.957  39.746066     4.2414      7.926   217.6469 3.9949e+02     4.0111      0.512      0.743    21.2928 0.0000e+00
      0.522      0.017     6.7298     75.875     42.963  39.748719     4.2691      7.926   217.9924 4.1651e+02     4.1181      0.510      0.740    21.2872 0.0000e+00
      0.525      0.024     6.7435     75.718     43.005  39.790667     4.3089      7.925   218.1965 4.4707e+02     4.1538      0.514      0.746    21.2786 0.0000e+00
      0.533      0.030     6.7463     75.529     43.019  39.809024     4.3481      7.924   218.3084 4.5977e+02     4.1011      0.520      0.755    21.2668 0.0000e+00
      0.547      0.033     6.7400     75.362     42.982  39.780297     4.3523      7.925   218.3986 4.6135e+02     3.9932      0.534      0.776    21.2551 0.0000e+00
      0.563      0.033     6.7318     75.245     42.958  39.760650     4.3512      7.926   218.6844 4.1548e+02     3.9424      0.554      0.804    21.2512 0.0000e+00
      0.574      0.030     6.7170     75.197     42.961  39.761865     4.3428      7.926   219.0968 4.0265e+02     3.9991      0.567      0.822    21.2561 0.0000e+00
      0.577      0.026     6.6964     75.223     42.999  39.794991     4.3012      7.926   219.3404 4.2020e+02     4.0991      0.568      0.824    21.2642 0.0000e+00
      0.576      0.021     6.6804     75.283     43.054  39.843858     4.2640      7.926   219.3935 4.1182e+02     4.1264      0.564      0.818    21.2721 0.0000e+00
      0.578      0.015     6.6692     75.328     43.058  39.845001     4.2429      7.927   219.2228 3.9999e+02     4.0552      0.565      0.818    21.2745 0.0000e+00
      0.586      0.002     6.6641     75.359     43.022  39.808813     4.2377      7.928   218.7386 3.7588e+02     4.0241      0.573      0.832    21.2723 0.0000e+00
      0.594     -0.028     6.6690     75.381     43.002  39.787080     4.2259      7.929   217.7552 3.8246e+02     4.0579      0.584      0.846    21.2695 0.0000e+00
      0.598     -0.084     6.6765     75.348     42.985  39.772611     4.1832      7.934   216.2814 4.0706e+02     4.0887      0.589      0.854    21.2659 0.0000e+00
      0.593     -0.163     6.6804     75.252     42.969  39.760796     4.1460      7.940   215.0287 4.2215e+02     4.0541      0.589      0.855    21.2650 0.0000e+00
      0.558     -0.247     6.6824     75.143     42.975  39.771163     4.1169      7.945   214.4824 4.6365e+02     3.9808      0.565      0.820    21.2599 0.0000e+00
      0.475     -0.313     6.6880     75.068     42.967  39.771048     3.9731      7.946   214.2359 5.3081e+02     3.9892      0.484      0.703    21.2534 0.0000e+00
      0.346     -0.350     6.6853     75.075     42.944  39.759417     3.7226      7.947   213.8554 6.4628e+02     4.0527      0.345      0.500    21.2568 0.0000e+00
      0.204     -0.355     6.6730     75.169     42.931  39.757472     3.5847      7.949   213.4098 7.2732e+02     4.0999      0.186      0.270    21.2627 0.0000e+00
      0.092     -0.325     6.6626     75.289     42.911  39.747545     3.5379      7.954   213.0628 7.1844e+02     4.1160      0.070      0.101    21.2662 0.0000e+00
      0.027     -0.264     6.6526     75.426     42.924  39.766332     3.2734      7.958   212.9298 6.8952e+02     4.0755      0.018      0.025    21.2745 0.0000e+00
     -0.013     -0.187     6.6505     75.615     42.947  39.794240     2.8334      7.959   212.8341 7.3290e+02     4.0540     -0.012     -0.018    21.2875 0.0000e+00
     -0.048     -0.114     6.6613     75.818     42.911  39.767681     2.6127      7.961   212.7667 8.1178e+02     4.0613     -0.051     -0.074    21.3001 0.0000e+00
     -0.070     -0.060     6.6708     76.009     42.902  39.762531     2.6019      7.963   212.9756 8.9598e+02     4.0615     -0.077     -0.111    21.3103 0.0000e+00
     -0.071     -0.021     6.6787     76.194     42.938  39.795439     2.7114      7.962   213.2947 1.0442e+03     4.0562     -0.073     -0.106    21.3152 0.0000e+00
     -0.062      0.009     6.6977     76.331     42.924  39.784794     2.9374      7.959   213.5272 1.1219e+03     3.9968     -0.058     -0.084    21.3231 0.0000e+00
     -0.055      0.032     6.7153     76.415     42.892  39.760758     3.0711      7.958   213.5498 1.1726e+03     3.9931     -0.053     -0.077    21.3362 0.0000e+00
     -0.046      0.042     6.7289     76.463     42.884  39.758676     3.0959      7.959   213.3959 1.1571e+03     4.0453     -0.050     -0.072    21.3382 0.0000e+00
     -0.030      0.032     6.7504     76.464     42.879  39.759631     3.1459      7.961   213.7310 9.5650e+02     4.0139     -0.030     -0.042    21.3331 0.0000e+00
     -0.010      0.006     6.7607     76.406     42.885  39.772307     3.2265      7.963   217.4302 8.2093e+02     3.9553     -0.008     -0.011    21.3360 0.0000e+00
      0.004     -0.030     6.7665     76.359     42.893  39.785029     3.2635      7.964   221.0395 8.3538e+02     3.9849      0.007      0.010    21.3451 0.0000e+00
      0.001     -0.073     6.7703     76.421     42.893  39.786531     3.2683      7.968   218.1367 9.1914e+02     4.0992      0.015      0.020    21.3526 0.0000e+00
     -0.033     -0.127     6.7702     76.480     42.898  39.790469     3.2592      7.972   213.9093 1.0172e+03     4.1409     -0.021     -0.029    21.3568 0.0000e+00
     -0.088     -0.188     6.7642     76.430     42.940  39.832646     3.0532      7.976   212.6016 1.0578e+03     4.0115     -0.094     -0.135    21.3662 0.0000e+00
     -0.140     -0.243     6.7486     76.295     43.023  39.915724     2.6679      7.981   214.1129 1.0723e+03     3.8331     -0.139     -0.200    21.3757 0.0000e+00
     -0.196     -0.276     6.7641     76.141     43.070  39.969956     2.4463      7.989   215.6628 1.0974e+03     3.7603     -0.176     -0.255    21.3735 0.0000e+00
     -0.282     -0.279     6.7727     76.020     43.071  39.980679     2.4213      7.994   213.2724 9.5231e+02     3.8138     -0.267     -0.388    21.3718 0.0000e+00
     -0.389     -0.256     6.7648     75.813     43.065  39.981929     2.3309      7.997   210.9371 6.2300e+02     4.0021     -0.390     -0.565    21.3755 0.0000e+00
     -0.480     -0.216     6.7518     75.307     43.066  39.985082     2.1439      7.998   206.8719 4.2399e+02     4.2605     -0.488     -0.707    21.3823 0.0000e+00
     -0.531     -0.168     6.7311     74.468     43.036  39.955341     2.0336      7.998   198.3639 3.8222e+02     4.4105     -0.535     -0.775    21.3960 0.0000e+00
     -0.546     -0.117     6.7242     73.475     42.476  39.431933     1.9456      8.001   192.8166 3.6379e+02     4.5851     -0.542     -0.787    21.4086 0.0000e+00
     -0.542     -0.073     6.7134     72.506     35.914  33.339285     1.1805      8.007   192.0255 3.5826e+02     5.7912     -0.530     -0.770    21.4168 0.0000e+00
     -0.539     -0.044     6.6713     71.738     21.829  20.264633    -0.2096      8.013   191.9815 3.5408e+02     7.8576     -0.519     -0.754    21.4197 0.0000e+00
     -0.553     -0.032     6.5867     71.276     11.069  10.274802    -0.9794      8.018   191.8551 3.3686e+02     8.9376     -0.536     -0.777    21.4152 0.0000e+00
     -0.576     -0.030     6.4980     71.193      8.526   7.911534    -1.0355      8.023   191.7015 3.0335e+02     8.8411     -0.572     -0.830    21.4101 0.0000e+00
     -0.588     -0.028     6.4035     71.540     11.471  10.639628    -0.8541      8.027   191.3286 2.5496e+02     6.7250     -0.580     -0.843    21.4098 0.0000e+00
     -0.590     -0.023     6.3338     72.112     14.117  13.091940    -0.5341      8.031   191.2185 2.0151e+02     2.8221     -0.577     -0.837    21.4149 0.0000e+00
     -0.590     -0.019     6.2923     72.410     13.987  12.969869    -0.3796      8.033   191.3161 1.6937e+02     0.8663     -0.578     -0.839    21.4127 0.0000e+00
     -0.590 -9.990e-29     6.2820 -9.990e-29 -9.990e-29 -9.990e-29 -9.990e-29 -9.990e-29 -9.990e-29 1.5669e+02 -9.990e-29     -0.577     -0.838    21.3920 0.0000e+00
     -0.590 -9.990e-29     6.3211 -9.990e-29 -9.990e-29 -9.990e-29 -9.990e-29 -9.990e-29 -9.990e-29 1.4526e+02 -9.990e-29     -0.578     -0.839    21.3751 0.0000e+00
     -0.590 -9.990e-29     6.3910 -9.990e-29 -9.990e-29 -9.990e-29 -9.990e-29 -9.990e-29 -9.990e-29 1.3374e+02 -9.990e-29     -0.578     -0.838    21.3603 0.0000e+00
     -0.590 -9.990e-29     6.4386 -9.990e-29 -9.990e-29 -9.990e-29 -9.990e-29 -9.990e-29 -9.990e-29 1.2859e+02 -9.990e-29     -0.578     -0.839    21.3479 0.0000e+00
