* Sea-Bird SBE19plus  Data File:
* FileName = C:\DATA\091119_fcr50_0_0004.hex
* Software version 2.8.0.119 SB_Terminal.dll
* Temperature SN = 7809
* Conductivity SN = 7809
* System UpLoad Time = Sep 11 2019 16:22:23
* <ApplicationData>
* <Seaterm232>
* <SoftwareVersion>2.8.0.119</SoftwareVersion>
* <BuildDate>07-Nov-2018</BuildDate>
* </Seaterm232>
* </ApplicationData>
* cast   4 11 Sep 2019 11:07:02 samples 1670 to 2313, avg = 1, stop = mag switch
# nquan = 16
# nvalues = 411                         
# units = specified
# name 0 = depFM: Depth [fresh water, m]
# name 1 = sbeox0Mg/L: Oxygen, SBE 43 [mg/l]
# name 2 = sbeox0PS: Oxygen, SBE 43 [% saturation]
# name 3 = specc: Specific Conductance [uS/cm]
# name 4 = c0uS/cm: Conductivity [uS/cm]
# name 5 = flECO-AFL: Fluorescence, WET Labs ECO-AFL/FL [mg/m^3]
# name 6 = ph: pH
# name 7 = orp: Oxidation Reduction Potential [mV]
# name 8 = par/sat/log: PAR/Logarithmic, Satlantic
# name 9 = turbWETntu0: Turbidity, WET Labs ECO [NTU]
# name 10 = prdM: Pressure, Strain Gauge [db]
# name 11 = prdE: Pressure, Strain Gauge [psi]
# name 12 = tv290C: Temperature [ITS-90, deg C]
# name 13 = density00: Density [density, kg/m^3]
# name 14 = dz/dtM: Descent Rate [m/s]
# name 15 = flag:  0.000e+00
# span 0 =     -0.487,      6.544       
# span 1 =     0.0832,     9.4187       
# span 2 =      0.956,    113.640       
# span 3 =      1.714,     86.606       
# span 4 =   1.611355,  68.588471       
# span 5 =    -0.4212,    15.8759       
# span 6 =      6.521,      7.345       
# span 7 =    20.8161,   154.6178       
# span 8 = 1.2349e-01, 1.2775e+03       
# span 9 =    -4.1987,    23.1136       
# span 10 =     -0.477,      6.418      
# span 11 =     -0.693,      9.308      
# span 12 =    12.2553,    24.9347      
# span 13 =   997.0830,   999.5216      
# span 14 =     -0.002,      0.224      
# span 15 = 0.0000e+00, 0.0000e+00      
# interval = seconds: 0.25
# start_time = Sep 11 2019 11:07:02 [Instrument's time stamp, header]
# bad_flag = -9.990e-29
# <Sensors count="9" >
#   <sensor Channel="1" >
#     <!-- Count, Temperature -->
#     <TemperatureSensor SensorID="58" >
#       <SerialNumber>7809</SerialNumber>
#       <CalibrationDate>24-Mar-19</CalibrationDate>
#       <A0>1.21792325e-003</A0>
#       <A1>2.81669265e-004</A1>
#       <A2>-1.60333336e-006</A2>
#       <A3>1.98414625e-007</A3>
#       <Slope>1.00000000</Slope>
#       <Offset>0.0000</Offset>
#     </TemperatureSensor>
#   </sensor>
#   <sensor Channel="2" >
#     <!-- Frequency 0, Conductivity -->
#     <ConductivitySensor SensorID="3" >
#       <SerialNumber>7809</SerialNumber>
#       <CalibrationDate>24-Mar-19</CalibrationDate>
#       <UseG_J>1</UseG_J>
#       <!-- Cell const and series R are applicable only for wide range sensors. -->
#       <SeriesR>0.0000</SeriesR>
#       <CellConst>2000.0000</CellConst>
#       <ConductivityType>0</ConductivityType>
#       <Coefficients equation="0" >
#         <A>0.00000000e+000</A>
#         <B>0.00000000e+000</B>
#         <C>0.00000000e+000</C>
#         <D>0.00000000e+000</D>
#         <M>0.0</M>
#         <CPcor>-9.57000000e-008</CPcor>
#       </Coefficients>
#       <Coefficients equation="1" >
#         <G>-1.00589325e+000</G>
#         <H>1.26816302e-001</H>
#         <I>-1.51560448e-004</I>
#         <J>2.67137274e-005</J>
#         <CPcor>-9.57000000e-008</CPcor>
#         <CTcor>3.2500e-006</CTcor>
#         <!-- WBOTC not applicable unless ConductivityType = 1. -->
#         <WBOTC>0.00000000e+000</WBOTC>
#       </Coefficients>
#       <Slope>1.00000000</Slope>
#       <Offset>0.00000</Offset>
#     </ConductivitySensor>
#   </sensor>
#   <sensor Channel="3" >
#     <!-- Count, Pressure, Strain Gauge -->
#     <PressureSensor SensorID="46" >
#       <SerialNumber>7809</SerialNumber>
#       <CalibrationDate>11-Mar-19</CalibrationDate>
#       <PA0>4.56561833e-002</PA0>
#       <PA1>4.85095118e-004</PA1>
#       <PA2>-2.88327090e-012</PA2>
#       <PTEMPA0>-5.48784562e+001</PTEMPA0>
#       <PTEMPA1>5.53756816e+001</PTEMPA1>
#       <PTEMPA2>-5.86727098e-001</PTEMPA2>
#       <PTCA0>5.25246745e+005</PTCA0>
#       <PTCA1>1.22304214e+001</PTCA1>
#       <PTCA2>-3.56745036e-001</PTCA2>
#       <PTCB0>2.51668750e+001</PTCB0>
#       <PTCB1>3.75000000e-004</PTCB1>
#       <PTCB2>0.00000000e+000</PTCB2>
#       <Offset>0.000000</Offset>
#     </PressureSensor>
#   </sensor>
#   <sensor Channel="4" >
#     <!-- A/D voltage 0, Oxygen, SBE 43 -->
#     <OxygenSensor SensorID="38" >
#       <SerialNumber>0434</SerialNumber>
#       <CalibrationDate>13-Apr-19</CalibrationDate>
#       <Use2007Equation>1</Use2007Equation>
#       <CalibrationCoefficients equation="0" >
#         <!-- Coefficients for Owens-Millard equation. -->
#         <Boc>0.0000</Boc>
#         <Soc>0.0000e+000</Soc>
#         <offset>0.0000</offset>
#         <Pcor>0.00e+000</Pcor>
#         <Tcor>0.0000</Tcor>
#         <Tau>0.0</Tau>
#       </CalibrationCoefficients>
#       <CalibrationCoefficients equation="1" >
#         <!-- Coefficients for Sea-Bird equation - SBE calibration in 2007 and later. -->
#         <Soc>4.2007e-001</Soc>
#         <offset>-0.6109</offset>
#         <A>-4.3656e-003</A>
#         <B> 1.7017e-004</B>
#         <C>-2.5341e-006</C>
#         <D0> 2.5826e+000</D0>
#         <D1> 1.92634e-004</D1>
#         <D2>-4.64803e-002</D2>
#         <E> 3.6000e-002</E>
#         <Tau20> 1.1800</Tau20>
#         <H1>-3.3000e-002</H1>
#         <H2> 5.0000e+003</H2>
#         <H3> 1.4500e+003</H3>
#       </CalibrationCoefficients>
#     </OxygenSensor>
#   </sensor>
#   <sensor Channel="5" >
#     <!-- A/D voltage 1, PAR/Logarithmic, Satlantic -->
#     <PARLog_SatlanticSensor SensorID="76" >
#       <SerialNumber>1122</SerialNumber>
#       <CalibrationDate>08-May-2019</CalibrationDate>
#       <a0>9.7456e-001</a0>
#       <a1>8.1640e-001</a1>
#       <Im>1.3589e+000</Im>
#       <Multiplier>1.0000e+000</Multiplier>
#     </PARLog_SatlanticSensor>
#   </sensor>
#   <sensor Channel="6" >
#     <!-- A/D voltage 2, pH -->
#     <pH_Sensor SensorID="43" >
#       <SerialNumber>0363</SerialNumber>
#       <CalibrationDate>15-Apr-19</CalibrationDate>
#       <Slope>4.5952</Slope>
#       <Offset>2.5370</Offset>
#     </pH_Sensor>
#   </sensor>
#   <sensor Channel="7" >
#     <!-- A/D voltage 3, Oxidation Reduction Potential -->
#     <OxidationReductionPotentialSensor SensorID="41" >
#       <SerialNumber>0363</SerialNumber>
#       <CalibrationDate>15-Apr-19</CalibrationDate>
#       <B>2.499480</B>
#       <M>-0.496195</M>
#       <Offset>0.0</Offset>
#     </OxidationReductionPotentialSensor>
#   </sensor>
#   <sensor Channel="8" >
#     <!-- A/D voltage 4, Fluorometer, WET Labs ECO-AFL/FL -->
#     <FluoroWetlabECO_AFL_FL_Sensor SensorID="20" >
#       <SerialNumber>FLNTURT-2496</SerialNumber>
#       <CalibrationDate>08-May-2019</CalibrationDate>
#       <ScaleFactor>5.00000000e+001</ScaleFactor>
#       <!-- Dark output -->
#       <Vblank>0.0550</Vblank>
#     </FluoroWetlabECO_AFL_FL_Sensor>
#   </sensor>
#   <sensor Channel="9" >
#     <!-- A/D voltage 5, Turbidity Meter, WET Labs, ECO-NTU -->
#     <TurbidityMeter SensorID="67" >
#       <SerialNumber>FLNTURT-2496</SerialNumber>
#       <CalibrationDate>08-May-2019</CalibrationDate>
#       <ScaleFactor>189.000000</ScaleFactor>
#       <!-- Dark output -->
#       <DarkVoltage>0.071000</DarkVoltage>
#     </TurbidityMeter>
#   </sensor>
# </Sensors>
# datcnv_date = Sep 16 2019 11:28:28, 7.26.7.129 [datcnv_vars = 15]
# datcnv_in = C:\Users\CareyLab\Desktop\CTD_2019\091119_fcr45.hex C:\DATA\SBE19plusV2_7809.xmlcon
# datcnv_skipover = 0
# datcnv_ox_hysteresis_correction = yes
# datcnv_ox_tau_correction = yes
# filter_date = Sep 16 2019 11:29:05, 7.26.7.129
# filter_in = C:\Users\CareyLab\Desktop\CTD_2019\091119_fcr45.cnv
# filter_low_pass_tc_A = 0.030
# filter_low_pass_tc_B = 0.150
# filter_low_pass_A_vars = prdM prdE tv290C density00
# filter_low_pass_B_vars = depFM sbeox0Mg/L sbeox0PS specc c0uS/cm flECO-AFL ph orp par/sat/log turbWETntu0 dz/dtM
# alignctd_date = Sep 16 2019 11:29:40, 7.26.7.129
# alignctd_in = C:\Users\CareyLab\Desktop\CTD_2019\091119_fcr45.cnv
# alignctd_adv = sbeox0Mg/L 1.000, sbeox0PS 1.000, specc 1.000, c0uS/cm 1.000, flECO-AFL 1.000, ph 1.000, orp 1.000, turbWETntu0 1.000, dz/dtM 1.000                                                                                 
# file_type = ascii
*END*
     -0.487     8.3639     95.759      3.280   3.087341    -0.1193      6.527    66.1044 2.2454e+02    -0.5247     -0.477     -0.692    22.0603   997.7645 -7.041e-12 0.0000e+00
     -0.486     8.3646     95.762      2.902   2.731534    -0.1144      6.530    64.4119 2.2478e+02    -0.4662     -0.476     -0.691    22.0579   997.7651 -7.745e-11 0.0000e+00
     -0.486     8.3654     95.768      2.691   2.532368    -0.1125      6.533    63.6682 2.2216e+02    -0.4707     -0.477     -0.692    22.0554   997.7656 -8.520e-10 0.0000e+00
     -0.486     8.3669     95.781      2.540   2.390126    -0.1141      6.535    63.5649 2.1655e+02    -0.4812     -0.477     -0.692    22.0533   997.7662 -9.372e-09 0.0000e+00
     -0.486     8.3688     95.798      2.355   2.215627    -0.1081      6.537    64.1104 2.1220e+02    -0.4623     -0.476     -0.691    22.0507   997.7666 -1.031e-07 0.0000e+00
     -0.486     8.3704     95.813      2.200   2.069996    -0.1089      6.538    64.9286 2.1416e+02    -0.4715     -0.476     -0.691    22.0484   997.7671 -1.890e-07 0.0000e+00
     -0.486     8.3717     95.824      2.218   2.086694    -0.1157      6.539    65.6287 2.1782e+02    -0.4944     -0.477     -0.692    22.0464   997.7675 -1.032e-07 0.0000e+00
     -0.486     8.3729     95.833      2.368   2.227422    -0.1211      6.539    66.2080 2.1787e+02    -0.5092     -0.476     -0.691    22.0444   997.7680 -1.023e-08 0.0000e+00
     -0.486     8.3734     95.834      2.393   2.250783    -0.1213      6.540    66.4269 2.1681e+02    -0.5191     -0.476     -0.691    22.0422   997.7684 -1.023e-08 0.0000e+00
     -0.486     8.3727     95.822      2.249   2.115703    -0.1102      6.542    66.2095 2.1717e+02    -0.5154     -0.477     -0.692    22.0398   997.7689 -1.032e-07 0.0000e+00
     -0.486     8.3723     95.813      2.114   1.988193    -0.1079      6.543    66.1612 2.1890e+02    -0.4977     -0.476     -0.690    22.0374   997.7695 -1.891e-07 0.0000e+00
     -0.486     8.3726     95.812      2.034   1.912985    -0.1194      6.543    66.2732 2.2395e+02    -0.4701     -0.477     -0.691    22.0354   997.7700 -1.031e-07 0.0000e+00
     -0.486     8.3722     95.803      1.956   1.840003    -0.1195      6.544    66.2737 2.3464e+02    -0.4762     -0.476     -0.692    22.0330   997.7705 -9.365e-09 0.0000e+00
     -0.486     8.3719     95.797      1.850   1.739407    -0.1170      6.545    66.5106 2.4731e+02    -0.5059     -0.476     -0.691    22.0307   997.7709 -7.499e-10 0.0000e+00
     -0.486     8.3734     95.810      1.752   1.647129    -0.1244      6.547    67.0723 2.5792e+02    -0.5337     -0.476     -0.691    22.0286   997.7715 1.0461e-09 0.0000e+00
     -0.486     8.3768     95.844      1.714   1.611355    -0.1217      6.548    67.3013 2.7357e+02    -0.5499     -0.476     -0.691    22.0265   997.7719 1.2352e-08 0.0000e+00
     -0.486     8.3800     95.876      1.727   1.623687    -0.1108      6.552    65.8374 3.1307e+02    -0.5381     -0.476     -0.691    22.0240   997.7725 1.3594e-07 0.0000e+00
     -0.487     8.3825     95.900      1.776   1.669511    -0.1138      6.555    63.7407 3.8226e+02    -0.5546     -0.477     -0.692    22.0220   997.7730      0.000 0.0000e+00
     -0.487     8.3847     95.921      1.831   1.721868    -0.1327      6.569    64.1486 4.5840e+02    -0.6512     -0.477     -0.692    22.0192   997.7735      0.000 0.0000e+00
     -0.486     8.3849     95.923      1.861   1.749825    -0.2088      6.633    68.7910 5.1930e+02    -1.5426     -0.477     -0.692    22.0176   997.7738      0.000 0.0000e+00
     -0.486     8.3803     95.910      1.931   1.817443    -0.3407      6.748    79.4323 4.9919e+02    -3.2049     -0.477     -0.692    22.0142   997.7747      0.002 0.0000e+00
     -0.486     8.3541     95.875      2.548   2.412704    -0.4186      6.875   106.5141 3.9264e+02    -4.1347     -0.477     -0.692    22.0142   997.7746      0.007 0.0000e+00
     -0.486     8.2867     95.796      5.436   5.208539    -0.4212      6.987   141.7302 3.3253e+02    -4.1987     -0.477     -0.693    22.0078   997.7761      0.016 0.0000e+00
     -0.484     8.1925     95.714     11.983  11.602469    -0.3992      7.080   154.6178 3.9263e+02    -4.0767     -0.476     -0.691    22.0113   997.7753      0.029 0.0000e+00
     -0.479     8.1059     95.684     22.623  22.101936    -0.2999      7.156   148.7656 4.5510e+02    -3.3810     -0.472     -0.685    21.9992   997.7782      0.046 0.0000e+00
     -0.466     8.0435     95.699     33.473  32.906556    -0.1390      7.217   143.0726 4.3032e+02    -2.2428     -0.461     -0.668    22.0676   997.7626      0.065 0.0000e+00
     -0.445     7.9991     95.694     38.289  37.818503    -0.0585      7.262   139.7303 4.6974e+02    -1.6871     -0.438     -0.635    22.4862   997.6670      0.084 0.0000e+00
     -0.417     7.9656     95.659     38.670  38.346863    -0.0365      7.293   137.5227 6.1289e+02    -1.6758     -0.410     -0.594    23.1318   997.5170      0.101 0.0000e+00
     -0.387     7.9441     95.639     38.626  38.406449     0.0921      7.308   135.0508 7.2858e+02    -1.9094     -0.382     -0.553    23.7123   997.3805      0.115 0.0000e+00
     -0.354     7.9323     95.630     38.573  38.412154     0.3084      7.312   130.9219 7.7317e+02    -2.3492     -0.347     -0.503    24.1247   997.2841      0.127 0.0000e+00
     -0.320     7.9259     95.625     38.545  38.415924     0.4195      7.316   125.1990 7.9087e+02    -2.5364     -0.311     -0.452    24.3947   997.2177      0.140 0.0000e+00
     -0.289     7.9236     95.645     38.497  38.388590     0.4393      7.325   120.7498 8.5900e+02    -2.3703     -0.286     -0.414    24.6012   997.1654      0.155 0.0000e+00
     -0.252     7.9272     95.726     38.428  38.335599     0.5824      7.335   118.5108 9.8055e+02    -0.4717     -0.252     -0.366    24.7332   997.1325      0.171 0.0000e+00
     -0.205     7.9404     95.913     38.363  38.283064     0.8314      7.343   117.4868 1.0917e+03     3.0499     -0.203     -0.295    24.7964   997.1165      0.189 0.0000e+00
     -0.152     7.9661     96.240     38.269  38.197742     0.9618      7.345   116.7150 1.1378e+03     4.9469     -0.149     -0.216    24.8307   997.1080      0.207 0.0000e+00
     -0.094     8.0041     96.719     38.193  38.129196     0.9797      7.342   115.7182 1.1238e+03     5.0949     -0.093     -0.135    24.8553   997.1020      0.220 0.0000e+00
     -0.032     8.0527     97.328     38.144  38.089059     1.1088      7.334   114.8126 9.7321e+02     5.1996     -0.034     -0.050    24.8767   997.0968      0.224 0.0000e+00
      0.033     8.1085     98.003     38.084  38.029840     1.3691      7.323   113.5951 9.0070e+02     5.3615      0.035      0.050    24.8920   997.0931      0.217 0.0000e+00
      0.093     8.1679     98.681     38.055  37.984487     1.5263      7.310   106.0741 1.1361e+03     5.4137      0.096      0.138    24.9004   997.0913      0.200 0.0000e+00
      0.145     8.2256     99.311     38.084  37.985008     1.5443      7.295    92.0193 1.2775e+03     5.3389      0.144      0.209    24.9087   997.0894      0.178 0.0000e+00
      0.188     8.2785     99.891     38.159  38.036095     1.5695      7.282    83.3011 1.2267e+03     5.1783      0.190      0.275    24.9254   997.0853      0.153 0.0000e+00
      0.218     8.3457    100.662     38.234  38.094322     1.6225      7.270    81.1965 1.1669e+03     5.0122      0.217      0.314    24.9347   997.0830      0.128 0.0000e+00
      0.242     8.4301    101.638     38.275  38.117709     1.6479      7.260    79.8216 9.7228e+02     4.9693      0.235      0.341    24.9083   997.0898      0.106 0.0000e+00
      0.265     8.4737    102.123     38.302  38.128416     1.6430      7.252    78.7229 7.1425e+02     4.9548      0.261      0.379    24.8601   997.1023      0.088 0.0000e+00
      0.286     8.4336    101.615     38.344  38.160278     1.6325      7.247    77.9796 6.4712e+02     4.9026      0.283      0.410    24.8285   997.1104      0.072 0.0000e+00
      0.305     8.3241    100.285     38.374  38.185556     1.5814      7.243    77.4597 7.7851e+02     4.8295      0.298      0.433    24.8139   997.1142      0.058 0.0000e+00
      0.320     8.1694     98.417     38.370  38.180135     1.5017      7.241    77.0822 8.8637e+02     4.7265      0.316      0.458    24.7897   997.1205      0.044 0.0000e+00
      0.329     7.9876     96.227     38.348  38.158203     1.4668      7.239    76.7713 7.7450e+02     4.6726      0.325      0.472    24.7629   997.1273      0.030 0.0000e+00
      0.330     7.7975     93.937     38.300  38.110798     1.4628      7.236    76.5401 6.1471e+02     4.6695      0.324      0.471    24.7513   997.1303      0.019 0.0000e+00
      0.330     7.6175     91.772     38.239  38.051315     1.4363      7.232    76.3515 6.0334e+02     4.6565      0.324      0.470    24.7475   997.1313      0.012 0.0000e+00
      0.330     7.4694     89.992     38.196  38.010288     1.3974      7.230    76.1258 6.5837e+02     4.6467      0.324      0.470    24.7462   997.1316      0.007 0.0000e+00
      0.331     7.3718     88.822     38.178  37.995604     1.3827      7.227    75.7899 7.0561e+02     4.6820      0.324      0.470    24.7457   997.1317      0.005 0.0000e+00
      0.334     7.3182     88.184     38.180  38.000729     1.3880      7.223    75.3877 7.2095e+02     4.7223      0.326      0.475    24.7461   997.1316      0.005 0.0000e+00
      0.336     7.2863     87.807     38.184  38.008787     1.3753      7.220    75.0482 7.1378e+02     4.7082      0.331      0.478    24.7488   997.1309      0.005 0.0000e+00
      0.338     7.2625     87.527     38.201  38.029563     1.3422      7.218    74.6973 7.2416e+02     4.6751      0.333      0.481    24.7511   997.1304      0.004 0.0000e+00
      0.339     7.2364     87.216     38.231  38.061498     1.3255      7.216    74.3283 7.7856e+02     4.6492      0.333      0.483    24.7542   997.1295      0.002 0.0000e+00
      0.338     7.1949     86.722     38.245  38.077541     1.3296      7.213    74.1137 7.9836e+02     4.6580      0.332      0.481    24.7593   997.1282      0.000 0.0000e+00
      0.337     7.1321     85.975     38.260  38.096584     1.3393      7.210    74.1675 7.5065e+02     4.7486      0.330      0.479    24.7656   997.1267 4.4740e-07 0.0000e+00
      0.337     7.0526     85.025     38.260  38.101319     1.3479      7.207    74.2904 7.2076e+02     4.8600      0.331      0.480    24.7699   997.1255      0.000 0.0000e+00
      0.337     6.9688     84.019     38.228  38.071323     1.3381      7.205    74.2231 7.5886e+02     4.8913      0.331      0.480    24.7707   997.1254      0.000 0.0000e+00
      0.337     6.8978     83.165     38.207  38.051289     1.3246      7.202    74.1283 8.3318e+02     4.8976      0.330      0.479    24.7738   997.1246      0.001 0.0000e+00
      0.338     6.8588     82.695     38.205  38.049529     1.3233      7.199    74.1768 9.4910e+02     4.9035      0.331      0.481    24.7810   997.1228      0.002 0.0000e+00
      0.339     6.8652     82.771     38.206  38.050041     1.3231      7.196    74.2924 1.0620e+03     4.8641      0.333      0.482    24.7874   997.1212      0.002 0.0000e+00
      0.339     6.9217     83.450     38.216  38.057476     1.3224      7.193    74.4078 9.9643e+02     4.8474      0.333      0.482    24.7897   997.1205      0.003 0.0000e+00
      0.339     7.0221     84.655     38.236  38.075941     1.3226      7.190    74.4534 7.9898e+02     4.8652      0.332      0.481    24.7899   997.1205      0.004 0.0000e+00
      0.340     7.1473     86.159     38.246  38.082861     1.3254      7.188    74.4140 6.8136e+02     4.8827      0.333      0.483    24.7904   997.1204      0.004 0.0000e+00
      0.341     7.2791     87.744     38.242  38.077667     1.3303      7.187    74.3619 7.0615e+02     4.8943      0.335      0.485    24.7898   997.1205      0.004 0.0000e+00
      0.343     7.4027     89.234     38.241  38.076617     1.3393      7.186    74.3397 7.7213e+02     4.9398      0.337      0.488    24.7876   997.1211      0.003 0.0000e+00
      0.345     7.5074     90.499     38.233  38.070174     1.3470      7.183    74.4042 7.6811e+02     4.9743      0.339      0.491    24.7845   997.1219      0.002 0.0000e+00
      0.345     7.5893     91.492     38.224  38.063236     1.3459      7.181    74.6252 7.1819e+02     4.9510      0.339      0.492    24.7809   997.1228      0.002 0.0000e+00
      0.344     7.6453     92.172     38.215  38.056211     1.3516      7.180    74.8602 7.0713e+02     4.9527      0.338      0.490    24.7783   997.1235      0.002 0.0000e+00
      0.344     7.6756     92.539     38.206  38.048717     1.3722      7.178    74.9229 7.2506e+02     4.9302      0.337      0.488    24.7784   997.1234      0.001 0.0000e+00
      0.344     7.6867     92.674     38.193  38.036108     1.3870      7.175    74.8670 7.2790e+02     4.8753      0.336      0.488    24.7806   997.1228      0.001 0.0000e+00
      0.345     7.6872     92.680     38.188  38.030705     1.3831      7.173    74.7869 7.3767e+02     4.8784      0.338      0.492    24.7843   997.1219      0.001 0.0000e+00
      0.347     7.6823     92.623     38.203  38.046867     1.3772      7.171    74.7281 7.8519e+02     4.9019      0.340      0.494    24.7874   997.1212      0.000 0.0000e+00
      0.347     7.6721     92.500     38.197  38.041096     1.3850      7.171    74.7591 8.1969e+02     4.9309      0.340      0.493    24.7879   997.1210 2.2029e-08 0.0000e+00
      0.346     7.6539     92.281     38.180  38.024409     1.3908      7.170    74.8174 7.7141e+02     4.9672      0.340      0.493    24.7878   997.1210 2.4232e-07 0.0000e+00
      0.344     7.6280     91.968     38.191  38.035534     1.3868      7.168    74.8301 7.2644e+02     4.9474      0.338      0.489    24.7889   997.1207 6.1493e-07 0.0000e+00
      0.344     7.5982     91.608     38.205  38.048654     1.4060      7.166    74.8268 7.5727e+02     4.9202      0.337      0.488    24.7904   997.1204      0.000 0.0000e+00
      0.345     7.5718     91.291     38.212  38.056089     1.4496      7.166    74.8633 7.9239e+02     4.9657      0.338      0.491    24.7905   997.1203      0.000 0.0000e+00
      0.346     7.5542     91.078     38.218  38.061953     1.4719      7.166    74.9276 7.9333e+02     5.0065      0.339      0.492    24.7901   997.1204      0.001 0.0000e+00
      0.346     7.5434     90.947     38.213  38.056082     1.4668      7.164    74.9165 7.8248e+02     4.9879      0.339      0.492    24.7897   997.1206      0.001 0.0000e+00
      0.346     7.5357     90.855     38.205  38.048571     1.4574      7.162    74.9010 7.5508e+02     4.9694      0.339      0.492    24.7894   997.1207      0.001 0.0000e+00
      0.346     7.5287     90.770     38.191  38.034617     1.4544      7.161    74.9976 7.3706e+02     4.9796      0.340      0.493    24.7896   997.1206      0.001 0.0000e+00
      0.346     7.5192     90.655     38.171  38.014325     1.4567      7.160    75.2238 7.6274e+02     4.9802      0.339      0.492    24.7893   997.1207      0.002 0.0000e+00
      0.347     7.5065     90.501     38.151  37.993652     1.4587      7.158    75.4859 7.9383e+02     4.9764      0.340      0.494    24.7893   997.1207      0.004 0.0000e+00
      0.348     7.4916     90.319     38.133  37.975092     1.4610      7.155    75.5853 7.9544e+02     4.9674      0.341      0.495    24.7895   997.1206      0.005 0.0000e+00
      0.349     7.4754     90.120     38.139  37.980342     1.4588      7.153    75.4786 7.8799e+02     4.9690      0.342      0.495    24.7892   997.1207      0.005 0.0000e+00
      0.351     7.4594     89.930     38.152  37.993650     1.4578      7.152    75.3148 7.8836e+02     5.0605      0.345      0.500    24.7888   997.1208      0.005 0.0000e+00
      0.354     7.4428     89.735     38.165  38.009048     1.4662      7.151    75.3255 7.8130e+02     5.1237      0.348      0.505    24.7886   997.1209      0.004 0.0000e+00
      0.355     7.4248     89.527     38.191  38.039563     1.4738      7.151    75.6089 7.6551e+02     5.1114      0.349      0.507    24.7871   997.1212      0.003 0.0000e+00
      0.355     7.4078     89.330     38.194  38.045227     1.4713      7.151    75.9010 7.4698e+02     5.1087      0.349      0.506    24.7848   997.1218      0.002 0.0000e+00
      0.354     7.3905     89.123     38.162  38.014061     1.4630      7.151    76.0177 7.3910e+02     5.0907      0.348      0.504    24.7849   997.1218      0.002 0.0000e+00
      0.354     7.3675     88.842     38.130  37.980119     1.4603      7.151    76.0738 7.5656e+02     5.0905      0.347      0.503    24.7889   997.1208      0.002 0.0000e+00
      0.355     7.3340     88.429     38.105  37.952221     1.4643      7.150    76.2352 7.7091e+02     5.1057      0.348      0.505    24.7952   997.1192      0.002 0.0000e+00
      0.356     7.2877     87.860     38.088  37.930651     1.4766      7.149    76.5072 7.7201e+02     5.0123      0.349      0.507    24.8010   997.1178      0.002 0.0000e+00
      0.357     7.2332     87.191     38.073  37.909743     1.4959      7.147    76.6082 7.8747e+02     4.8137      0.350      0.508    24.8022   997.1175      0.002 0.0000e+00
      0.358     7.1788     86.525     38.059  37.889837     1.5072      7.145    76.5112 7.8468e+02     4.7035      0.351      0.510    24.7985   997.1184      0.002 0.0000e+00
      0.358     7.1288     85.912     38.054  37.880394     1.5093      7.143    76.4526 7.5470e+02     4.7281      0.352      0.511    24.7936   997.1197      0.001 0.0000e+00
      0.358     7.0839     85.360     38.037  37.859038     1.5123      7.141    76.4157 7.3479e+02     4.7512      0.351      0.509    24.7874   997.1212      0.000 0.0000e+00
      0.358     7.0453     84.882     38.006  37.822033     1.5173      7.140    76.3234 7.3934e+02     4.7201      0.350      0.508    24.7797   997.1231     -0.001 0.0000e+00
      0.358     7.0098     84.441     38.004  37.813825     1.5185      7.141    76.2822 7.6621e+02     4.6791      0.351      0.509    24.7724   997.1250     -0.002 0.0000e+00
      0.357     6.9716     83.971     38.019  37.823261     1.5178      7.142    76.3477 7.7440e+02     4.6824      0.350      0.508    24.7659   997.1266     -0.002 0.0000e+00
      0.356     6.9327     83.497     38.007  37.809165     1.5343      7.142    76.5133 7.6202e+02     4.7273      0.349      0.507    24.7597   997.1282     -0.001 0.0000e+00
      0.355     6.8939     83.031     37.968  37.770336     1.5621      7.142    76.7368 7.6422e+02     4.7298      0.348      0.505    24.7520   997.1302      0.000 0.0000e+00
      0.355     6.8529     82.538     37.932  37.734641     1.5686      7.141    76.8113 7.7263e+02     4.6808      0.348      0.505    24.7421   997.1326      0.001 0.0000e+00
      0.356     6.8104     82.030     37.954  37.758438     1.5687      7.141    76.7263 7.7678e+02     4.6582      0.349      0.506    24.7346   997.1345      0.004 0.0000e+00
      0.357     6.7702     81.551     37.997  37.804161     1.6070      7.140    76.6557 7.6283e+02     4.7188      0.350      0.508    24.7325   997.1351      0.008 0.0000e+00
      0.358     6.7366     81.148     37.970  37.779675     1.6676      7.138    76.7326 7.3902e+02     4.8573      0.350      0.508    24.7331   997.1348      0.012 0.0000e+00
      0.362     6.7076     80.798     37.907  37.716283     1.6951      7.137    76.9676 7.4366e+02     4.9553      0.354      0.513    24.7340   997.1346      0.015 0.0000e+00
      0.368     6.6770     80.424     37.867  37.672456     1.6880      7.136    77.0873 7.6354e+02     4.9545      0.360      0.523    24.7366   997.1341      0.016 0.0000e+00
      0.374     6.6438     80.014     37.830  37.630610     1.6855      7.136    76.9757 7.5996e+02     4.9128      0.367      0.532    24.7411   997.1330      0.016 0.0000e+00
      0.380     6.6068     79.561     37.795  37.591170     1.6995      7.136    76.9087 7.2496e+02     4.8445      0.374      0.542    24.7435   997.1324      0.012 0.0000e+00
      0.384     6.5608     79.004     37.781  37.576436     1.7105      7.135    77.0513 7.0105e+02     4.7833      0.377      0.547    24.7429   997.1325      0.007 0.0000e+00
      0.385     6.5065     78.349     37.784  37.579406     1.7053      7.134    77.2378 7.1713e+02     4.7628      0.378      0.549    24.7387   997.1336      0.002 0.0000e+00
      0.383     6.4511     77.678     37.834  37.627081     1.6878      7.131    77.4425 7.3482e+02     4.7287      0.376      0.546    24.7296   997.1358      0.002 0.0000e+00
      0.378     6.4026     77.088     37.984  37.772016     1.6814      7.121    77.8055 7.2851e+02     4.7638      0.370      0.537    24.7231   997.1375      0.008 0.0000e+00
      0.375     6.3809     76.817     38.217  37.998811     1.6976      7.105    78.2722 7.2924e+02     4.8928      0.366      0.531    24.7226   997.1376      0.018 0.0000e+00
      0.377     6.4348     77.461     38.433  38.211036     1.7107      7.092    78.6114 7.3110e+02     4.9441      0.366      0.530    24.7248   997.1370      0.030 0.0000e+00
      0.388     6.6370     79.916     38.519  38.306751     1.7090      7.089    78.8088 7.0711e+02     4.9249      0.375      0.544    24.7192   997.1386      0.041 0.0000e+00
      0.410     7.0211     84.582     38.524  38.330897     1.7285      7.092    79.0237 6.9237e+02     4.9234      0.402      0.583    24.7155   997.1396      0.048 0.0000e+00
      0.432     7.5317     90.780     38.548  38.376054     1.7820      7.095    79.2312 6.7959e+02     4.9586      0.428      0.620    24.7108   997.1409      0.051 0.0000e+00
      0.445     8.0727     97.347     38.560  38.408432     1.8193      7.097    79.4245 6.4561e+02     4.9903      0.439      0.635    24.6973   997.1446      0.051 0.0000e+00
      0.451     8.5702    103.384     38.540  38.405027     1.8240      7.098    79.3827 6.1841e+02     4.9467      0.441      0.639    24.7129   997.1406      0.048 0.0000e+00
      0.458     8.9748    108.284     38.525  38.398383     1.8044      7.099    79.1559 6.0721e+02     4.8892      0.448      0.648    24.7453   997.1323      0.044 0.0000e+00
      0.468     9.2504    111.609     38.519  38.391592     1.7725      7.101    79.2632 5.6817e+02     4.8858      0.459      0.666    24.7724   997.1257      0.040 0.0000e+00
      0.481     9.3916    113.309     38.515  38.386390     1.7588      7.105    79.5613 5.0494e+02     4.9052      0.469      0.682    24.8001   997.1187      0.036 0.0000e+00
      0.496     9.4187    113.640     38.527  38.398962     1.7605      7.109    79.6624 4.7431e+02     4.9277      0.488      0.707    24.8234   997.1127      0.031 0.0000e+00
      0.506     9.3645    112.990     38.543  38.416649     1.7765      7.113    79.7109 4.7670e+02     4.9282      0.501      0.726    24.8336   997.1103      0.026 0.0000e+00
      0.509     9.2678    111.829     38.534  38.409808     1.8038      7.118    79.8909 5.0492e+02     4.9109      0.500      0.725    24.8281   997.1116      0.021 0.0000e+00
      0.508     9.1609    110.547     38.500  38.379722     1.8214      7.121    80.2031 5.3132e+02     4.9156      0.498      0.723    24.8257   997.1122      0.019 0.0000e+00
      0.507     9.0665    109.418     38.486  38.370278     1.8337      7.121    80.6462 5.4138e+02     4.9194      0.496      0.719    24.8284   997.1116      0.023 0.0000e+00
      0.509     8.9960    108.571     38.474  38.359099     1.8487      7.119    81.1197 5.4868e+02     4.8913      0.497      0.720    24.8310   997.1109      0.032 0.0000e+00
      0.519     8.9471    107.958     38.431  38.308048     1.9327      7.116    81.5399 5.4797e+02     4.9037      0.506      0.735    24.8329   997.1104      0.045 0.0000e+00
      0.536     8.9120    107.478     38.406  38.260833     2.0859      7.113    81.9410 5.3082e+02     5.0034      0.525      0.761    24.8370   997.1095      0.059 0.0000e+00
      0.556     8.8873    107.110     38.405  38.232526     2.1760      7.113    82.1839 4.8746e+02     5.1139      0.546      0.792    24.8432   997.1080      0.070 0.0000e+00
      0.576     8.8736    106.882     38.417  38.219664     2.1986      7.113    82.1535 4.4873e+02     5.1905      0.564      0.819    24.8496   997.1065      0.079 0.0000e+00
      0.597     8.8734    106.833     38.448  38.232233     2.2464      7.113    82.1753 4.4329e+02     5.2095      0.585      0.848    24.8412   997.1087      0.084 0.0000e+00
      0.620     8.8868    106.963     38.486  38.257509     2.3201      7.112    82.3618 4.5216e+02     5.1464      0.608      0.882    24.8063   997.1176      0.087 0.0000e+00
      0.642     8.9077    107.198     38.506  38.271350     2.3536      7.112    82.5154 4.5997e+02     5.0820      0.630      0.914    24.7667   997.1278      0.087 0.0000e+00
      0.665     8.9306    107.464     38.511  38.272623     2.3565      7.114    82.6555 4.5497e+02     5.0866      0.651      0.944    24.7342   997.1361      0.084 0.0000e+00
      0.690     8.9526    107.724     38.514  38.272891     2.3808      7.117    82.7652 4.3207e+02     5.0718      0.677      0.982    24.7102   997.1423      0.077 0.0000e+00
      0.714     8.9684    107.911     38.516  38.274587     2.4131      7.122    82.8094 4.1334e+02     5.0011      0.704      1.021    24.6956   997.1462      0.068 0.0000e+00
      0.729     8.9730    107.967     38.535  38.293131     2.4256      7.127    82.8462 4.0701e+02     4.9523      0.719      1.041    24.6879   997.1482      0.059 0.0000e+00
      0.738     8.9685    107.917     38.547  38.306666     2.4291      7.132    82.9518 4.0348e+02     4.9074      0.724      1.049    24.6839   997.1493      0.054 0.0000e+00
      0.746     8.9619    107.838     38.487  38.247816     2.4470      7.136    83.1401 3.9913e+02     4.9830      0.731      1.061    24.6811   997.1500      0.054 0.0000e+00
      0.755     8.9590    107.783     38.399  38.152873     2.4768      7.139    83.2297 3.9086e+02     5.2112      0.739      1.072    24.6796   997.1503      0.058 0.0000e+00
      0.770     8.9599    107.744     38.376  38.110873     2.4940      7.142    83.0885 3.7932e+02     5.3397      0.751      1.089    24.6797   997.1504      0.063 0.0000e+00
      0.791     8.9614    107.704     38.409  38.120824     2.4906      7.145    82.9822 3.6737e+02     5.3566      0.774      1.123    24.6829   997.1497      0.068 0.0000e+00
      0.816     8.9594    107.639     38.450  38.146204     2.4707      7.148    83.1492 3.5646e+02     5.3834      0.802      1.164    24.6867   997.1489      0.071 0.0000e+00
      0.837     8.9524    107.543     38.473  38.163799     2.4444      7.150    83.4718 3.5012e+02     5.4015      0.824      1.195    24.6801   997.1506      0.071 0.0000e+00
      0.852     8.9434    107.442     38.450  38.143127     2.4319      7.151    83.7861 3.4391e+02     5.3789      0.836      1.213    24.6508   997.1580      0.071 0.0000e+00
      0.866     8.9357    107.353     38.391  38.086693     2.4329      7.149    84.0235 3.3399e+02     5.3391      0.848      1.228    24.6152   997.1672      0.071 0.0000e+00
      0.881     8.9294    107.259     38.363  38.052761     2.4303      7.146    84.2774 3.2522e+02     5.3144      0.863      1.253    24.5935   997.1727      0.076 0.0000e+00
      0.898     8.9205    107.123     38.373  38.050236     2.4264      7.145    84.6198 3.1554e+02     5.3429      0.878      1.275    24.5875   997.1743      0.084 0.0000e+00
      0.920     8.9076    106.941     38.390  38.056139     2.4375      7.142    84.8937 3.0169e+02     5.3877      0.898      1.302    24.5970   997.1720      0.096 0.0000e+00
      0.950     8.8926    106.738     38.403  38.060635     2.4523      7.141    85.0941 2.8924e+02     5.3975      0.932      1.351    24.6028   997.1706      0.107 0.0000e+00
      0.981     8.8741    106.498     38.390  38.041118     2.4489      7.141    85.3215 2.7815e+02     5.3952      0.963      1.397    24.5910   997.1737      0.114 0.0000e+00
      1.012     8.8501    106.195     38.365  38.010583     2.4140      7.142    85.4924 2.6405e+02     5.3932      0.991      1.438    24.5729   997.1784      0.114 0.0000e+00
      1.046     8.8219    105.845     38.368  38.008804     2.3598      7.144    85.5247 2.5102e+02     5.4060      1.027      1.489    24.5586   997.1822      0.108 0.0000e+00
      1.076     8.7921    105.480     38.382  38.019597     2.3228      7.147    85.5400 2.4194e+02     5.3851      1.058      1.534    24.5484   997.1849      0.098 0.0000e+00
      1.101     8.7630    105.124     38.379  38.014127     2.3130      7.150    85.7644 2.3598e+02     5.3380      1.082      1.569    24.5396   997.1873      0.087 0.0000e+00
      1.120     8.7373    104.810     38.373  38.006141     2.2849      7.151    86.1724 2.3171e+02     5.3270      1.101      1.596    24.5317   997.1893      0.078 0.0000e+00
      1.132     8.7180    104.573     38.355  37.986516     2.2248      7.150    86.5151 2.2713e+02     5.3512      1.110      1.610    24.5255   997.1909      0.075 0.0000e+00
      1.145     8.7070    104.433     38.339  37.967266     2.1942      7.147    86.6383 2.2238e+02     5.4022      1.121      1.626    24.5216   997.1920      0.077 0.0000e+00
      1.161     8.7012    104.353     38.340  37.963814     2.1927      7.144    86.6296 2.1654e+02     5.4188      1.136      1.648    24.5190   997.1927      0.082 0.0000e+00
      1.184     8.6938    104.252     38.325  37.944771     2.1540      7.142    86.6689 2.0738e+02     5.3227      1.156      1.676    24.5165   997.1934      0.086 0.0000e+00
      1.215     8.6816    104.093     38.313  37.927436     2.0905      7.141    86.8551 1.9735e+02     5.1892      1.192      1.729    24.5131   997.1944      0.087 0.0000e+00
      1.246     8.6664    103.898     38.336  37.944647     2.0672      7.141    87.1604 1.9065e+02     5.1488      1.227      1.780    24.5096   997.1954      0.087 0.0000e+00
      1.266     8.6492    103.684     38.357  37.962431     2.0708      7.141    87.4346 1.8637e+02     5.1625      1.244      1.804    24.5047   997.1967      0.082 0.0000e+00
      1.281     8.6291    103.439     38.348  37.952023     2.0649      7.140    87.5896 1.8262e+02     5.1581      1.256      1.823    24.4977   997.1985      0.072 0.0000e+00
      1.296     8.6058    103.159     38.341  37.945752     2.0562      7.140    87.5710 1.7892e+02     5.1287      1.270      1.843    24.4903   997.2005      0.060 0.0000e+00
      1.312     8.5840    102.899     38.346  37.950085     2.0528      7.141    87.4676 1.7520e+02     5.1019      1.286      1.866    24.4833   997.2023      0.050 0.0000e+00
      1.326     8.5709    102.740     38.337  37.940936     2.0495      7.144    87.4580 1.7236e+02     5.1292      1.303      1.890    24.4788   997.2035      0.045 0.0000e+00
      1.336     8.5665    102.682     38.297  37.898612     2.0511      7.146    87.5413 1.7096e+02     5.1963      1.312      1.903    24.4778   997.2039      0.045 0.0000e+00
      1.341     8.5676    102.679     38.222  37.819205     2.0722      7.146    87.8726 1.6974e+02     5.3887      1.314      1.905    24.4783   997.2037      0.048 0.0000e+00
      1.348     8.5733    102.708     38.161  37.742531     2.1044      7.146    88.3664 1.6708e+02     5.6865      1.319      1.913    24.4784   997.2037      0.054 0.0000e+00
      1.362     8.5825    102.741     38.119  37.669772     2.1208      7.143    88.6933 1.6253e+02     5.8136      1.332      1.933    24.4772   997.2041      0.062 0.0000e+00
      1.382     8.5925    102.738     38.071  37.574189     2.1223      7.140    88.8998 1.5694e+02     5.7791      1.353      1.963    24.4765   997.2043      0.072 0.0000e+00
      1.406     8.5948    102.613     38.033  37.475425     2.1140      7.135    89.2290 1.5155e+02     5.6623      1.379      2.000    24.4712   997.2058      0.081 0.0000e+00
      1.430     8.5793    102.263     38.052  37.427662     2.0897      7.131    89.6620 1.4686e+02     5.4825      1.404      2.036    24.4529   997.2104      0.086 0.0000e+00
      1.452     8.5432    101.675     38.130  37.440923     2.0720      7.127    89.9193 1.4243e+02     5.3758      1.424      2.066    24.4143   997.2202      0.087 0.0000e+00
      1.473     8.4891    100.900     38.188  37.445246     2.0734      7.125    90.1031 1.3801e+02     5.3222      1.445      2.095    24.3468   997.2372      0.084 0.0000e+00
      1.496     8.4196     99.976     38.199  37.416380     2.1060      7.124    90.4206 1.3365e+02     5.2929      1.467      2.127    24.2637   997.2580      0.077 0.0000e+00
      1.519     8.3394     98.963     38.217  37.409217     2.1628      7.124    90.7473 1.2976e+02     5.3173      1.491      2.162    24.1726   997.2809      0.070 0.0000e+00
      1.537     8.2572     97.963     38.241  37.422083     2.1874      7.125    91.2140 1.2741e+02     5.3545      1.511      2.191    24.0853   997.3026      0.065 0.0000e+00
      1.548     8.1829     97.069     38.270  37.444975     2.1967      7.123    91.9338 1.2609e+02     5.4148      1.519      2.204    24.0157   997.3198      0.063 0.0000e+00
      1.557     8.1245     96.342     38.402  37.559042     2.3616      7.120    92.5672 1.2419e+02     5.6530      1.525      2.211    23.9621   997.3330      0.066 0.0000e+00
      1.571     8.0830     95.776     38.601  37.722162     2.6549      7.117    93.0219 1.2122e+02     5.9736      1.538      2.230    23.9295   997.3410      0.074 0.0000e+00
      1.591     8.0450     95.225     38.757  37.830298     2.8035      7.114    93.3880 1.1725e+02     6.0792      1.558      2.260    23.9204   997.3434      0.084 0.0000e+00
      1.616     7.9809     94.358     38.892  37.914307     2.8588      7.111    93.7238 1.1250e+02     6.0451      1.582      2.296    23.9215   997.3432      0.097 0.0000e+00
      1.646     7.8485     92.688     39.004  37.976122     3.4795      7.108    94.1568 1.0785e+02     5.8227      1.614      2.341    23.9057   997.3473      0.107 0.0000e+00
      1.676     7.6082     89.755     39.079  38.006342     4.6290      7.105    94.5795 1.0350e+02     5.3902      1.644      2.383    23.8634   997.3580      0.112 0.0000e+00
      1.708     7.2429     85.377     39.134  38.025726     5.2607      7.101    94.9631 9.9027e+01     5.1414      1.674      2.427    23.8000   997.3736      0.110 0.0000e+00
      1.739     6.7777     79.847     39.153  38.020009     5.3262      7.098    95.5255 9.5125e+01     5.1079      1.708      2.476    23.7372   997.3892      0.102 0.0000e+00
      1.766     6.2650     73.777     39.150  38.000655     5.4123      7.096    96.2164 9.1985e+01     5.0842      1.734      2.515    23.6777   997.4038      0.089 0.0000e+00
      1.788     5.7556     67.767     39.138  37.982125     6.3793      7.095    96.7774 8.9510e+01     4.9858      1.757      2.547    23.6153   997.4191      0.074 0.0000e+00
      1.805     5.2986     62.393     39.137  37.986392     8.1667      7.096    97.2334 8.8054e+01     4.8030      1.773      2.572    23.5722   997.4297      0.059 0.0000e+00
      1.815     4.9333     58.105     39.195  38.052248     9.1382      7.096    97.7714 8.7310e+01     4.6763      1.782      2.584    23.5455   997.4362      0.050 0.0000e+00
      1.820     4.6843     55.169     39.292  38.143630     9.1344      7.096    98.2914 8.6788e+01     4.6342      1.786      2.590    23.5221   997.4419      0.048 0.0000e+00
      1.825     4.5643     53.724     39.378  38.202608     8.1374      7.093    98.6169 8.6007e+01     4.4573      1.789      2.593    23.5103   997.4447      0.053 0.0000e+00
      1.835     4.5588     53.606     39.477  38.257493     6.3008      7.089    98.7814 8.4190e+01     4.1434      1.796      2.604    23.5210   997.4421      0.062 0.0000e+00
      1.855     4.6085     54.135     39.630  38.362829     5.2998      7.085    98.8176 8.1056e+01     3.9857      1.815      2.634    23.5423   997.4371      0.073 0.0000e+00
      1.883     4.6330     54.375     39.770  38.460504     5.1544      7.080    98.7970 7.7760e+01     3.9600      1.847      2.680    23.5451   997.4366      0.082 0.0000e+00
      1.910     4.5716     53.612     39.832  38.486249     4.4827      7.075    98.7902 7.5310e+01     3.6356      1.875      2.721    23.5110   997.4451      0.086 0.0000e+00
      1.933     4.4095     51.677     39.858  38.483634     3.2728      7.072    98.7357 7.2970e+01     3.0129      1.894      2.747    23.4492   997.4601      0.084 0.0000e+00
      1.956     4.1622     48.757     39.886  38.492314     2.6200      7.071    98.8266 7.0590e+01     2.6574      1.917      2.780    23.3911   997.4742      0.079 0.0000e+00
      1.976     3.8423     44.999     39.934  38.527703     2.5633      7.071    99.2003 6.9192e+01     2.6466      1.941      2.816    23.3476   997.4848      0.075 0.0000e+00
      1.989     3.4802     40.750     40.012  38.594108     2.5097      7.066    99.7263 6.8233e+01     2.6868      1.951      2.830    23.3046   997.4953      0.075 0.0000e+00
      2.000     3.1337     36.681     40.096  38.660418     2.4136      7.059   100.1964 6.6634e+01     2.6845      1.959      2.840    23.2640   997.5051      0.080 0.0000e+00
      2.019     2.8482     33.316     40.160  38.694641     2.3639      7.053   100.4962 6.4402e+01     2.6517      1.977      2.867    23.2430   997.5101      0.085 0.0000e+00
      2.045     2.6343     30.789     40.193  38.690460     2.3504      7.049   100.8561 6.1611e+01     2.6512      2.002      2.904    23.2342   997.5124      0.090 0.0000e+00
      2.076     2.4683     28.829     40.205  38.673282     2.1557      7.044   101.2782 5.8787e+01     2.5794      2.037      2.954    23.2254   997.5147      0.096 0.0000e+00
      2.106     2.3025     26.880     40.230  38.677341     1.7870      7.040   101.6418 5.6804e+01     2.4061      2.070      3.002    23.2116   997.5182      0.100 0.0000e+00
      2.128     2.1121     24.641     40.258  38.676033     1.5863      7.036   102.0693 5.5277e+01     2.3257      2.088      3.028    23.1755   997.5269      0.099 0.0000e+00
      2.149     1.9076     22.234     40.283  38.657428     1.5672      7.034   102.4897 5.3314e+01     2.2952      2.105      3.052    23.1199   997.5402      0.095 0.0000e+00
      2.174     1.7019     19.813     40.318  38.642761     1.4864      7.031   102.8523 5.1290e+01     2.1360      2.133      3.094    23.0828   997.5491      0.090 0.0000e+00
      2.199     1.4929     17.362     40.280  38.562101     1.3194      7.028   103.2708 4.9788e+01     1.9083      2.159      3.131    23.0706   997.5522      0.090 0.0000e+00
      2.220     1.2689     14.743     40.137  38.380383     1.2131      7.024   103.5055 4.8615e+01     1.8033      2.177      3.157    23.0380   997.5600      0.096 0.0000e+00
      2.240     1.0334     11.989     40.038  38.222952     1.1987      7.019   103.4525 4.7526e+01     1.8164      2.196      3.185    22.9795   997.5740      0.105 0.0000e+00
      2.263     0.8064      9.338     40.086  38.181993     1.2059      7.014   103.4055 4.6132e+01     1.8058      2.214      3.212    22.9150   997.5893      0.112 0.0000e+00
      2.295     0.6090      7.037     40.206  38.202426     1.2644      7.012   103.4533 4.4149e+01     1.7398      2.245      3.257    22.8592   997.6025      0.118 0.0000e+00
      2.335     0.4491      5.179     40.307  38.215954     1.3607      7.010   103.5133 4.2211e+01     1.6416      2.292      3.323    22.8176   997.6126      0.122 0.0000e+00
      2.370     0.3185      3.668     40.374  38.218492     1.3994      7.008   103.6157 4.0896e+01     1.5683      2.329      3.378    22.7408   997.6307      0.121 0.0000e+00
      2.400     0.2130      2.450     40.432  38.233022     1.4197      7.007   103.7446 3.9700e+01     1.5751      2.352      3.411    22.6205   997.6589      0.114 0.0000e+00
      2.429     0.1384      1.591     40.488  38.264622     1.6672      7.005   103.7815 3.8411e+01     1.5918      2.383      3.455    22.4968   997.6879      0.103 0.0000e+00
      2.456     0.0972      1.116     40.583  38.346623     2.1120      7.003   103.8025 3.7624e+01     1.5746      2.414      3.501    22.3907   997.7126      0.095 0.0000e+00
      2.473     0.0832      0.956     40.988  38.716658     2.3583      6.999   103.9128 3.7197e+01     1.5637      2.427      3.519    22.3158   997.7299      0.093 0.0000e+00
      2.488     0.0909      1.043     42.009  39.628171     2.4345      6.994   103.9966 3.6486e+01     1.5587      2.436      3.533    22.2660   997.7413      0.098 0.0000e+00
      2.509     0.1158      1.324     43.369  40.797554     3.0858      6.988   104.2140 3.5381e+01     1.5137      2.456      3.563    22.2424   997.7469      0.104 0.0000e+00
      2.539     0.1516      1.728     44.400  41.618744     4.2940      6.982   104.6485 3.4040e+01     1.4452      2.487      3.607    22.2402   997.7475      0.114 0.0000e+00
      2.577     0.1923      2.185     45.106  42.129015     4.9739      6.974   104.8616 3.2680e+01     1.4187      2.526      3.663    22.2424   997.7473      0.125 0.0000e+00
      2.614     0.2313      2.621     45.745  42.586198     5.1079      6.966   104.8978 3.1598e+01     1.3898      2.566      3.721    22.1928   997.7592      0.135 0.0000e+00
      2.647     0.2626      2.969     46.068  42.765439     5.7923      6.958   105.1723 3.0704e+01     1.3905      2.596      3.765    22.0481   997.7928      0.136 0.0000e+00
      2.681     0.2830      3.194     46.107  42.708772     7.0506      6.951   105.5995 2.9663e+01     1.4928      2.626      3.808    21.8615   997.8355      0.129 0.0000e+00
      2.719     0.2909      3.280     46.188  42.726312     7.7675      6.946   105.9331 2.8624e+01     1.5787      2.668      3.870    21.6903   997.8744      0.119 0.0000e+00
      2.754     0.2849      3.210     46.363  42.850446     8.0178      6.939   106.3668 2.7946e+01     1.6096      2.708      3.926    21.5374   997.9089      0.108 0.0000e+00
      2.777     0.2684      3.021     46.427  42.876275     9.9912      6.933   107.1430 2.7527e+01     1.7685      2.726      3.954    21.3988   997.9398      0.096 0.0000e+00
      2.794     0.2481      2.790     46.427  42.848075    13.5932      6.928   107.9188 2.7035e+01     2.0572      2.738      3.972    21.2950   997.9627      0.085 0.0000e+00
      2.813     0.2286      2.571     46.632  43.017382    15.5632      6.923   108.3477 2.6535e+01     2.2495      2.759      4.001    21.2382   997.9752      0.077 0.0000e+00
      2.831     0.2123      2.386     47.021  43.336008    15.7597      6.919   108.6294 2.6227e+01     2.2907      2.779      4.029    21.2093   997.9818      0.075 0.0000e+00
      2.845     0.2012      2.257     47.600  43.779794    15.7789      6.915   108.9157 2.5900e+01     2.2609      2.787      4.042    21.1699   997.9904      0.077 0.0000e+00
      2.863     0.1953      2.187     48.248  44.255848    15.7955      6.910   108.9698 2.5310e+01     2.3151      2.802      4.066    21.1304   997.9990      0.080 0.0000e+00
      2.888     0.1927      2.152     48.654  44.520052    15.8480      6.905   108.6818 2.4616e+01     2.4871      2.833      4.110    21.1255   998.0004      0.084 0.0000e+00
      2.914     0.1929      2.150     48.864  44.624722    15.8759      6.898   108.4443 2.4050e+01     2.6032      2.860      4.149    21.1016   998.0058      0.093 0.0000e+00
      2.935     0.1946      2.165     48.910  44.568831    15.8109      6.889   108.5080 2.3553e+01     2.6707      2.879      4.175    20.9956   998.0291      0.103 0.0000e+00
      2.956     0.1950      2.162     48.905  44.415614    15.0634      6.882   108.6774 2.2941e+01     3.0403      2.896      4.200    20.8507   998.0608      0.111 0.0000e+00
      2.984     0.1942      2.145     49.116  44.422929    13.6866      6.876   108.5987 2.2081e+01     3.6646      2.921      4.237    20.7340   998.0859      0.116 0.0000e+00
      3.022     0.1931      2.127     49.411  44.530030    12.9149      6.871   108.2450 2.1025e+01     3.9593      2.961      4.295    20.6592   998.1021      0.119 0.0000e+00
      3.063     0.1916      2.106     49.717  44.694393    12.7119      6.866   108.1008 2.0119e+01     4.0143      3.008      4.363    20.5819   998.1189      0.121 0.0000e+00
      3.095     0.1911      2.096     50.031  44.886111    11.2846      6.861   107.9734 1.9465e+01     4.3950      3.039      4.407    20.4242   998.1522      0.117 0.0000e+00
      3.119     0.1917      2.099     50.318  45.069995     8.6797      6.856   107.4796 1.8650e+01     5.0234      3.055      4.432    20.2050   998.1984      0.110 0.0000e+00
      3.144     0.1918      2.098     50.593  45.266619     7.2520      6.851   107.0339 1.7704e+01     5.3853      3.083      4.471    20.0307   998.2349      0.105 0.0000e+00
      3.169     0.1911      2.088     50.697  45.294908     7.0440      6.843   106.9728 1.7062e+01     5.5259      3.113      4.514    19.9426   998.2532      0.104 0.0000e+00
      3.189     0.1902      2.075     50.721  45.221453     6.2773      6.835   107.1704 1.6457e+01     6.6258      3.125      4.533    19.8522   998.2720      0.109 0.0000e+00
      3.214     0.1890      2.057     50.962  45.330872     4.9091      6.830   107.3589 1.5457e+01     8.6874      3.144      4.561    19.7604   998.2909      0.120 0.0000e+00
      3.250     0.1877      2.037     51.344  45.538221     4.1651      6.829   107.4459 1.4442e+01     9.8397      3.189      4.626    19.7424   998.2949      0.132 0.0000e+00
      3.285     0.1882      2.036     51.560  45.569275     4.0959      6.828   107.3614 1.3659e+01     9.9718      3.223      4.674    19.6838   998.3069      0.137 0.0000e+00
      3.323     0.1878      2.026     51.655  45.515627     4.0644      6.825   107.0250 1.2719e+01    10.3838      3.251      4.716    19.5689   998.3303      0.135 0.0000e+00
      3.371     0.1842      1.986     51.751  45.524402     4.0267      6.822   106.5620 1.1780e+01    11.1829      3.308      4.798    19.4822   998.3481      0.125 0.0000e+00
      3.412     0.1812      1.952     51.809  45.548268     4.0132      6.818   106.1517 1.1335e+01    11.6700      3.356      4.867    19.3603   998.3729      0.108 0.0000e+00
      3.432     0.1800      1.940     51.954  45.677160     4.0136      6.811   105.8491 1.1215e+01    11.7833      3.370      4.887    19.1740   998.4099      0.092 0.0000e+00
      3.441     0.1777      1.916     52.162  45.876287     4.0144      6.803   105.6562 1.1074e+01    11.8974      3.374      4.893    19.0261   998.4391      0.077 0.0000e+00
      3.451     0.1741      1.877     52.202  45.923843     3.9977      6.794   105.5410 1.0865e+01    12.9851      3.384      4.908    18.9646   998.4512      0.065 0.0000e+00
      3.464     0.1691      1.823     52.219  45.934668     3.9671      6.791   105.4027 1.0566e+01    15.0373      3.395      4.925    18.9436   998.4553      0.059 0.0000e+00
      3.483     0.1623      1.749     52.475  46.134168     3.9472      6.795   105.2747 1.0184e+01    16.1621      3.415      4.953    18.9499   998.4543      0.060 0.0000e+00
      3.504     0.1558      1.677     53.080  46.621367     3.9399      6.799   105.1981 9.8702e+00    16.2938      3.438      4.987    18.9725   998.4501      0.062 0.0000e+00
      3.520     0.1516      1.629     54.955  48.205541     3.9479      6.801   105.0780 9.6492e+00    16.8262      3.453      5.009    18.9885   998.4470      0.064 0.0000e+00
      3.534     0.1489      1.598     58.530  51.252226     3.9566      6.802   104.8550 9.4147e+00    17.7813      3.465      5.025    18.9867   998.4473      0.066 0.0000e+00
      3.548     0.1470      1.574     61.810  53.986970     3.9496      6.802   104.5680 9.1334e+00    18.3056      3.479      5.045    18.9604   998.4527      0.068 0.0000e+00
      3.564     0.1470      1.570     64.467  56.116703     3.9501      6.800   104.1881 8.8118e+00    18.4135      3.494      5.068    18.9170   998.4613      0.073 0.0000e+00
      3.583     0.1485      1.581     68.122  59.086075     4.0330      6.792   103.7891 8.4355e+00    18.8894      3.512      5.094    18.8606   998.4727      0.083 0.0000e+00
      3.605     0.1505      1.597     71.822  62.058088     4.1804      6.777   103.7016 8.0453e+00    19.7330      3.535      5.128    18.7979   998.4867      0.097 0.0000e+00
      3.630     0.1547      1.635     74.442  64.026635     4.2663      6.761   104.2497 7.6672e+00    20.1922      3.559      5.162    18.6898   998.5089      0.113 0.0000e+00
      3.658     0.1614      1.697     76.611  65.536579     4.2912      6.742   105.1680 7.1745e+00    20.3117      3.583      5.197    18.5191   998.5420      0.129 0.0000e+00
      3.694     0.1679      1.756     78.299  66.584722     4.4037      6.723   106.0281 6.5301e+00    21.0477      3.621      5.252    18.3725   998.5715      0.141 0.0000e+00
      3.737     0.1729      1.799     79.079  66.846477     4.6120      6.706   106.3035 5.8791e+00    22.3717      3.666      5.317    18.2207   998.6017      0.147 0.0000e+00
      3.782     0.1777      1.839     79.519  66.857544     4.7207      6.693   105.0557 5.2233e+00    23.1136      3.708      5.378    18.0145   998.6410      0.145 0.0000e+00
      3.826     0.1828      1.885     79.862  66.845222     4.7209      6.681   102.7290 4.5986e+00    23.1019      3.753      5.443    17.7824   998.6846      0.140 0.0000e+00
      3.863     0.1880      1.931     79.860  66.569983     4.7266      6.670   100.4547 4.2156e+00    21.9359      3.794      5.501    17.5191   998.7332      0.134 0.0000e+00
      3.888     0.1935      1.981     79.984  66.389888     4.7293      6.660    98.4654 4.0221e+00    19.7316      3.814      5.532    17.2514   998.7810      0.127 0.0000e+00
      3.910     0.1991      2.031     81.157  67.082943     4.7189      6.649    96.2283 3.7563e+00    18.4734      3.828      5.553    17.0182   998.8221      0.121 0.0000e+00
      3.940     0.2026      2.061     82.905  68.274302     4.7138      6.638    93.4528 3.3543e+00    18.2265      3.859      5.598    16.8398   998.8532      0.114 0.0000e+00
      3.976     0.2043      2.072     83.576  68.588471     4.7202      6.628    90.8917 2.9848e+00    16.8775      3.902      5.659    16.6827   998.8803      0.108 0.0000e+00
      4.010     0.2044      2.068     83.197  68.084207     4.7257      6.620    88.7511 2.7479e+00    14.4192      3.935      5.707    16.4967   998.9117      0.099 0.0000e+00
      4.035     0.2014      2.034     82.759  67.644399     4.7282      6.615    86.5852 2.5893e+00    13.0824      3.959      5.742    16.3166   998.9422      0.088 0.0000e+00
      4.054     0.1969      1.990     82.656  67.593642     4.7334      6.593    84.5790 2.4862e+00    12.9058      3.979      5.771    16.1755   998.9667      0.074 0.0000e+00
      4.067     0.1915      1.937     82.923  67.851987     4.7371      6.551    83.0790 2.4256e+00    12.7103      3.990      5.787    16.0234   998.9918      0.065 0.0000e+00
      4.075     0.1834      1.854     83.234  68.034492     4.7904      6.536    81.6990 2.3628e+00    11.4717      3.996      5.796    15.8858   999.0138      0.065 0.0000e+00
      4.085     0.1762      1.776     83.141  67.765900     4.9005      6.554    80.2834 2.2450e+00     9.2695      4.003      5.806    15.8335   999.0221      0.074 0.0000e+00
      4.101     0.1714      1.722     82.786  67.210654     4.9670      6.567    79.1266 2.0464e+00     8.0418      4.017      5.826    15.8812   999.0145      0.090 0.0000e+00
      4.126     0.1679      1.680     82.729  66.851424     4.9624      6.571    77.8660 1.8045e+00     7.8019      4.044      5.865    15.9427   999.0048      0.110 0.0000e+00
      4.161     0.1657      1.651     82.512  66.346365     4.8356      6.571    75.8825 1.5451e+00     6.7956      4.077      5.914    15.8930   999.0132      0.130 0.0000e+00
      4.202     0.1656      1.642     81.624  65.299034     4.6044      6.569    73.1256 1.2739e+00     5.0185      4.118      5.973    15.7611   999.0345      0.145 0.0000e+00
      4.247     0.1682      1.660     81.114  64.549021     4.4649      6.567    70.2590 1.0376e+00     4.0775      4.166      6.042    15.6002   999.0600      0.153 0.0000e+00
      4.289     0.1713      1.684     81.643  64.651121     4.4315      6.566    67.3776 8.5634e-01     4.0044      4.207      6.103    15.4034   999.0910      0.155 0.0000e+00
      4.328     0.1747      1.712     82.732  65.261911     4.2700      6.564    63.8403 7.0435e-01     3.9381      4.243      6.155    15.1987   999.1229      0.150 0.0000e+00
      4.365     0.1790      1.750     83.598  65.768008     3.9693      6.562    59.4976 5.7726e-01     3.8331      4.282      6.210    14.9983   999.1529      0.137 0.0000e+00
      4.401     0.1820      1.776     83.730  65.748449     3.8041      6.562    54.7921 4.7816e-01     3.7506      4.317      6.261    14.7823   999.1851      0.119 0.0000e+00
      4.436     0.1822      1.777     83.630  65.597424     3.7726      6.563    50.3096 4.0881e-01     3.6931      4.352      6.313    14.5730   999.2163      0.099 0.0000e+00
      4.461     0.1814      1.768     83.656  65.594640     3.6571      6.559    46.4280 3.7395e-01     3.4007      4.381      6.355    14.4220   999.2387      0.080 0.0000e+00
      4.474     0.1797      1.751     84.287  66.096157     3.4654      6.556    43.5655 3.5966e-01     2.8693      4.390      6.367    14.3242   999.2533      0.065 0.0000e+00
      4.479     0.1745      1.701     85.715  67.211411     3.3623      6.561    41.4252 3.4876e-01     2.5769      4.391      6.369    14.2474   999.2640      0.060 0.0000e+00
      4.484     0.1678      1.634     86.606  67.827322     3.3374      6.568    39.3922 3.3611e-01     2.5208      4.396      6.376    14.2038   999.2702      0.064 0.0000e+00
      4.495     0.1614      1.569     85.921  67.122447     3.1567      6.567    37.5693 3.0706e-01     2.3219      4.403      6.388    14.1959   999.2715      0.074 0.0000e+00
      4.517     0.1562      1.514     84.331  65.681247     2.8240      6.559    35.9904 2.5581e-01     1.9740      4.425      6.418    14.2043   999.2704      0.088 0.0000e+00
      4.551     0.1542      1.490     83.185  64.577364     2.6438      6.551    34.4987 1.9730e-01     1.7889      4.462      6.471    14.2219   999.2688      0.099 0.0000e+00
      4.586     0.1541      1.485     82.330  63.691526     2.6261      6.544    33.0415 1.5299e-01     1.7880      4.500      6.527    14.1811   999.2752      0.105 0.0000e+00
      4.616     0.1528      1.468     81.109  62.534052     2.5836      6.544    31.7066 1.3659e-01     1.7337      4.530      6.570    14.0556   999.2926      0.106 0.0000e+00
      4.639     0.1506      1.443     79.949  61.450562     2.5028      6.549    30.4042 1.3404e-01     1.6239      4.550      6.599    13.9391   999.3081      0.101 0.0000e+00
      4.661     0.1509      1.443     79.011  60.569071     2.4552      6.553    29.0822 1.3087e-01     1.5745      4.570      6.627    13.8192   999.3243      0.095 0.0000e+00
      4.684     0.1531      1.461     78.288  59.883283     2.4505      6.542    27.9404 1.2658e-01     1.5627      4.594      6.663    13.6720   999.3443      0.088 0.0000e+00
      4.707     0.1526      1.455     78.186  59.704176     2.4453      6.522    26.9232 1.2392e-01     1.5465      4.616      6.695    13.5399   999.3615      0.083 0.0000e+00
      4.729     0.1490      1.420     78.566  59.928565     2.4537      6.523    25.8177 1.2365e-01     1.5763      4.636      6.725    13.4214   999.3770      0.078 0.0000e+00
      4.750     0.1460      1.390     78.686  59.990826     2.4837      6.528    24.6398 1.2363e-01     1.6276      4.660      6.758    13.3186   999.3903      0.073 0.0000e+00
      4.768     0.1461      1.391     77.392  58.995332     2.5038      6.522    23.5228 1.2366e-01     1.6097      4.678      6.786    13.2355   999.4008      0.069 0.0000e+00
      4.782     0.1463      1.392     74.277  56.597545     2.5055      6.521    22.5499 1.2363e-01     1.5559      4.690      6.804    13.1699   999.4093      0.069 0.0000e+00
      4.794     0.1446      1.374     71.118  54.127858     2.5046      6.526    21.8259 1.2357e-01     1.5676      4.701      6.817    13.1267   999.4151      0.074 0.0000e+00
      4.808     0.1423      1.350     68.793  52.261386     2.5019      6.531    21.3933 1.2357e-01     1.6198      4.711      6.833    13.1115   999.4173      0.084 0.0000e+00
      4.830     0.1393      1.320     66.256  50.229494     2.4898      6.536    21.1911 1.2356e-01     1.6288      4.734      6.867    13.1143   999.4169      0.096 0.0000e+00
      4.860     0.1375      1.300     63.763  48.235101     2.4794      6.540    21.0156 1.2351e-01     1.6118      4.766      6.912    13.1080   999.4163      0.108 0.0000e+00
      4.893     0.1368      1.291     62.031  46.820762     2.3851      6.542    20.8210 1.2349e-01     1.5778      4.797      6.957    13.0610   999.4211      0.116 0.0000e+00
      4.929     0.1344      1.266     60.675  45.703684     2.1997      6.544    20.8161 1.2349e-01     1.5456      4.833      7.010    12.9802   999.4312      0.119 0.0000e+00
      4.965     0.1318      1.239     59.527  44.762279     2.0923      6.549    20.9565 1.2351e-01     1.5835      4.873      7.066    12.9009   999.4403      0.118 0.0000e+00
      4.993     0.1320      1.240     58.863  44.201520     2.0666      6.554    21.1425 1.2351e-01     1.6424      4.899      7.105    12.8214   999.4493      0.114 0.0000e+00
      5.016     0.1340      1.258     58.580  43.940054     2.0019      6.559    21.3442 1.2351e-01     1.6025      4.916      7.131    12.7329   999.4599      0.109 0.0000e+00
      5.042     0.1345      1.262     58.470  43.823307     1.8904      6.564    21.5019 1.2354e-01     1.4619      4.944      7.170    12.6535   999.4694      0.104 0.0000e+00
      5.070     0.1338      1.254     58.392  43.742371     1.8294      6.569    21.6725 1.2352e-01     1.3838      4.975      7.214    12.5913   999.4765      0.104 0.0000e+00
      5.094     0.1331      1.247     58.216  43.596401     1.8189      6.574    21.7724 1.2356e-01     1.3791      4.996      7.245    12.5393   999.4828      0.108 0.0000e+00
      5.119     0.1312      1.230     58.040  43.455318     1.7113      6.578    21.8489 1.2360e-01     1.3075      5.017      7.277    12.4972   999.4879      0.117 0.0000e+00
      5.148     0.1292      1.211     57.680  43.179474     1.5166      6.583    22.0815 1.2354e-01     1.1728      5.048      7.321    12.4687   999.4914      0.128 0.0000e+00
      5.182     0.1284      1.203     57.097  42.737486     1.4154      6.589    22.2620 1.2350e-01     1.0941      5.081      7.369    12.4508   999.4937      0.139 0.0000e+00
      5.218     0.1252      1.173     56.864  42.555901     1.3976      6.595    22.3115 1.2355e-01     1.1423      5.114      7.418    12.4394   999.4951      0.147 0.0000e+00
      5.261     0.1207      1.130     56.984  42.634812     1.2583      6.602    22.5940 1.2360e-01     1.5594      5.157      7.481    12.4320   999.4962      0.149 0.0000e+00
      5.309     0.1185      1.109     56.800  42.485206     1.0057      6.604    23.3541 1.2358e-01     2.2695      5.208      7.554    12.4268   999.4970      0.144 0.0000e+00
      5.352     0.1162      1.087     56.021  41.889868     0.8659      6.600    24.3608 1.2351e-01     2.6504      5.253      7.619    12.4230   999.4973      0.135 0.0000e+00
      5.382     0.1128      1.055     55.133  41.214365     0.8430      6.605    25.3012 1.2349e-01     2.6903      5.282      7.661    12.4175   999.4981      0.124 0.0000e+00
      5.404     0.1111      1.039     54.672  40.857280     0.8411      6.609    26.2927 1.2355e-01     2.7517      5.297      7.683    12.4076   999.4995      0.114 0.0000e+00
      5.427     0.1097      1.026     54.540  40.746847     0.8172      6.602    27.4003 1.2360e-01     3.2617      5.319      7.716    12.3957   999.5010      0.108 0.0000e+00
      5.453     0.1076      1.007     54.499  40.704457     0.7449      6.601    28.2822 1.2358e-01     4.1706      5.349      7.759    12.3848   999.5020      0.108 0.0000e+00
      5.478     0.1080      1.010     54.455  40.662173     0.6956      6.601    28.7822 1.2358e-01     4.6627      5.371      7.790    12.3741   999.5030      0.112 0.0000e+00
      5.507     0.1105      1.034     54.405  40.616511     0.6892      6.594    29.2297 1.2360e-01     4.6892      5.396      7.827    12.3626   999.5044      0.115 0.0000e+00
      5.544     0.1169      1.094     54.389  40.596766     0.6933      6.593    29.9072 1.2360e-01     4.7869      5.437      7.885    12.3515   999.5059      0.115 0.0000e+00
      5.579     0.1328      1.242     54.418  40.613883     0.7012      6.600    30.6071 1.2364e-01     5.0243      5.476      7.943    12.3411   999.5073      0.113 0.0000e+00
      5.607     0.1586      1.482     54.447  40.632999     0.7069      6.605    31.1536 1.2371e-01     5.1664      5.500      7.977    12.3318   999.5085      0.109 0.0000e+00
      5.629     0.1906      1.781     54.454  40.637434     0.7019      6.610    31.6964 1.2370e-01     5.1620      5.520      8.004    12.3240   999.5094      0.101 0.0000e+00
      5.653     0.2256      2.109     54.496  40.667511     0.7010      6.619    32.2656 1.2366e-01     5.1349      5.543      8.040    12.3169   999.5104      0.092 0.0000e+00
      5.677     0.2614      2.443     54.512  40.679212     0.7221      6.627    32.7868 1.2367e-01     5.1344      5.567      8.075    12.3126   999.5110      0.085 0.0000e+00
      5.698     0.2963      2.769     54.476  40.651928     0.7404      6.632    33.3527 1.2364e-01     5.1227      5.589      8.107    12.3116   999.5113      0.082 0.0000e+00
      5.717     0.3286      3.071     54.481  40.655066     0.7412      6.633    34.0314 1.2359e-01     5.1242      5.608      8.134    12.3106   999.5115      0.080 0.0000e+00
      5.734     0.3536      3.305     54.481  40.653664     0.7488      6.629    34.7982 1.2359e-01     5.0547      5.623      8.155    12.3097   999.5117      0.080 0.0000e+00
      5.752     0.3698      3.456     54.457  40.634983     0.7713      6.609    35.4834 1.2355e-01     4.8393      5.639      8.180    12.3092   999.5118      0.081 0.0000e+00
      5.774     0.3796      3.547     54.439  40.619648     0.7874      6.576    35.9489 1.2351e-01     4.7158      5.662      8.212    12.3086   999.5120      0.084 0.0000e+00
      5.797     0.3846      3.594     54.409  40.595227     0.7967      6.563    36.3824 1.2352e-01     4.7407      5.684      8.245    12.3079   999.5122      0.088 0.0000e+00
      5.821     0.3875      3.622     54.409  40.593653     0.8052      6.577    36.9389 1.2352e-01     4.9114      5.708      8.279    12.3078   999.5123      0.090 0.0000e+00
      5.846     0.3879      3.625     54.419  40.600616     0.8038      6.596    37.6013 1.2356e-01     5.2066      5.734      8.316    12.3072   999.5125      0.092 0.0000e+00
      5.870     0.3853      3.600     54.443  40.615928     0.7968      6.608    38.1965 1.2361e-01     5.3600      5.756      8.350    12.3042   999.5130      0.092 0.0000e+00
      5.892     0.3823      3.572     54.496  40.651807     0.7899      6.603    38.6288 1.2364e-01     5.3580      5.778      8.380    12.3019   999.5133      0.092 0.0000e+00
      5.915     0.3807      3.557     54.502  40.653495     0.7810      6.586    39.0426 1.2367e-01     5.3787      5.800      8.412    12.3020   999.5134      0.093 0.0000e+00
      5.938     0.3806      3.555     54.482  40.636332     0.7243      6.581    39.6712 1.2365e-01     5.8723      5.823      8.446    12.3009   999.5136      0.096 0.0000e+00
      5.961     0.3807      3.556     54.485  40.634749     0.6153      6.586    40.5516 1.2360e-01     6.8035      5.844      8.477    12.2982   999.5141      0.101 0.0000e+00
      5.986     0.3807      3.556     54.489  40.634351     0.5553      6.589    41.2554 1.2361e-01     7.3302      5.868      8.512    12.2952   999.5146      0.107 0.0000e+00
      6.016     0.3813      3.561     54.489  40.631514     0.5544      6.589    41.7270 1.2363e-01     7.4554      5.900      8.557    12.2927   999.5151      0.112 0.0000e+00
      6.046     0.3827      3.574     54.452  40.600447     0.5528      6.589    42.2968 1.2364e-01     7.6299      5.930      8.599    12.2903   999.5154      0.115 0.0000e+00
      6.077     0.3843      3.589     54.423  40.576156     0.5526      6.591    42.7248 1.2370e-01     7.8009      5.958      8.641    12.2867   999.5160      0.116 0.0000e+00
      6.110     0.3856      3.600     54.447  40.591756     0.5601      6.590    42.9434 1.2376e-01     7.8524      5.993      8.692    12.2838   999.5165      0.114 0.0000e+00
      6.141     0.3839      3.585     54.460  40.598606     0.5657      6.585    43.3057 1.2375e-01     7.8914      6.024      8.737    12.2816   999.5169      0.108 0.0000e+00
      6.167     0.3789      3.538     54.460  40.595486     0.5863      6.581    43.9215 1.2367e-01     8.1743      6.047      8.771    12.2786   999.5173      0.097 0.0000e+00
      6.192     0.3708      3.461     54.493  40.617511     0.6180      6.581    44.6236 1.2361e-01     8.5853      6.071      8.806    12.2753   999.5178      0.083 0.0000e+00
      6.215     0.3584      3.345     54.572  40.674449     0.6281      6.581    45.0841 1.2359e-01     8.7640      6.098      8.843    12.2733   999.5183      0.069 0.0000e+00
      6.230     0.3406      3.180     54.625  40.712524     0.6309      6.580    45.3604 1.2359e-01     8.7954      6.114      8.867    12.2713   999.5185      0.058 0.0000e+00
      6.237     0.3148      2.939     54.605  40.696941     0.6342      6.580    45.6408 1.2359e-01     8.9978      6.117      8.871    12.2681   999.5189      0.051 0.0000e+00
      6.242     0.2837      2.649     54.579  40.676506     0.6337      6.580    45.9785 1.2359e-01     9.3103      6.119      8.874    12.2653   999.5193      0.049 0.0000e+00
      6.252     0.2524      2.356     54.552  40.655915     0.6332      6.581    46.4327 1.2365e-01     9.4263      6.129      8.890    12.2635   999.5195      0.052 0.0000e+00
      6.267     0.2205      2.058     54.529  40.638430     0.6283      6.583    46.8300 1.2366e-01     9.3856      6.145      8.912    12.2628   999.5197      0.058 0.0000e+00
      6.285     0.1882      1.757     54.553  40.655560     0.6005      6.582    47.1685 1.2357e-01     9.4080      6.163      8.939    12.2622   999.5198      0.066 0.0000e+00
      6.306     0.1613      1.506     54.576  40.672560     0.5481      6.576    47.4288 1.2358e-01     9.4684      6.184      8.970    12.2608   999.5201      0.072 0.0000e+00
      6.326     0.1423      1.329     54.551  40.653514     0.5154      6.574    47.4816 1.2368e-01     9.4924      6.204      8.998    12.2601   999.5203      0.075 0.0000e+00
      6.345     0.1295      1.210     54.501  40.615734     0.5086      6.581    47.5486 1.2376e-01     9.5010      6.222      9.024    12.2601   999.5204      0.075 0.0000e+00
      6.365     0.1228      1.147     54.476  40.596689     0.5089      6.589    47.7232 1.2375e-01     9.4752      6.242      9.052    12.2598   999.5205      0.073 0.0000e+00
      6.384     0.1193      1.113     54.500  40.613706     0.5365      6.592    47.7861 1.2365e-01     9.4750      6.260      9.080    12.2596   999.5206      0.071 0.0000e+00
      6.403     0.1162      1.085     54.525  40.631020     0.5908      6.579    47.7926 1.2358e-01     9.5970      6.279      9.107    12.2590   999.5208      0.071 0.0000e+00
      6.419     0.1170      1.092     54.505  40.615577     0.6273      6.557    47.9741 1.2359e-01     9.7051      6.297      9.133    12.2580   999.5209      0.070 0.0000e+00
      6.433     0.1200      1.120     54.506  40.617451     0.6314      6.549    48.1741 1.2359e-01     9.7003      6.307      9.148    12.2576   999.5210      0.068 0.0000e+00
      6.451     0.1201      1.121     54.551  40.653668     0.5976      6.554    48.2313 1.2356e-01     9.7357      6.323      9.171    12.2573   999.5211      0.063 0.0000e+00
      6.474     0.1207      1.126     54.572  40.672558     0.5398      6.558    48.3218 1.2361e-01     9.8707      6.352      9.214    12.2564   999.5213      0.058 0.0000e+00
      6.490     0.1232      1.150     54.543  40.655387     0.5133      6.559    48.4085 1.2367e-01     9.9565      6.368      9.238    12.2553   999.5216      0.052 0.0000e+00
      6.499     0.1257      1.173     54.509  40.636524     0.5188      6.560    48.4187 1.2371e-01     9.9532      6.373      9.243    12.2565   999.5214      0.046 0.0000e+00
      6.506     0.1290      1.204     54.498  40.634949     0.5291      6.560    48.5312 1.2374e-01     9.9297      6.380      9.253    12.2590   999.5212      0.038 0.0000e+00
      6.515     0.1327      1.239     54.493  40.636354     0.5504      6.559    48.7362 1.2374e-01     9.9009      6.389      9.267    12.2616   999.5209      0.030 0.0000e+00
      6.524     0.1362      1.272     54.513  40.653522     0.5686      6.557    48.9183 1.2369e-01     9.8682      6.398      9.280    12.2664   999.5204      0.025 0.0000e+00
      6.530     0.1402      1.310     54.510  40.652065     0.5666      6.557    49.0126 1.2363e-01     9.8616      6.405      9.290    12.2717   999.5198      0.021 0.0000e+00
      6.534     0.1437      1.342     54.467  40.618739     0.5615      6.556    49.1018 1.2360e-01     9.8865      6.408      9.294    12.2782   999.5191      0.017 0.0000e+00
      6.537     0.1455      1.360     54.487  40.631499     0.5591      6.556    49.3082 1.2358e-01     9.9074      6.411      9.298    12.2843   999.5184      0.012 0.0000e+00
      6.539     0.1472      1.375     54.551  40.679364     0.5631      6.556    49.5288 1.2357e-01     9.9173      6.413      9.301    12.2859   999.5182      0.008 0.0000e+00
      6.540     0.1478      1.381     54.559  40.689572     0.5670      6.554    49.7042 1.2362e-01     9.9405      6.414      9.302    12.2861   999.5182      0.005 0.0000e+00
      6.541     0.1476      1.379     54.554  40.691445     0.5375      6.552    49.8798 1.2369e-01     9.9912      6.415      9.304    12.2849   999.5183      0.003 0.0000e+00
      6.541     0.1488      1.390     54.560  40.702014     0.4833      6.550    49.9321 1.2368e-01    10.0068      6.414      9.303    12.2813   999.5188      0.002 0.0000e+00
      6.542     0.1501      1.403     54.536  40.690389     0.4493      6.548    49.9057 1.2363e-01     9.9323      6.415      9.305    12.2810   999.5188      0.002 0.0000e+00
      6.542     0.1505      1.407     54.511  40.677878     0.4478      6.548    49.9056 1.2357e-01     9.8771      6.416      9.306    12.2868   999.5181      0.001 0.0000e+00
      6.542     0.1514      1.415     54.502  40.677721     0.4738      6.547    49.7587 1.2351e-01     9.8633      6.416      9.305    12.2924   999.5175      0.001 0.0000e+00
      6.542     0.1530      1.431     54.509  40.688502     0.5110      6.546    49.7646 1.2351e-01     9.7981      6.416      9.306    12.2966   999.5170      0.001 0.0000e+00
      6.542     0.1552      1.451     54.493  40.681261     0.5254      6.545    50.2341 1.2355e-01     9.7107      6.416      9.306    12.3033   999.5162      0.001 0.0000e+00
      6.542     0.1575      1.473     54.448  40.653660     0.5169      6.544    50.7902 1.2361e-01     9.6595      6.416      9.306    12.3088   999.5155      0.001 0.0000e+00
      6.543     0.1585      1.482     54.465  40.672221     0.5126      6.543    51.1541 1.2363e-01     9.6704      6.417      9.307    12.3141   999.5149      0.001 0.0000e+00
      6.544     0.1600      1.496     54.517  40.715232     0.5430      6.543    51.3643 1.2359e-01     9.6788      6.417      9.308    12.3205   999.5142      0.001 0.0000e+00
      6.544     0.1615      1.510     54.533  40.729291     0.5720      6.543    51.4386 1.2357e-01     9.6633      6.417      9.307    12.3242   999.5138      0.001 0.0000e+00
      6.544 -9.990e-29 -9.990e-29 -9.990e-29 -9.990e-29 -9.990e-29 -9.990e-29 -9.990e-29 1.2358e-01 -9.990e-29      6.417      9.307    12.3292   999.5131 -9.990e-29 0.0000e+00
      6.544 -9.990e-29 -9.990e-29 -9.990e-29 -9.990e-29 -9.990e-29 -9.990e-29 -9.990e-29 1.2361e-01 -9.990e-29      6.417      9.307    12.3356   999.5123 -9.990e-29 0.0000e+00
      6.544 -9.990e-29 -9.990e-29 -9.990e-29 -9.990e-29 -9.990e-29 -9.990e-29 -9.990e-29 1.2361e-01 -9.990e-29      6.417      9.308    12.3400   999.5118 -9.990e-29 0.0000e+00
      6.544 -9.990e-29 -9.990e-29 -9.990e-29 -9.990e-29 -9.990e-29 -9.990e-29 -9.990e-29 1.2359e-01 -9.990e-29      6.418      9.308    12.3423   999.5116 -9.990e-29 0.0000e+00
