* Sea-Bird SBE19plus  Data File:
* FileName = C:\DATA\20180917_fcr_0005.hex
* Software version 2.6.3.104 SB_Terminal.dll
* Temperature SN = 7809
* Conductivity SN = 7809
* System UpLoad Time = Sep 17 2018 17:52:42
* <ApplicationData>
* <Seaterm232>
* <SoftwareVersion>2.6.3.104</SoftwareVersion>
* <BuildDate>30-Jun-2017</BuildDate>
* </Seaterm232>
* </ApplicationData>
* cast   5 17 Sep 2018 17:52:17 samples 2482 to 3649, avg = 1, stop = mag switch
# nquan = 15
# nvalues = 1047                        
# units = specified
# name 0 = depFM: Depth [fresh water, m]
# name 1 = dz/dtM: Descent Rate [m/s]
# name 2 = sbeox0Mg/L: Oxygen, SBE 43 [mg/l]
# name 3 = sbeox0PS: Oxygen, SBE 43 [% saturation]
# name 4 = specc: Specific Conductance [uS/cm]
# name 5 = c0uS/cm: Conductivity [uS/cm]
# name 6 = flECO-AFL: Fluorescence, WET Labs ECO-AFL/FL [mg/m^3]
# name 7 = ph: pH
# name 8 = orp: Oxidation Reduction Potential [mV]
# name 9 = par/sat/log: PAR/Logarithmic, Satlantic
# name 10 = turbWETntu0: Turbidity, WET Labs ECO [NTU]
# name 11 = prdM: Pressure, Strain Gauge [db]
# name 12 = prdE: Pressure, Strain Gauge [psi]
# name 13 = tv290C: Temperature [ITS-90, deg C]
# name 14 = flag:  0.000e+00
# span 0 =     -0.604,      9.197       
# span 1 =      0.000,      0.121       
# span 2 =    -0.0456,     8.3309       
# span 3 =     -0.506,     96.937       
# span 4 =      0.435,     97.196       
# span 5 =   0.429606,  74.539577       
# span 6 =    -0.1946,    10.3278       
# span 7 =      6.246,      7.871       
# span 8 =  -273.8297,   679.3751       
# span 9 = 1.2534e-01, 3.3319e+02       
# span 10 =    -0.2711,    67.4917      
# span 11 =     -0.592,      9.019      
# span 12 =     -0.859,     13.082      
# span 13 =    12.8708,    24.4031      
# span 14 = 0.0000e+00, 0.0000e+00      
# interval = seconds: 0.25
# start_time = Sep 17 2018 17:52:17 [Instrument's time stamp, header]
# bad_flag = -9.990e-29
# <Sensors count="9" >
#   <sensor Channel="1" >
#     <!-- Count, Temperature -->
#     <TemperatureSensor SensorID="58" >
#       <SerialNumber>7809</SerialNumber>
#       <CalibrationDate>09-Mar-18</CalibrationDate>
#       <A0>1.21093245e-003</A0>
#       <A1>2.84356597e-004</A1>
#       <A2>-1.94507398e-006</A2>
#       <A3>2.12806664e-007</A3>
#       <Slope>1.00000000</Slope>
#       <Offset>0.0000</Offset>
#     </TemperatureSensor>
#   </sensor>
#   <sensor Channel="2" >
#     <!-- Frequency 0, Conductivity -->
#     <ConductivitySensor SensorID="3" >
#       <SerialNumber>7809</SerialNumber>
#       <CalibrationDate>09-Mar-18</CalibrationDate>
#       <UseG_J>1</UseG_J>
#       <!-- Cell const and series R are applicable only for wide range sensors. -->
#       <SeriesR>0.0000</SeriesR>
#       <CellConst>2000.0000</CellConst>
#       <ConductivityType>0</ConductivityType>
#       <Coefficients equation="0" >
#         <A>0.00000000e+000</A>
#         <B>0.00000000e+000</B>
#         <C>0.00000000e+000</C>
#         <D>0.00000000e+000</D>
#         <M>0.0</M>
#         <CPcor>-9.57000000e-008</CPcor>
#       </Coefficients>
#       <Coefficients equation="1" >
#         <G>-1.00672082e+000</G>
#         <H>1.26906489e-001</H>
#         <I>-1.40584351e-004</I>
#         <J>2.47837121e-005</J>
#         <CPcor>-9.57000000e-008</CPcor>
#         <CTcor>3.2500e-006</CTcor>
#         <!-- WBOTC not applicable unless ConductivityType = 1. -->
#         <WBOTC>0.00000000e+000</WBOTC>
#       </Coefficients>
#       <Slope>1.00000000</Slope>
#       <Offset>0.00000</Offset>
#     </ConductivitySensor>
#   </sensor>
#   <sensor Channel="3" >
#     <!-- Count, Pressure, Strain Gauge -->
#     <PressureSensor SensorID="46" >
#       <SerialNumber>7809</SerialNumber>
#       <CalibrationDate>07-Mar-18</CalibrationDate>
#       <PA0>-4.08176359e-002</PA0>
#       <PA1>4.85188419e-004</PA1>
#       <PA2>-3.51168169e-012</PA2>
#       <PTEMPA0>-5.37806900e+001</PTEMPA0>
#       <PTEMPA1>5.36620721e+001</PTEMPA1>
#       <PTEMPA2>4.87214332e-002</PTEMPA2>
#       <PTCA0>5.25213435e+005</PTCA0>
#       <PTCA1>1.79532409e+000</PTCA1>
#       <PTCA2>-2.84353509e-001</PTCA2>
#       <PTCB0>2.51668750e+001</PTCB0>
#       <PTCB1>3.75000000e-004</PTCB1>
#       <PTCB2>0.00000000e+000</PTCB2>
#       <Offset>0.000000</Offset>
#     </PressureSensor>
#   </sensor>
#   <sensor Channel="4" >
#     <!-- A/D voltage 0, pH -->
#     <pH_Sensor SensorID="43" >
#       <SerialNumber>0363</SerialNumber>
#       <CalibrationDate>16-Mar-18</CalibrationDate>
#       <Slope>4.6194</Slope>
#       <Offset>2.5947</Offset>
#     </pH_Sensor>
#   </sensor>
#   <sensor Channel="5" >
#     <!-- A/D voltage 1, Oxidation Reduction Potential -->
#     <OxidationReductionPotentialSensor SensorID="41" >
#       <SerialNumber>0363</SerialNumber>
#       <CalibrationDate>16-Mar-18</CalibrationDate>
#       <B>2.499480</B>
#       <M>-0.496195</M>
#       <Offset>0.0</Offset>
#     </OxidationReductionPotentialSensor>
#   </sensor>
#   <sensor Channel="6" >
#     <!-- A/D voltage 2, Oxygen, SBE 43 -->
#     <OxygenSensor SensorID="38" >
#       <SerialNumber>0434</SerialNumber>
#       <CalibrationDate>13-Mar-18</CalibrationDate>
#       <Use2007Equation>1</Use2007Equation>
#       <CalibrationCoefficients equation="0" >
#         <!-- Coefficients for Owens-Millard equation. -->
#         <Boc>0.0000</Boc>
#         <Soc>0.0000e+000</Soc>
#         <offset>0.0000</offset>
#         <Pcor>0.00e+000</Pcor>
#         <Tcor>0.0000</Tcor>
#         <Tau>0.0</Tau>
#       </CalibrationCoefficients>
#       <CalibrationCoefficients equation="1" >
#         <!-- Coefficients for Sea-Bird equation - SBE calibration in 2007 and later. -->
#         <Soc>4.5718e-001</Soc>
#         <offset>-0.6113</offset>
#         <A>-4.0649e-003</A>
#         <B> 2.0945e-004</B>
#         <C>-3.3182e-006</C>
#         <D0> 2.5826e+000</D0>
#         <D1> 1.92634e-004</D1>
#         <D2>-4.64803e-002</D2>
#         <E> 3.6000e-002</E>
#         <Tau20> 1.2200</Tau20>
#         <H1>-3.3000e-002</H1>
#         <H2> 5.0000e+003</H2>
#         <H3> 1.4500e+003</H3>
#       </CalibrationCoefficients>
#     </OxygenSensor>
#   </sensor>
#   <sensor Channel="7" >
#     <!-- A/D voltage 3, PAR/Logarithmic, Satlantic -->
#     <PARLog_SatlanticSensor SensorID="76" >
#       <SerialNumber>1122</SerialNumber>
#       <CalibrationDate>22-Jun-2017</CalibrationDate>
#       <a0>9.6090e-001</a0>
#       <a1>8.0780e-001</a1>
#       <Im>1.3589e+000</Im>
#       <Multiplier>1.0000e+000</Multiplier>
#     </PARLog_SatlanticSensor>
#   </sensor>
#   <sensor Channel="8" >
#     <!-- A/D voltage 4, Fluorometer, WET Labs ECO-AFL/FL -->
#     <FluoroWetlabECO_AFL_FL_Sensor SensorID="20" >
#       <SerialNumber>FLNTURT-2496</SerialNumber>
#       <CalibrationDate>25-Jan-2017</CalibrationDate>
#       <ScaleFactor>5.30000000e+001</ScaleFactor>
#       <!-- Dark output -->
#       <Vblank>0.0560</Vblank>
#     </FluoroWetlabECO_AFL_FL_Sensor>
#   </sensor>
#   <sensor Channel="9" >
#     <!-- A/D voltage 5, Turbidity Meter, WET Labs, ECO-NTU -->
#     <TurbidityMeter SensorID="67" >
#       <SerialNumber>FLNTURT-2496</SerialNumber>
#       <CalibrationDate>25-Jan-2017</CalibrationDate>
#       <ScaleFactor>176.000000</ScaleFactor>
#       <!-- Dark output -->
#       <DarkVoltage>0.072000</DarkVoltage>
#     </TurbidityMeter>
#   </sensor>
# </Sensors>
# datcnv_date = Sep 17 2018 17:58:17, 7.26.7.114 [datcnv_vars = 14]
# datcnv_in = C:\DATA\20180917_fcr50.hex C:\DATA\SBE19plusV2_7809.xmlcon
# datcnv_skipover = 0
# datcnv_ox_hysteresis_correction = yes
# datcnv_ox_tau_correction = yes
# filter_date = Sep 17 2018 17:59:16, 7.26.7.114
# filter_in = C:\DATA\20180917_fcr50.cnv
# filter_low_pass_tc_A = 0.030
# filter_low_pass_tc_B = 0.150
# filter_low_pass_A_vars = prdM prdE tv290C
# filter_low_pass_B_vars = depFM dz/dtM sbeox0Mg/L sbeox0PS specc c0uS/cm flECO-AFL ph orp par/sat/log turbWETntu0
# alignctd_date = Sep 17 2018 17:59:41, 7.26.7.114
# alignctd_in = C:\DATA\20180917_fcr50.cnv
# alignctd_adv = dz/dtM 1.000, sbeox0Mg/L 1.000, sbeox0PS 1.000, specc 1.000, c0uS/cm 1.000, flECO-AFL 1.000, ph 1.000, orp 1.000, turbWETntu0 1.000                                                                                 
# file_type = ascii
*END*
     -0.603 4.3139e-20     8.0082     95.848      0.474   0.467549    -0.1612      6.780  -273.8297 1.7642e+02     0.0292     -0.591     -0.857    24.3984 0.0000e+00
     -0.603 3.9217e-21     8.0070     95.833      0.459   0.453724    -0.1581      6.757  -224.2750 1.7707e+02    -0.0011     -0.592     -0.858    24.3983 0.0000e+00
     -0.603 3.5652e-22     8.0066     95.829      0.445   0.440097    -0.1590      6.758  -165.8277 1.7838e+02    -0.0771     -0.591     -0.857    24.3984 0.0000e+00
     -0.603 3.2410e-23     8.0075     95.839      0.435   0.429606    -0.1630      6.768  -107.5607 1.8543e+02    -0.1880     -0.591     -0.857    24.3985 0.0000e+00
     -0.603 2.9464e-24     8.0080     95.846      0.459   0.453703    -0.1788      6.779  -140.6338 1.9528e+02    -0.2430     -0.592     -0.858    24.3984 0.0000e+00
     -0.603 2.6786e-25     8.0073     95.838      0.483   0.477810    -0.1936      6.789  -173.8024 1.9674e+02    -0.2545     -0.591     -0.857    24.3985 0.0000e+00
     -0.603 2.4351e-26     8.0054     95.815      0.473   0.467435    -0.1946      6.796  -162.4636 1.9146e+02    -0.2360     -0.591     -0.857    24.3986 0.0000e+00
     -0.603 2.2137e-27     8.0039     95.797      0.460   0.455075    -0.1912      6.802  -173.7230 1.8939e+02    -0.1712     -0.591     -0.857    24.3988 0.0000e+00
     -0.603 2.0124e-28     8.0036     95.794      0.460   0.455199    -0.1892      6.805  -187.0749 1.9400e+02    -0.1116     -0.592     -0.858    24.3987 0.0000e+00
     -0.603 1.8295e-29     8.0040     95.800      0.475   0.468932    -0.1796      6.807  -185.4633 2.0003e+02    -0.0655     -0.591     -0.857    24.3990 0.0000e+00
     -0.603 1.6632e-30     8.0049     95.810      0.500   0.494296    -0.1672      6.809  -189.9434 2.2476e+02    -0.0101     -0.591     -0.857    24.3993 0.0000e+00
     -0.603 1.5120e-31     8.0060     95.823      0.515   0.508234    -0.1687      6.810  -189.5335 2.7481e+02     0.0085     -0.591     -0.857    24.3991 0.0000e+00
     -0.603 1.3745e-32     8.0074     95.840      0.517   0.510626    -0.1791      6.810  -184.4664 3.0750e+02    -0.0239     -0.592     -0.858    24.3993 0.0000e+00
     -0.603 1.2495e-33     8.0079     95.847      0.530   0.523224    -0.1824      6.810  -184.7740 3.1257e+02    -0.0653     -0.591     -0.857    24.3997 0.0000e+00
     -0.603 1.1360e-34     8.0072     95.838      0.540   0.533725    -0.1713      6.810  -182.9277 3.1292e+02    -0.0649     -0.591     -0.857    24.3997 0.0000e+00
     -0.603 1.0327e-35     8.0068     95.833      0.517   0.510773    -0.1650      6.809  -179.3510 3.1501e+02    -0.0193     -0.591     -0.857    24.3996 0.0000e+00
     -0.603 9.3880e-37     8.0068     95.833      0.505   0.499357    -0.1705      6.806  -175.6004 3.1821e+02    -0.0320     -0.592     -0.858    24.3997 0.0000e+00
     -0.603 8.5345e-38     8.0065     95.830      0.529   0.522520    -0.1735      6.804  -173.6298 3.2081e+02    -0.0674     -0.591     -0.857    24.3996 0.0000e+00
     -0.603 7.7590e-39     8.0063     95.827      0.544   0.537186    -0.1738      6.803  -172.0439 3.2224e+02    -0.0502     -0.591     -0.857    24.3997 0.0000e+00
     -0.603 7.0535e-40     8.0057     95.821      0.556   0.549858    -0.1738      6.801  -171.8259 3.2244e+02    -0.0376     -0.591     -0.857    24.3997 0.0000e+00
     -0.603 6.4125e-41     8.0055     95.818      0.555   0.548923    -0.1734      6.801  -174.8659 3.2113e+02    -0.0363     -0.592     -0.858    24.3996 0.0000e+00
     -0.603 5.8295e-42     8.0058     95.822      0.532   0.525875    -0.1694      6.800  -176.2775 3.1868e+02    -0.0033     -0.591     -0.857    24.3998 0.0000e+00
     -0.604 5.2995e-43     8.0058     95.821      0.532   0.524827    -0.1615      6.799  -178.5695 3.1623e+02     0.0250     -0.592     -0.858    24.3997 0.0000e+00
     -0.604 4.8176e-44     8.0063     95.826      0.543   0.536262    -0.1608      6.799  -187.1772 3.0813e+02     0.0007     -0.592     -0.859    24.3995 0.0000e+00
     -0.603 4.3797e-45     8.0070     95.835      0.544   0.537311    -0.1700      6.801  -185.5374 2.8776e+02    -0.0228     -0.591     -0.858    24.3996 0.0000e+00
     -0.603 3.9815e-46     8.0075     95.840      0.544   0.537511    -0.1720      6.804  -163.9917 2.4731e+02    -0.0150     -0.591     -0.857    24.3997 0.0000e+00
     -0.603 3.6196e-47     8.0077     95.842      0.545   0.538671    -0.1664      6.808  -173.1712 1.9226e+02    -0.0272     -0.591     -0.858    24.3997 0.0000e+00
     -0.603 3.2908e-48     8.0072     95.837      0.558   0.551346    -0.1667      6.808  -227.6092 1.6058e+02    -0.0480     -0.591     -0.857    24.3996 0.0000e+00
     -0.603 3.0256e-49     8.0067     95.832      0.571   0.563936    -0.1664      6.806  -259.3280 1.6288e+02    -0.0839     -0.591     -0.857    24.3996 0.0000e+00
     -0.603 6.4919e-50     8.0058     95.820      0.571   0.564070    -0.1625      6.803  -251.6714 1.7153e+02    -0.1559     -0.591     -0.858    24.3995 0.0000e+00
     -0.603 4.1745e-49     8.0048     95.807      0.560   0.552972    -0.1656      6.802  -157.9200 1.7671e+02    -0.1858     -0.591     -0.858    24.3996 0.0000e+00
     -0.603 4.5650e-48     8.0046     95.806      0.564   0.556565    -0.1767      6.805   -72.9079 1.8691e+02    -0.2011     -0.591     -0.858    24.3997 0.0000e+00
     -0.603 5.0212e-47     8.0047     95.807      0.615   0.607513    -0.1867      6.810  -165.0668 2.0286e+02    -0.2189     -0.591     -0.857    24.3998 0.0000e+00
     -0.603 5.5233e-46     8.0054     95.815      0.670   0.661690    -0.1846      6.814  -257.2011 2.1321e+02    -0.1879     -0.592     -0.858    24.3998 0.0000e+00
     -0.603 6.0757e-45     8.0065     95.829      0.713   0.704329    -0.1793      6.814  -247.6903 2.1085e+02    -0.1615     -0.592     -0.858    24.3996 0.0000e+00
     -0.603 6.6832e-44     8.0065     95.828      0.752   0.742585    -0.1774      6.814  -239.9615 2.0290e+02    -0.1748     -0.591     -0.858    24.3995 0.0000e+00
     -0.603 7.3516e-43     8.0063     95.826      0.753   0.743767    -0.1715      6.813  -241.2740 2.0184e+02    -0.1963     -0.591     -0.857    24.3993 0.0000e+00
     -0.603 8.0867e-42     8.0067     95.831      0.727   0.718623    -0.1629      6.812  -235.5114 2.1175e+02    -0.2078     -0.591     -0.857    24.3992 0.0000e+00
     -0.603 8.8954e-41     8.0059     95.821      0.701   0.692221    -0.1563      6.811  -220.5329 2.2757e+02    -0.2218     -0.591     -0.857    24.3990 0.0000e+00
     -0.603 9.7849e-40     8.0045     95.805      0.686   0.678189    -0.1558      6.810  -204.4586 2.4632e+02    -0.2126     -0.591     -0.858    24.3991 0.0000e+00
     -0.603 1.0763e-38     8.0042     95.801      0.684   0.675779    -0.1654      6.809  -195.1686 2.6566e+02    -0.1882     -0.591     -0.858    24.3991 0.0000e+00
     -0.603 1.1840e-37     8.0045     95.805      0.671   0.663087    -0.1815      6.809  -189.5150 2.8045e+02    -0.2012     -0.591     -0.857    24.3992 0.0000e+00
     -0.603 1.3024e-36     8.0055     95.816      0.660   0.651547    -0.1847      6.809  -184.7139 2.9201e+02    -0.2173     -0.591     -0.858    24.3994 0.0000e+00
     -0.603 1.4326e-35     8.0065     95.827      0.671   0.663075    -0.1772      6.809  -107.3493 3.0011e+02    -0.2008     -0.592     -0.858    24.3993 0.0000e+00
     -0.603 1.5759e-34     8.0066     95.830      0.684   0.675652    -0.1722      6.809   -21.7483 3.0196e+02    -0.1838     -0.591     -0.858    24.3992 0.0000e+00
     -0.603 1.7335e-33     8.0066     95.830      0.685   0.676794    -0.1704      6.810   -79.3731 3.0100e+02    -0.1958     -0.591     -0.857    24.3992 0.0000e+00
     -0.603 1.9068e-32     8.0065     95.829      0.685   0.676888    -0.1652      6.811  -155.4364 2.9841e+02    -0.2228     -0.591     -0.858    24.3992 0.0000e+00
     -0.603 2.0975e-31     8.0068     95.832      0.685   0.676782    -0.1556      6.810  -162.3376 2.9333e+02    -0.2365     -0.591     -0.857    24.3993 0.0000e+00
     -0.603 2.3072e-30     8.0071     95.836      0.684   0.675516    -0.1550      6.810  -163.4179 2.8825e+02    -0.2385     -0.591     -0.857    24.3992 0.0000e+00
     -0.603 2.5380e-29     8.0070     95.835      0.670   0.661577    -0.1668      6.811  -166.5191 2.8566e+02    -0.2479     -0.591     -0.858    24.3993 0.0000e+00
     -0.602 2.7918e-28     8.0064     95.828      0.643   0.635069    -0.1795      6.812  -169.2896 2.8491e+02    -0.2584     -0.591     -0.857    24.3993 0.0000e+00
     -0.602 3.0709e-27     8.0063     95.826      0.616   0.608656    -0.1797      6.813  -172.7391 2.8384e+02    -0.2438     -0.591     -0.857    24.3989 0.0000e+00
     -0.602 3.3780e-26     8.0074     95.839      0.603   0.595870    -0.1686      6.813  -173.6390 2.8271e+02    -0.2235     -0.591     -0.857    24.3991 0.0000e+00
     -0.602 3.7158e-25     8.0080     95.846      0.615   0.607295    -0.1647      6.814  -170.7915 2.8270e+02    -0.2268     -0.591     -0.857    24.3992 0.0000e+00
     -0.603 4.0874e-24     8.0078     95.843      0.628   0.619966    -0.1700      6.814  -166.6165 2.8276e+02    -0.2224     -0.591     -0.858    24.3990 0.0000e+00
     -0.603 4.4961e-23     8.0074     95.838      0.630   0.622251    -0.1685      6.814  -162.6524 2.8256e+02    -0.1999     -0.591     -0.857    24.3991 0.0000e+00
     -0.603 4.9458e-22     8.0071     95.835      0.643   0.634923    -0.1741      6.814  -161.4075 2.8251e+02    -0.1993     -0.590     -0.856    24.3990 0.0000e+00
     -0.603 5.4403e-21     8.0075     95.839      0.654   0.646358    -0.1829      6.814  -159.8241 2.8243e+02    -0.2156     -0.591     -0.858    24.3989 0.0000e+00
     -0.603 5.9844e-20     8.0081     95.846      0.642   0.633695    -0.1736      6.814  -152.9723 2.8290e+02    -0.2133     -0.591     -0.858    24.3988 0.0000e+00
     -0.603 6.5828e-19     8.0079     95.843      0.616   0.608644    -0.1626      6.813  -143.9518 2.8378e+02    -0.2028     -0.591     -0.857    24.3986 0.0000e+00
     -0.603 7.2411e-18     8.0071     95.834      0.604   0.597104    -0.1599      6.812  -133.4428 2.8414e+02    -0.2101     -0.591     -0.857    24.3987 0.0000e+00
     -0.603 7.9652e-17     8.0058     95.818      0.629   0.620994    -0.1682      6.811  -117.7126 2.8486e+02    -0.2412     -0.591     -0.858    24.3987 0.0000e+00
     -0.603 8.7617e-16     8.0048     95.806      0.652   0.643844    -0.1804      6.811   -99.7673 2.8724e+02    -0.2428     -0.591     -0.857    24.3986 0.0000e+00
     -0.603 9.6379e-15     8.0056     95.816      0.628   0.619735    -0.1780      6.810   -82.9535 2.9002e+02    -0.1986     -0.592     -0.858    24.3984 0.0000e+00
     -0.603 1.0602e-13     8.0068     95.831      0.590   0.583146    -0.1677      6.810   -74.7964 2.9199e+02    -0.1957     -0.591     -0.857    24.3985 0.0000e+00
     -0.602 1.1662e-12     8.0066     95.828      0.589   0.581919    -0.1662      6.810   -64.8090 2.9390e+02    -0.2384     -0.591     -0.857    24.3986 0.0000e+00
     -0.602 1.2828e-11     8.0055     95.815      0.612   0.604894    -0.1686      6.810   -33.3515 2.9565e+02    -0.2572     -0.591     -0.857    24.3985 0.0000e+00
     -0.602 1.4111e-10     8.0055     95.815      0.615   0.607284    -0.1600      6.809   -24.2344 2.9241e+02    -0.2398     -0.590     -0.856    24.3985 0.0000e+00
     -0.602 1.5522e-09     8.0067     95.829      0.618   0.610826    -0.1540      6.808   -53.6069 2.7588e+02    -0.2111     -0.591     -0.857    24.3983 0.0000e+00
     -0.602 1.7074e-08     8.0070     95.833      0.656   0.647720    -0.1608      6.808   -67.3929 2.4813e+02    -0.1836     -0.591     -0.857    24.3982 0.0000e+00
     -0.602 1.8781e-07     8.0067     95.829      0.681   0.672896    -0.1594      6.809   -64.3563 2.2161e+02    -0.1822     -0.590     -0.856    24.3982 0.0000e+00
     -0.602 1.8781e-07     8.0069     95.832      0.670   0.661576    -0.1557      6.809   -66.6215 2.0330e+02    -0.2247     -0.590     -0.855    24.3982 0.0000e+00
     -0.602 1.7074e-08     8.0067     95.829      0.646   0.637678    -0.1619      6.807   -67.0766 1.9176e+02    -0.2711     -0.590     -0.856    24.3981 0.0000e+00
     -0.602 1.5522e-09     8.0064     95.825      0.646   0.637593    -0.1612      6.795   -70.3766 1.8215e+02    -0.2542     -0.591     -0.857    24.3982 0.0000e+00
     -0.602 1.4129e-10     8.0066     95.827      0.669   0.660548    -0.1557      6.775   -83.0329 1.7343e+02    -0.2042     -0.591     -0.857    24.3982 0.0000e+00
     -0.602 1.4851e-11     8.0070     95.832      0.669   0.661578    -0.1592      6.756   -94.7425 1.6570e+02    -0.2155     -0.590     -0.856    24.3982 0.0000e+00
     -0.602 2.3421e-11     8.0082     95.847      0.658   0.650049    -0.1669      6.751  -102.0841 1.5952e+02    -0.2386     -0.590     -0.856    24.3981 0.0000e+00
     -0.602 2.4491e-10     8.0091     95.857      0.656   0.647971    -0.1755      6.753  -104.7756 1.5724e+02    -0.2094     -0.591     -0.857    24.3982 0.0000e+00
     -0.602 2.6929e-09     8.0089     95.855      0.645   0.636453    -0.1810      6.756  -101.9037 1.5510e+02    -0.1984     -0.590     -0.856    24.3981 0.0000e+00
     -0.602 2.9621e-08     8.0084     95.850      0.646   0.637610    -0.1778      6.766   -95.8397 1.4953e+02    -0.2272     -0.590     -0.856    24.3980 0.0000e+00
     -0.602 3.2584e-07     8.0079     95.843      0.670   0.661968    -0.1739      6.799   -67.9366 1.4644e+02    -0.2515     -0.590     -0.855    24.3985 0.0000e+00
     -0.602      0.000     8.0077     95.841      0.685   0.677309    -0.1707      6.856   -25.4009 1.5231e+02    -0.2483     -0.590     -0.856    24.3983 0.0000e+00
     -0.601      0.000     8.0083     95.849      0.705   0.696284    -0.1661      6.893    -7.4378 1.6536e+02    -0.2187     -0.590     -0.855    24.3986 0.0000e+00
     -0.601      0.000     8.0093     95.859      0.902   0.891391    -0.1646      6.890     5.1375 1.7965e+02    -0.2294     -0.590     -0.855    24.3979 0.0000e+00
     -0.602      0.005     8.0108     95.854      3.076   3.036328    -0.1615      6.979   195.3057 1.9111e+02    -0.2555     -0.590     -0.856    24.3991 0.0000e+00
     -0.602      0.017     8.0217     95.839      7.526   7.412777    -0.1563      7.239   537.0130 2.0031e+02    -0.2297     -0.590     -0.856    24.3971 0.0000e+00
     -0.601      0.037     8.0506     95.825     13.611  13.341065    -0.1571      7.515   679.3751 2.1001e+02    -0.2230     -0.588     -0.854    24.4001 0.0000e+00
     -0.599      0.060     8.0870     95.815     23.061  22.498462    -0.1619      7.693   603.2055 2.2139e+02    -0.2351     -0.591     -0.857    24.3951 0.0000e+00
     -0.585      0.081     8.1165     95.812     31.985  31.112693    -0.1682      7.799   469.7340 2.3229e+02    -0.2233     -0.586     -0.848    24.4031 0.0000e+00
     -0.549      0.098     8.1367     95.807     35.437  34.390943    -0.1691      7.856   333.6291 2.4029e+02    -0.0804     -0.541     -0.784    24.3648 0.0000e+00
     -0.507      0.111     8.1512     95.805     35.893  34.766737    -0.1453      7.871   267.7777 2.4771e+02     1.5234     -0.490     -0.711    24.1197 0.0000e+00
     -0.474      0.119     8.1622     95.806     36.011  34.830530     0.0733      7.859   255.9304 2.5572e+02    18.7722     -0.464     -0.673    23.8210 0.0000e+00
     -0.448      0.121     8.1730     95.809     36.011  34.781075     0.4704      7.850   251.9030 2.6219e+02    50.3281     -0.440     -0.638    23.6361 0.0000e+00
     -0.423      0.117     8.1862     95.807     36.034  34.740384     0.6954      7.847   249.1966 2.6922e+02    67.4144     -0.415     -0.601    23.5100 0.0000e+00
     -0.395      0.112     8.2009     95.800     36.152  34.783082     0.7994      7.839   246.8688 2.7864e+02    67.4917     -0.389     -0.564    23.4166 0.0000e+00
     -0.363      0.111     8.2163     95.830     36.287  34.852592     1.8105      7.824   244.1485 2.8670e+02    51.1097     -0.357     -0.517    23.3531 0.0000e+00
     -0.332      0.109     8.2322     95.920     36.357  34.882025     3.6761      7.800   241.5158 2.9079e+02    20.7714     -0.323     -0.470    23.2962 0.0000e+00
     -0.304      0.105     8.2470     96.039     36.382  34.884818     4.6816      7.773   239.1275 2.9229e+02     4.1760     -0.296     -0.430    23.2056 0.0000e+00
     -0.279      0.098     8.2614     96.173     36.398  34.886333     4.7688      7.753   236.3513 2.9384e+02     2.6502     -0.274     -0.397    23.0927 0.0000e+00
     -0.254      0.089     8.2783     96.344     36.423  34.900319     4.8039      7.741   233.8467 2.9598e+02     2.5052     -0.250     -0.361    23.0059 0.0000e+00
     -0.231      0.081     8.2964     96.535     36.459  34.926876     4.9493      7.732   232.1622 2.9768e+02     2.4543     -0.224     -0.326    22.9587 0.0000e+00
     -0.213      0.074     8.3124     96.707     36.493  34.953337     5.1943      7.726   230.8681 2.9919e+02     2.4316     -0.208     -0.302    22.9333 0.0000e+00
     -0.198      0.069     8.3237     96.832     36.509  34.966166     5.3221      7.719   229.9012 2.9956e+02     2.4441     -0.195     -0.283    22.9168 0.0000e+00
     -0.182      0.063     8.3288     96.897     36.495  34.954949     5.3366      7.710   228.9030 2.9942e+02     2.4836     -0.179     -0.260    22.9038 0.0000e+00
     -0.164      0.055     8.3300     96.921     36.480  34.944763     5.3598      7.700   228.0060 3.0220e+02     2.5118     -0.161     -0.234    22.8927 0.0000e+00
     -0.148      0.047     8.3306     96.935     36.503  34.970045     5.3913      7.691   227.1426 3.0742e+02     2.4800     -0.144     -0.209    22.8834 0.0000e+00
     -0.136      0.037     8.3309     96.937     36.542  35.006552     5.4058      7.682   226.1218 3.1132e+02     2.4351     -0.131     -0.190    22.8795 0.0000e+00
     -0.128      0.027     8.3265     96.880     36.543  35.005046     5.4054      7.675   225.4718 3.1263e+02     2.4263     -0.124     -0.180    22.8853 0.0000e+00
     -0.124      0.017     8.3069     96.637     36.493  34.951837     5.4512      7.669   225.3065 3.1293e+02     2.4662     -0.121     -0.176    22.8921 0.0000e+00
     -0.123      0.009     8.2589     96.061     36.417  34.871361     5.5370      7.663   225.3274 3.1321e+02     2.4894     -0.121     -0.175    22.8949 0.0000e+00
     -0.124      0.004     8.1723     95.027     36.347  34.794245     5.5792      7.658   225.2080 3.1329e+02     2.4632     -0.121     -0.176    22.8953 0.0000e+00
     -0.124      0.001     8.0275     93.312     36.281  34.718130     5.5748      7.653   224.8957 3.1373e+02     2.4541     -0.122     -0.177    22.8915 0.0000e+00
     -0.124      0.000     7.8146     90.802     36.225  34.649765     5.4930      7.647   224.4758 3.1488e+02     2.4712     -0.121     -0.176    22.8837 0.0000e+00
     -0.124 4.3593e-07     7.5554     87.758     36.191  34.602811     5.3438      7.641   224.1750 3.1604e+02     2.4866     -0.120     -0.175    22.8735 0.0000e+00
     -0.124      0.000     7.2831     84.570     36.194  34.595027     5.2695      7.637   224.0124 3.1700e+02     2.4877     -0.121     -0.176    22.8598 0.0000e+00
     -0.124      0.000     7.0217     81.518     36.228  34.619150     5.2739      7.632   223.6281 3.1815e+02     2.4845     -0.121     -0.175    22.8414 0.0000e+00
     -0.124      0.001     6.7827     78.731     36.257  34.640389     5.3512      7.627   223.0571 3.1925e+02     2.5396     -0.121     -0.176    22.8192 0.0000e+00
     -0.124      0.001     6.5766     76.332     36.282  34.661265     5.4971      7.622   222.6145 3.1976e+02     2.6355     -0.121     -0.175    22.7983 0.0000e+00
     -0.124      0.002     6.4190     74.504     36.303  34.681003     5.5763      7.617   222.4068 3.2028e+02     2.6985     -0.121     -0.176    22.7835 0.0000e+00
     -0.123      0.002     6.3129     73.274     36.309  34.688473     5.5828      7.612   222.4383 3.2143e+02     2.7210     -0.120     -0.175    22.7734 0.0000e+00
     -0.121      0.002     6.2492     72.532     36.310  34.688069     5.5853      7.607   222.3930 3.2277e+02     2.6938     -0.119     -0.173    22.7642 0.0000e+00
     -0.121      0.002     6.2201     72.190     36.300  34.676120     5.6157      7.601   222.1176 3.2384e+02     2.6746     -0.118     -0.172    22.7593 0.0000e+00
     -0.120      0.002     6.2181     72.162     36.297  34.671034     5.6745      7.596   221.9479 3.2465e+02     2.6726     -0.118     -0.171    22.7617 0.0000e+00
     -0.120      0.002     6.2295     72.292     36.318  34.690093     5.7085      7.592   221.8031 3.2530e+02     2.6695     -0.117     -0.170    22.7640 0.0000e+00
     -0.120      0.002     6.2400     72.417     36.344  34.715999     5.7145      7.589   221.4859 3.2576e+02     2.6976     -0.118     -0.171    22.7622 0.0000e+00
     -0.120      0.003     6.2401     72.423     36.355  34.730182     5.6634      7.586   221.2101 3.2651e+02     2.6459     -0.118     -0.171    22.7575 0.0000e+00
     -0.119      0.003     6.2227     72.230     36.355  34.734552     5.5679      7.582   221.0494 3.2805e+02     2.5339     -0.117     -0.170    22.7539 0.0000e+00
     -0.118      0.003     6.1861     71.816     36.385  34.768841     5.5252      7.579   220.9197 3.2922e+02     2.5029     -0.115     -0.166    22.7528 0.0000e+00
     -0.116      0.003     6.1359     71.245     36.440  34.827171     5.5245      7.574   220.7600 3.2908e+02     2.5148     -0.113     -0.164    22.7544 0.0000e+00
     -0.116      0.002     6.0833     70.641     36.478  34.868160     5.5413      7.570   220.4948 3.2853e+02     2.4938     -0.114     -0.165    22.7589 0.0000e+00
     -0.116      0.002     6.0403     70.142     36.494  34.883322     5.5713      7.566   220.2086 3.2792e+02     2.4636     -0.114     -0.165    22.7648 0.0000e+00
     -0.115      0.001     6.0159     69.856     36.496  34.883451     5.5839      7.561   220.0531 3.2714e+02     2.4852     -0.113     -0.164    22.7730 0.0000e+00
     -0.115      0.001     6.0141     69.833     36.483  34.869719     5.5924      7.556   219.9909 3.2697e+02     2.5109     -0.113     -0.164    22.7831 0.0000e+00
     -0.115      0.001     6.0350     70.073     36.458  34.844324     5.6474      7.551   219.8870 3.2816e+02     2.5301     -0.113     -0.164    22.7900 0.0000e+00
     -0.115      0.001     6.0738     70.522     36.444  34.830476     5.7339      7.547   219.7436 3.2994e+02     2.5946     -0.113     -0.164    22.7893 0.0000e+00
     -0.115      0.001     6.1232     71.094     36.444  34.829331     5.7744      7.542   219.5481 3.3102e+02     2.6502     -0.112     -0.163    22.7850 0.0000e+00
     -0.114      0.002     6.1763     71.709     36.446  34.830477     5.7786      7.537   219.2434 3.3152e+02     2.6541     -0.112     -0.163    22.7830 0.0000e+00
     -0.113      0.002     6.2250     72.273     36.461  34.844327     5.7842      7.533   219.0708 3.3188e+02     2.6105     -0.111     -0.161    22.7822 0.0000e+00
     -0.113      0.003     6.2653     72.739     36.489  34.869744     5.7879      7.530   219.0967 3.3197e+02     2.5501     -0.111     -0.161    22.7803 0.0000e+00
     -0.113      0.003     6.2970     73.107     36.504  34.883717     5.7861      7.526   219.0399 3.3195e+02     2.5034     -0.110     -0.160    22.7793 0.0000e+00
     -0.112      0.003     6.3181     73.352     36.506  34.886237     5.7808      7.522   218.8143 3.3215e+02     2.4739     -0.109     -0.159    22.7790 0.0000e+00
     -0.111      0.002     6.3255     73.438     36.521  34.900211     5.7793      7.518   218.6054 3.3250e+02     2.4671     -0.109     -0.158    22.7776 0.0000e+00
     -0.110      0.002     6.3209     73.382     36.549  34.925639     5.7766      7.513   218.4934 3.3279e+02     2.4823     -0.107     -0.156    22.7765 0.0000e+00
     -0.109      0.002     6.3075     73.224     36.564  34.939604     5.7754      7.508   218.4062 3.3303e+02     2.5051     -0.107     -0.155    22.7760 0.0000e+00
     -0.109      0.001     6.2866     72.979     36.568  34.942009     5.7749      7.504   218.4119 3.3319e+02     2.4990     -0.107     -0.155    22.7758 0.0000e+00
     -0.109      0.001     6.2596     72.666     36.581  34.954723     5.7707      7.500   218.3895 3.3319e+02     2.4693     -0.107     -0.155    22.7755 0.0000e+00
     -0.108      0.000     6.2284     72.306     36.592  34.966293     5.7886      7.495   218.2224 3.3302e+02     2.5118     -0.106     -0.154    22.7745 0.0000e+00
     -0.108 2.2172e-08     6.1954     71.927     36.578  34.954861     5.8255      7.491   218.0257 3.3259e+02     2.6473     -0.106     -0.154    22.7725 0.0000e+00
     -0.108 2.4389e-07     6.1637     71.565     36.564  34.943543     5.8399      7.488   217.8182 3.3187e+02     2.7335     -0.107     -0.155    22.7708 0.0000e+00
     -0.108 6.1684e-07     6.1350     71.238     36.574  34.956485     5.8343      7.486   217.6926 3.3066e+02     2.7003     -0.106     -0.154    22.7707 0.0000e+00
     -0.109      0.000     6.1101     70.954     36.599  34.984308     5.8314      7.483   217.7110 3.2901e+02     2.6122     -0.107     -0.155    22.7719 0.0000e+00
     -0.109      0.000     6.0884     70.707     36.640  35.025873     5.8321      7.478   217.6111 3.2774e+02     2.5228     -0.107     -0.155    22.7750 0.0000e+00
     -0.109      0.001     6.0670     70.464     36.691  35.077938     5.8339      7.474   217.3448 3.2707e+02     2.5047     -0.107     -0.155    22.7794 0.0000e+00
     -0.108      0.001     6.0467     70.231     36.719  35.105657     5.8353      7.469   217.1583 3.2656e+02     2.5453     -0.106     -0.154    22.7843 0.0000e+00
     -0.108      0.001     6.0278     70.015     36.719  35.106938     5.8671      7.465   216.9049 3.2579e+02     2.5865     -0.105     -0.153    22.7889 0.0000e+00
     -0.108      0.002     6.0082     69.791     36.702  35.093424     5.9334      7.463   216.3461 3.2476e+02     2.6676     -0.106     -0.153    22.7928 0.0000e+00
     -0.108      0.004     5.9868     69.551     36.671  35.069308     5.9751      7.459   215.8220 3.2397e+02     2.7323     -0.105     -0.153    22.7968 0.0000e+00
     -0.108      0.009     5.9634     69.296     36.661  35.069442     5.9756      7.449   215.5582 3.2344e+02     2.7277     -0.105     -0.152    22.7994 0.0000e+00
     -0.107      0.015     5.9405     69.051     36.675  35.095052     5.9215      7.439   215.3073 3.2319e+02     2.7032     -0.105     -0.153    22.7994 0.0000e+00
     -0.104      0.022     5.9226     68.858     36.699  35.124899     5.8268      7.432   215.1118 3.2413e+02     2.6807     -0.104     -0.151    22.8025 0.0000e+00
     -0.095      0.030     5.9064     68.676     36.749  35.176249     5.7775      7.429   215.0014 3.2613e+02     2.6697     -0.095     -0.136    22.8087 0.0000e+00
     -0.083      0.037     5.8874     68.457     36.847  35.271275     5.7845      7.426   214.9189 3.2758e+02     2.6614     -0.081     -0.117    22.8214 0.0000e+00
     -0.073      0.044     5.8703     68.261     36.963  35.384562     5.7914      7.421   214.9752 3.2845e+02     2.6718     -0.072     -0.105    22.8423 0.0000e+00
     -0.062      0.050     5.8602     68.146     37.046  35.466139     5.7973      7.414   215.1652 3.2916e+02     2.7035     -0.061     -0.088    22.8532 0.0000e+00
     -0.049      0.053     5.8578     68.120     37.076  35.495363     5.8193      7.407   215.2376 3.2804e+02     2.7093     -0.048     -0.069    22.8545 0.0000e+00
     -0.035      0.053     5.8595     68.139     37.065  35.483819     5.8359      7.403   215.0763 3.0860e+02     2.6806     -0.036     -0.052    22.8564 0.0000e+00
     -0.018      0.053     5.8591     68.130     37.036  35.453609     5.8425      7.398   214.5918 2.6621e+02     2.6621     -0.017     -0.026    22.8585 0.0000e+00
     -0.002      0.054     5.8579     68.110     36.967  35.384177     5.8257      7.387   213.7669 2.3034e+02     2.6687     -0.001     -0.002    22.8620 0.0000e+00
      0.010      0.056     5.8645     68.183     36.860  35.279527     5.7891      7.374   213.2771 2.1485e+02     2.6689      0.010      0.015    22.8644 0.0000e+00
      0.020      0.056     5.8839     68.404     36.784  35.204637     5.7671      7.366   213.3152 2.0949e+02     2.6640      0.019      0.027    22.8622 0.0000e+00
      0.032      0.056     5.9155     68.764     36.760  35.177408     5.7531      7.363   213.3674 2.0425e+02     2.6696      0.028      0.041    22.8590 0.0000e+00
      0.050      0.056     5.9521     69.183     36.792  35.204377     5.6929      7.362   213.3061 1.9744e+02     2.6770      0.050      0.072    22.8540 0.0000e+00
      0.068      0.058     5.9827     69.537     36.869  35.276633     5.5900      7.360   213.2623 1.9199e+02     2.6620      0.069      0.100    22.8501 0.0000e+00
      0.081      0.062     6.0021     69.766     36.879  35.288803     5.5391      7.355   213.1820 1.8692e+02     2.6708      0.079      0.115    22.8493 0.0000e+00
      0.093      0.065     6.0098     69.861     36.809  35.224470     5.5184      7.347   213.1094 1.8228e+02     2.7232      0.092      0.132    22.8417 0.0000e+00
      0.108      0.066     6.0052     69.811     36.779  35.197522     5.3676      7.342   213.1585 1.7635e+02     2.8074      0.102      0.149    22.8364 0.0000e+00
      0.128      0.068     5.9844     69.572     36.730  35.153547     5.1127      7.340   213.2596 1.6955e+02     2.8951      0.123      0.179    22.8347 0.0000e+00
      0.150      0.072     5.9498     69.169     36.515  34.946857     4.9724      7.339   213.4712 1.6591e+02     2.8982      0.151      0.217    22.8373 0.0000e+00
      0.168      0.075     5.9241     68.841     36.240  34.667562     4.9581      7.337   213.6518 1.6318e+02     2.8756      0.165      0.239    22.8441 0.0000e+00
      0.185      0.075     5.9497     69.076     36.109  34.507936     4.9495      7.333   213.8084 1.5843e+02     2.8957      0.180      0.261    22.8449 0.0000e+00
      0.205      0.075     6.0608     70.298     36.117  34.477716     4.9238      7.328   214.2467 1.5328e+02     2.9281      0.202      0.293    22.8465 0.0000e+00
      0.224      0.075     6.2482     72.418     36.162  34.492679     4.9048      7.323   214.8210 1.4899e+02     2.9320      0.221      0.320    22.8556 0.0000e+00
      0.244      0.074     6.4686     74.936     36.187  34.498259     4.9031      7.319   215.3324 1.4534e+02     2.9115      0.238      0.345    22.8382 0.0000e+00
      0.264      0.073     6.6813     77.377     36.181  34.481649     4.9036      7.317   215.8695 1.4209e+02     2.9246      0.259      0.375    22.7767 0.0000e+00
      0.284      0.070     6.8665     79.511     36.187  34.482387     4.9014      7.317   216.5827 1.3918e+02     2.9377      0.279      0.405    22.7196 0.0000e+00
      0.302      0.066     7.0151     81.226     36.216  34.507169     4.8948      7.317   217.3303 1.3674e+02     2.9176      0.298      0.432    22.6833 0.0000e+00
      0.317      0.061     7.1149     82.381     36.238  34.527210     4.8878      7.316   217.5093 1.3463e+02     2.9261      0.311      0.451    22.6582 0.0000e+00
      0.331      0.055     7.1564     82.861     36.245  34.534140     4.8907      7.315   217.3712 1.3239e+02     2.9179      0.324      0.470    22.6444 0.0000e+00
      0.346      0.050     7.1453     82.732     36.238  34.527438     4.8928      7.314   217.6395 1.3044e+02     2.8194      0.340      0.493    22.6370 0.0000e+00
      0.359      0.046     7.1039     82.252     36.220  34.509700     4.8763      7.313   218.0864 1.2926e+02     2.7111      0.353      0.513    22.6350 0.0000e+00
      0.369      0.044     7.0569     81.706     36.221  34.510230     4.8469      7.311   218.4724 1.2842e+02     2.6764      0.362      0.525    22.6348 0.0000e+00
      0.378      0.041     7.0159     81.232     36.246  34.533838     4.8231      7.309   218.7787 1.2725e+02     2.7053      0.369      0.536    22.6343 0.0000e+00
      0.388      0.038     6.9807     80.824     36.253  34.541069     4.8091      7.309   218.7783 1.2572e+02     2.7553      0.380      0.552    22.6345 0.0000e+00
      0.399      0.036     6.9502     80.469     36.247  34.534142     4.7957      7.307   218.5538 1.2416e+02     2.8235      0.391      0.568    22.6343 0.0000e+00
      0.409      0.036     6.9256     80.183     36.226  34.513597     4.7898      7.305   218.6451 1.2293e+02     2.8889      0.401      0.582    22.6321 0.0000e+00
      0.418      0.036     6.9065     79.959     36.195  34.483212     4.7930      7.303   219.1082 1.2216e+02     2.9039      0.410      0.594    22.6323 0.0000e+00
      0.425      0.035     6.8896     79.763     36.196  34.484347     4.7983      7.302   219.5068 1.2122e+02     2.9142      0.416      0.604    22.6343 0.0000e+00
      0.433      0.035     6.8726     79.567     36.241  34.527330     4.8084      7.302   219.5068 1.2003e+02     2.9212      0.423      0.615    22.6327 0.0000e+00
      0.443      0.034     6.8572     79.389     36.273  34.558290     4.8141      7.301   219.2807 1.1908e+02     2.8977      0.434      0.630    22.6302 0.0000e+00
      0.452      0.034     6.8462     79.261     36.256  34.541080     4.8215      7.300   219.3533 1.1827e+02     2.9044      0.444      0.644    22.6289 0.0000e+00
      0.461      0.033     6.8408     79.196     36.224  34.509805     4.8605      7.298   219.5248 1.1749e+02     2.9112      0.452      0.655    22.6286 0.0000e+00
      0.470      0.032     6.8409     79.197     36.212  34.497745     4.9181      7.297   219.5468 1.1681e+02     2.8883      0.461      0.669    22.6299 0.0000e+00
      0.478      0.032     6.8434     79.227     36.238  34.522300     4.9481      7.295   219.6202 1.1624e+02     2.9027      0.469      0.680    22.6309 0.0000e+00
      0.484      0.033     6.8443     79.239     36.269  34.552619     4.9566      7.293   219.6381 1.1553e+02     2.9323      0.474      0.687    22.6298 0.0000e+00
      0.491      0.034     6.8439     79.235     36.262  34.546739     4.9567      7.292   219.5907 1.1449e+02     2.9107      0.481      0.698    22.6272 0.0000e+00
      0.500      0.035     6.8424     79.217     36.228  34.514725     4.9493      7.291   219.7357 1.1316e+02     2.8852      0.490      0.710    22.6269 0.0000e+00
      0.511      0.037     6.8399     79.181     36.198  34.483127     4.9495      7.289   220.0146 1.1164e+02     2.8992      0.502      0.727    22.6282 0.0000e+00
      0.521      0.039     6.8383     79.154     36.202  34.482284     4.9501      7.288   220.1227 1.1031e+02     2.9264      0.513      0.742    22.6288 0.0000e+00
      0.531      0.041     6.8359     79.119     36.230  34.504529     4.9481      7.286   220.0962 1.0887e+02     2.9401      0.520      0.754    22.6308 0.0000e+00
      0.541      0.042     6.8315     79.063     36.225  34.498005     4.9524      7.284   220.3829 1.0702e+02     2.9119      0.530      0.768    22.6315 0.0000e+00
      0.552      0.047     6.8290     79.031     36.194  34.466918     4.9562      7.278   220.9220 1.0510e+02     2.8605      0.541      0.785    22.6262 0.0000e+00
      0.563      0.055     6.8304     79.044     36.173  34.446245     4.9570      7.268   221.1948 1.0346e+02     2.8371      0.554      0.803    22.6184 0.0000e+00
      0.574      0.061     6.8326     79.066     36.168  34.438596     4.9616      7.257   221.1002 1.0166e+02     2.8732      0.561      0.814    22.6128 0.0000e+00
      0.589      0.065     6.8319     79.054     36.169  34.437952     4.9287      7.250   220.8962 9.8470e+01     2.9002      0.572      0.830    22.6100 0.0000e+00
      0.614      0.069     6.8285     79.011     36.171  34.438462     4.8451      7.246   220.8789 9.4785e+01     2.8588      0.602      0.873    22.6088 0.0000e+00
      0.638      0.073     6.8218     78.928     36.180  34.444756     4.7872      7.244   221.2352 9.2425e+01     2.8303      0.630      0.914    22.6074 0.0000e+00
      0.654      0.074     6.8106     78.792     36.190  34.450529     4.7806      7.241   221.7637 9.0807e+01     2.8604      0.642      0.930    22.6039 0.0000e+00
      0.668      0.073     6.7968     78.627     36.187  34.444746     4.7922      7.240   222.1060 8.8733e+01     2.8871      0.653      0.947    22.6011 0.0000e+00
      0.686      0.069     6.7811     78.441     36.182  34.438347     4.7988      7.240   222.1041 8.6243e+01     2.8781      0.672      0.974    22.5998 0.0000e+00
      0.706      0.066     6.7650     78.251     36.182  34.436673     4.7866      7.238   221.8258 8.3990e+01     2.8746      0.694      1.006    22.5960 0.0000e+00
      0.725      0.064     6.7525     78.103     36.171  34.424500     4.7739      7.234   221.6672 8.2258e+01     2.9048      0.713      1.034    22.5910 0.0000e+00
      0.740      0.059     6.7432     77.995     36.165  34.418205     4.7647      7.230   221.8217 8.0862e+01     2.9384      0.727      1.054    22.5877 0.0000e+00
      0.754      0.052     6.7372     77.926     36.170  34.424075     4.7486      7.227   222.0589 7.9545e+01     2.9451      0.739      1.073    22.5850 0.0000e+00
      0.767      0.043     6.7375     77.930     36.179  34.431949     4.7352      7.226   222.1264 7.8323e+01     2.9254      0.751      1.090    22.5822 0.0000e+00
      0.779      0.034     6.7430     77.993     36.199  34.449896     4.7222      7.224   222.1211 7.7536e+01     2.8827      0.766      1.111    22.5801 0.0000e+00
      0.787      0.027     6.7517     78.092     36.200  34.450521     4.7107      7.224   222.0809 7.7185e+01     2.8562      0.774      1.122    22.5796 0.0000e+00
      0.790      0.021     6.7625     78.217     36.188  34.439502     4.6705      7.224   221.8986 7.6988e+01     2.8493      0.774      1.123    22.5799 0.0000e+00
      0.793      0.016     6.7706     78.311     36.193  34.443706     4.5937      7.224   221.8958 7.6825e+01     2.8603      0.778      1.128    22.5801 0.0000e+00
      0.796      0.014     6.7722     78.329     36.186  34.437827     4.5457      7.224   222.0473 7.6663e+01     2.8970      0.781      1.132    22.5798 0.0000e+00
      0.799      0.014     6.7678     78.279     36.180  34.431934     4.5393      7.223   222.0083 7.6505e+01     2.9271      0.783      1.137    22.5787 0.0000e+00
      0.802      0.017     6.7593     78.179     36.184  34.435976     4.5898      7.222   221.9418 7.6317e+01     2.9493      0.786      1.140    22.5783 0.0000e+00
      0.805      0.022     6.7493     78.063     36.171  34.423177     4.6798      7.221   222.0170 7.5824e+01     2.9523      0.788      1.142    22.5782 0.0000e+00
      0.811      0.027     6.7411     77.968     36.151  34.404218     4.7258      7.220   221.9717 7.5069e+01     2.9331      0.794      1.152    22.5788 0.0000e+00
      0.819      0.032     6.7351     77.896     36.145  34.397302     4.7332      7.218   221.8241 7.4428e+01     2.8998      0.804      1.167    22.5796 0.0000e+00
      0.828      0.036     6.7323     77.856     36.155  34.403077     4.7325      7.216   221.8665 7.3561e+01     2.8554      0.810      1.176    22.5788 0.0000e+00
      0.839      0.038     6.7345     77.874     36.167  34.410518     4.7261      7.214   221.9685 7.2357e+01     2.8536      0.821      1.191    22.5779 0.0000e+00
      0.852      0.037     6.7401     77.934     36.184  34.423741     4.7209      7.212   222.0254 7.1375e+01     2.9085      0.838      1.214    22.5790 0.0000e+00
      0.863      0.033     6.7441     77.981     36.196  34.435914     4.7234      7.211   222.1241 7.0541e+01     2.9396      0.847      1.228    22.5774 0.0000e+00
      0.872      0.027     6.7434     77.976     36.189  34.430670     4.7284      7.209   222.0426 6.9866e+01     2.9246      0.855      1.241    22.5713 0.0000e+00
      0.877      0.020     6.7395     77.931     36.181  34.423856     4.7267      7.208   221.6427 6.9615e+01     2.9100      0.862      1.250    22.5654 0.0000e+00
      0.880      0.015     6.7341     77.867     36.176  34.417041     4.7311      7.207   221.4194 6.9515e+01     2.9163      0.863      1.251    22.5604 0.0000e+00
      0.881      0.013     6.7308     77.827     36.171  34.411787     4.7364      7.206   221.5795 6.9370e+01     2.9390      0.864      1.252    22.5619 0.0000e+00
      0.882      0.014     6.7305     77.821     36.185  34.423856     4.7348      7.204   221.7715 6.9242e+01     2.9410      0.865      1.255    22.5665 0.0000e+00
      0.884      0.017     6.7310     77.822     36.200  34.435925     4.7389      7.201   221.9343 6.8997e+01     2.9099      0.867      1.257    22.5657 0.0000e+00
      0.888      0.022     6.7322     77.833     36.196  34.430670     4.7400      7.199   221.9129 6.8386e+01     2.8978      0.869      1.260    22.5631 0.0000e+00
      0.896      0.026     6.7324     77.834     36.190  34.423836     4.7297      7.198   221.6849 6.7537e+01     2.9167      0.877      1.271    22.5635 0.0000e+00
      0.906      0.028     6.7286     77.789     36.182  34.416813     4.7162      7.197   221.5862 6.6759e+01     2.8950      0.889      1.289    22.5621 0.0000e+00
      0.915      0.028     6.7216     77.709     36.173  34.409269     4.6959      7.194   221.5800 6.6086e+01     2.7876      0.899      1.303    22.5572 0.0000e+00
      0.923      0.028     6.7125     77.606     36.158  34.396141     4.6682      7.192   221.6103 6.5635e+01     2.6857      0.906      1.313    22.5556 0.0000e+00
      0.928      0.025     6.7026     77.497     36.145  34.385121     4.6576      7.191   221.6942 6.5299e+01     2.6706      0.910      1.319    22.5559 0.0000e+00
      0.934      0.021     6.6956     77.420     36.162  34.403069     4.6686      7.190   221.6486 6.4796e+01     2.6970      0.915      1.327    22.5547 0.0000e+00
      0.939      0.019     6.6923     77.385     36.180  34.422596     4.6910      7.188   221.4885 6.4370e+01     2.7303      0.922      1.337    22.5552 0.0000e+00
      0.943      0.017     6.6935     77.402     36.187  34.430670     4.7166      7.187   221.3927 6.4177e+01     2.7374      0.926      1.342    22.5576 0.0000e+00
      0.947      0.015     6.6986     77.462     36.194  34.437174     4.7211      7.187   221.3517 6.3902e+01     2.7216      0.927      1.345    22.5604 0.0000e+00
      0.951      0.015     6.7047     77.530     36.195  34.437713     4.7173      7.187   221.4225 6.3477e+01     2.7236      0.932      1.351    22.5630 0.0000e+00
      0.955      0.015     6.7099     77.588     36.195  34.437184     4.6806      7.186   221.6460 6.3214e+01     2.7611      0.937      1.359    22.5662 0.0000e+00
      0.957      0.018     6.7142     77.638     36.189  34.430785     4.5985      7.184   221.9030 6.3049e+01     2.8387      0.938      1.361    22.5691 0.0000e+00
      0.959      0.023     6.7174     77.674     36.182  34.423857     4.5510      7.182   222.0356 6.2728e+01     2.8986      0.940      1.364    22.5682 0.0000e+00
      0.963      0.028     6.7194     77.693     36.177  34.416932     4.5477      7.180   222.0448 6.2227e+01     2.9358      0.943      1.370    22.5663 0.0000e+00
      0.971      0.032     6.7214     77.713     36.172  34.410570     4.6145      7.178   222.0994 6.1270e+01     2.9534      0.950      1.378    22.5654 0.0000e+00
      0.984      0.035     6.7234     77.733     36.173  34.410457     4.7423      7.175   222.1799 6.0063e+01     2.9281      0.966      1.399    22.5651 0.0000e+00
      0.998      0.036     6.7238     77.737     36.179  34.415559     4.8154      7.173   222.4155 5.9343e+01     2.9045      0.982      1.424    22.5649 0.0000e+00
      1.008      0.034     6.7208     77.702     36.172  34.408740     4.8280      7.171   222.7112 5.8908e+01     2.8821      0.989      1.434    22.5628 0.0000e+00
      1.014      0.031     6.7135     77.619     36.154  34.391530     4.8211      7.170   222.6584 5.8417e+01     2.8703      0.994      1.442    22.5591 0.0000e+00
      1.021      0.026     6.7052     77.525     36.160  34.398035     4.8056      7.168   222.5514 5.8075e+01     2.8841      1.002      1.453    22.5571 0.0000e+00
      1.026      0.022     6.6952     77.411     36.186  34.423868     4.7965      7.166   222.6218 5.7780e+01     2.8660      1.007      1.460    22.5574 0.0000e+00
      1.031      0.020     6.6831     77.272     36.212  34.449796     4.7937      7.164   222.5626 5.7270e+01     2.8650      1.010      1.465    22.5574 0.0000e+00
      1.037      0.019     6.6751     77.178     36.221  34.457463     4.7898      7.162   222.6962 5.6739e+01     2.9025      1.017      1.475    22.5576 0.0000e+00
      1.042      0.019     6.6677     77.092     36.217  34.453053     4.7867      7.161   223.1191 5.6464e+01     2.8921      1.022      1.483    22.5591 0.0000e+00
      1.046      0.020     6.6588     76.988     36.225  34.459986     4.7928      7.161   223.2875 5.6229e+01     2.8616      1.026      1.488    22.5607 0.0000e+00
      1.050      0.021     6.6524     76.914     36.243  34.477764     4.7900      7.161   223.2695 5.5868e+01     2.8692      1.029      1.492    22.5613 0.0000e+00
      1.055      0.022     6.6455     76.835     36.241  34.477454     4.7711      7.160   223.2457 5.5414e+01     2.8918      1.033      1.498    22.5607 0.0000e+00
      1.062      0.024     6.6355     76.720     36.219  34.456241     4.7574      7.159   223.1726 5.4947e+01     2.9525      1.041      1.510    22.5586 0.0000e+00
      1.069      0.026     6.6249     76.595     36.241  34.475354     4.7442      7.158   223.2458 5.4584e+01     3.0843      1.047      1.520    22.5581 0.0000e+00
      1.075      0.028     6.6149     76.475     36.288  34.517989     4.7304      7.156   223.4421 5.4147e+01     3.1729      1.053      1.528    22.5597 0.0000e+00
      1.082      0.029     6.6028     76.330     36.300  34.527107     4.7286      7.153   223.5676 5.3657e+01     3.1694      1.061      1.539    22.5608 0.0000e+00
      1.090      0.029     6.5867     76.140     36.298  34.522073     4.7681      7.153   223.6438 5.3166e+01     3.1333      1.068      1.550    22.5606 0.0000e+00
      1.099      0.028     6.5682     75.921     36.299  34.520635     4.8495      7.154   223.5896 5.2555e+01     3.1032      1.076      1.562    22.5589 0.0000e+00
      1.108      0.027     6.5502     75.708     36.290  34.509725     4.9037      7.154   223.5146 5.2069e+01     3.1107      1.087      1.577    22.5562 0.0000e+00
      1.114      0.027     6.5348     75.524     36.300  34.517185     4.9090      7.153   223.5967 5.1781e+01     3.1316      1.093      1.586    22.5518 0.0000e+00
      1.119      0.027     6.5204     75.351     36.335  34.547316     4.8777      7.153   223.6363 5.1540e+01     3.1424      1.097      1.591    22.5485 0.0000e+00
      1.124      0.027     6.5066     75.186     36.349  34.556441     4.8286      7.152   223.7355 5.1244e+01     3.1191      1.101      1.597    22.5449 0.0000e+00
      1.131      0.028     6.4958     75.055     36.360  34.563987     4.8013      7.151   223.9354 5.0719e+01     3.0939      1.107      1.605    22.5423 0.0000e+00
      1.140      0.029     6.4858     74.931     36.376  34.575035     4.7967      7.150   223.9885 5.0106e+01     3.1130      1.118      1.621    22.5394 0.0000e+00
      1.148      0.029     6.4727     74.769     36.369  34.562978     4.8192      7.149   224.0331 4.9700e+01     3.1064      1.127      1.635    22.5337 0.0000e+00
      1.155      0.029     6.4557     74.561     36.356  34.545231     4.8709      7.147   224.0442 4.9300e+01     3.0743      1.132      1.641    22.5286 0.0000e+00
      1.163      0.029     6.4338     74.301     36.366  34.551016     4.8975      7.146   224.0367 4.8829e+01     3.0914      1.141      1.655    22.5250 0.0000e+00
      1.170      0.030     6.4061     73.975     36.389  34.569391     4.8925      7.143   224.1148 4.8517e+01     3.1295      1.148      1.666    22.5201 0.0000e+00
      1.175      0.033     6.3764     73.621     36.402  34.576841     4.8930      7.139   224.2138 4.8279e+01     3.1384      1.152      1.671    22.5118 0.0000e+00
      1.181      0.035     6.3499     73.301     36.411  34.577571     4.8677      7.135   224.4595 4.7814e+01     3.1693      1.156      1.677    22.5039 0.0000e+00
      1.191      0.036     6.3261     73.014     36.418  34.578206     4.8162      7.132   224.6774 4.6939e+01     3.2587      1.166      1.691    22.4979 0.0000e+00
      1.206      0.036     6.3052     72.769     36.428  34.584503     4.7940      7.128   224.5240 4.6119e+01     3.3344      1.185      1.718    22.4964 0.0000e+00
      1.218      0.035     6.2884     72.572     36.435  34.590184     4.7924      7.126   224.2403 4.5793e+01     3.3516      1.197      1.737    22.4899 0.0000e+00
      1.225      0.034     6.2754     72.419     36.430  34.583374     4.7143      7.124   224.2588 4.5589e+01     3.3447      1.200      1.742    22.4758 0.0000e+00
      1.230      0.031     6.2675     72.325     36.413  34.565682     4.5659      7.122   224.4031 4.5229e+01     3.3426      1.206      1.748    22.4661 0.0000e+00
      1.237      0.029     6.2625     72.265     36.415  34.566828     4.4865      7.121   224.5230 4.4848e+01     3.3564      1.213      1.760    22.4645 0.0000e+00
      1.244      0.029     6.2590     72.226     36.446  34.597223     4.4715      7.119   224.5038 4.4439e+01     3.3593      1.220      1.769    22.4636 0.0000e+00
      1.253      0.033     6.2601     72.239     36.465  34.615600     4.4770      7.115   224.1712 4.4003e+01     3.3778      1.228      1.780    22.4600 0.0000e+00
      1.261      0.037     6.2666     72.313     36.448  34.598468     4.5062      7.111   224.0281 4.3667e+01     3.4583      1.238      1.795    22.4578 0.0000e+00
      1.269      0.041     6.2772     72.433     36.431  34.580633     4.5221      7.109   224.3224 4.3222e+01     3.5082      1.243      1.802    22.4568 0.0000e+00
      1.279      0.043     6.2884     72.558     36.444  34.590518     4.5218      7.106   224.6327 4.2412e+01     3.5239      1.252      1.816    22.4578 0.0000e+00
      1.294      0.044     6.2955     72.637     36.446  34.590936     4.4758      7.103   224.7687 4.1607e+01     3.5559      1.271      1.843    22.4590 0.0000e+00
      1.308      0.042     6.2968     72.651     36.440  34.585681     4.3964      7.101   224.7621 4.1064e+01     3.5593      1.285      1.863    22.4584 0.0000e+00
      1.320      0.038     6.2942     72.624     36.444  34.590509     4.3616      7.100   224.5526 4.0493e+01     3.5346      1.292      1.875    22.4562 0.0000e+00
      1.330      0.032     6.2902     72.582     36.437  34.585785     4.3497      7.099   224.3001 4.0036e+01     3.5019      1.306      1.894    22.4527 0.0000e+00
      1.338      0.026     6.2847     72.519     36.443  34.592080     4.3073      7.098   224.3766 3.9881e+01     3.4380      1.314      1.905    22.4499 0.0000e+00
      1.340      0.023     6.2772     72.429     36.457  34.603107     4.2445      7.097   224.7033 3.9768e+01     3.3722      1.314      1.905    22.4488 0.0000e+00
      1.342      0.023     6.2694     72.334     36.448  34.592079     4.2155      7.096   224.8957 3.9616e+01     3.3471      1.315      1.908    22.4516 0.0000e+00
      1.345      0.026     6.2649     72.277     36.444  34.585775     4.2226      7.093   224.8955 3.9446e+01     3.3174      1.318      1.912    22.4556 0.0000e+00
      1.351      0.029     6.2658     72.281     36.453  34.590405     4.2297      7.090   224.7875 3.8981e+01     3.2883      1.322      1.918    22.4558 0.0000e+00
      1.361      0.030     6.2676     72.298     36.448  34.584527     4.2921      7.088   224.7080 3.8155e+01     3.3010      1.333      1.934    22.4534 0.0000e+00
      1.376      0.030     6.2651     72.268     36.442  34.578223     4.4161      7.087   224.7084 3.7476e+01     3.3185      1.351      1.960    22.4501 0.0000e+00
      1.387      0.029     6.2577     72.184     36.441  34.577703     4.4800      7.085   224.7057 3.7224e+01     3.3164      1.363      1.977    22.4453 0.0000e+00
      1.392      0.026     6.2486     72.084     36.439  34.578233     4.4761      7.084   224.7612 3.7133e+01     3.3062      1.366      1.981    22.4403 0.0000e+00
      1.394      0.022     6.2420     72.012     36.443  34.584641     4.4604      7.084   224.8632 3.6997e+01     3.3171      1.366      1.981    22.4379 0.0000e+00
      1.396      0.020     6.2365     71.951     36.449  34.591664     4.4288      7.083   224.9931 3.6797e+01     3.3569      1.369      1.985    22.4369 0.0000e+00
      1.401      0.018     6.2292     71.867     36.457  34.599634     4.4067      7.082   225.1278 3.6456e+01     3.3598      1.373      1.992    22.4372 0.0000e+00
      1.408      0.017     6.2224     71.790     36.475  34.617487     4.3951      7.081   225.1155 3.6034e+01     3.3214      1.380      2.002    22.4417 0.0000e+00
      1.415      0.017     6.2201     71.766     36.473  34.616966     4.2972      7.080   225.0158 3.5727e+01     3.2900      1.389      2.015    22.4459 0.0000e+00
      1.420      0.018     6.2231     71.803     36.447  34.593340     4.1241      7.078   225.0403 3.5587e+01     3.2846      1.393      2.021    22.4458 0.0000e+00
      1.421      0.021     6.2285     71.863     36.440  34.585901     4.0385      7.078   225.2396 3.5544e+01     3.3175      1.394      2.021    22.4462 0.0000e+00
      1.423      0.025     6.2337     71.917     36.448  34.590541     4.0430      7.077   225.4466 3.5389e+01     3.3516      1.394      2.022    22.4488 0.0000e+00
      1.428      0.030     6.2375     71.954     36.447  34.585908     4.0961      7.074   225.5646 3.4931e+01     3.3301      1.397      2.026    22.4503 0.0000e+00
      1.439      0.035     6.2393     71.969     36.458  34.593405     4.1943      7.070   225.6338 3.4291e+01     3.3022      1.410      2.046    22.4520 0.0000e+00
      1.454      0.039     6.2384     71.955     36.486  34.617666     4.2564      7.067   225.5949 3.3693e+01     3.3202      1.426      2.069    22.4514 0.0000e+00
      1.466      0.042     6.2323     71.884     36.495  34.625164     4.2770      7.063   225.6962 3.3204e+01     3.3339      1.438      2.086    22.4458 0.0000e+00
      1.476      0.043     6.2223     71.765     36.492  34.620540     4.3146      7.061   226.0849 3.2768e+01     3.4068      1.447      2.099    22.4404 0.0000e+00
      1.485      0.042     6.2091     71.610     36.498  34.625285     4.3707      7.057   226.4231 3.2348e+01     3.5296      1.457      2.113    22.4363 0.0000e+00
      1.495      0.041     6.1916     71.406     36.493  34.619001     4.4035      7.053   226.6019 3.1947e+01     3.5675      1.467      2.126    22.4335 0.0000e+00
      1.505      0.038     6.1738     71.200     36.482  34.608077     4.4175      7.049   226.6123 3.1461e+01     3.5607      1.475      2.140    22.4322 0.0000e+00
      1.517      0.035     6.1591     71.030     36.495  34.620241     4.4296      7.047   226.4618 3.0899e+01     3.5389      1.486      2.156    22.4307 0.0000e+00
      1.528      0.030     6.1477     70.900     36.514  34.639039     4.4396      7.045   226.4171 3.0506e+01     3.4557      1.501      2.176    22.4287 0.0000e+00
      1.536      0.026     6.1392     70.804     36.519  34.644814     4.4561      7.041   226.5883 3.0364e+01     3.3482      1.509      2.188    22.4267 0.0000e+00
      1.540      0.024     6.1348     70.754     36.499  34.626548     4.4628      7.037   226.7258 3.0331e+01     3.3073      1.510      2.190    22.4254 0.0000e+00
      1.541      0.024     6.1333     70.734     36.481  34.608735     4.4565      7.035   226.7017 3.0251e+01     3.3282      1.510      2.190    22.4260 0.0000e+00
      1.545      0.025     6.1325     70.722     36.495  34.619999     4.4166      7.033   226.6414 2.9989e+01     3.3874      1.513      2.194    22.4277 0.0000e+00
      1.553      0.028     6.1315     70.705     36.515  34.635694     4.3391      7.030   226.7716 2.9613e+01     3.4730      1.522      2.208    22.4300 0.0000e+00
      1.563      0.035     6.1288     70.668     36.556  34.671468     4.2915      7.026   227.1571 2.9212e+01     3.5088      1.532      2.222    22.4301 0.0000e+00
      1.573      0.043     6.1243     70.610     36.626  34.734934     4.2827      7.021   227.4308 2.8792e+01     3.5464      1.542      2.236    22.4276 0.0000e+00
      1.583      0.049     6.1176     70.527     36.664  34.767859     4.3149      7.014   227.4141 2.8441e+01     3.5916      1.553      2.252    22.4255 0.0000e+00
      1.593      0.052     6.1067     70.397     36.649  34.751955     4.3864      7.008   227.2987 2.7934e+01     3.5664      1.559      2.262    22.4207 0.0000e+00
      1.609      0.052     6.0872     70.171     36.631  34.733200     4.4215      7.005   227.3261 2.7118e+01     3.5465      1.577      2.286    22.4166 0.0000e+00
      1.629      0.052     6.0572     69.825     36.630  34.731653     4.4171      7.003   227.4878 2.6465e+01     3.5651      1.603      2.323    22.4134 0.0000e+00
      1.644      0.051     6.0201     69.395     36.633  34.733242     4.4259      7.000   227.5325 2.6205e+01     3.6076      1.615      2.343    22.4082 0.0000e+00
      1.652      0.049     5.9794     68.924     36.654  34.752409     4.4542      6.997   227.4363 2.5990e+01     3.6951      1.619      2.350    22.4054 0.0000e+00
      1.662      0.044     5.9400     68.469     36.676  34.772839     4.4742      6.996   227.2720 2.5591e+01     3.7688      1.627      2.361    22.4040 0.0000e+00
      1.674      0.040     5.9065     68.081     36.695  34.789699     4.4752      6.996   227.2656 2.5151e+01     3.7658      1.642      2.382    22.4029 0.0000e+00
      1.686      0.040     5.8787     67.760     36.737  34.829227     4.5023      6.996   227.4453 2.4822e+01     3.6897      1.655      2.401    22.4016 0.0000e+00
      1.696      0.042     5.8557     67.493     36.781  34.869654     4.5632      6.995   227.5519 2.4563e+01     3.6112      1.663      2.413    22.4007 0.0000e+00
      1.703      0.045     5.8357     67.259     36.812  34.897374     4.5952      6.992   227.6944 2.4290e+01     3.5799      1.670      2.423    22.3999 0.0000e+00
      1.713      0.047     5.8166     67.038     36.826  34.910308     4.5953      6.989   227.8771 2.3903e+01     3.5554      1.678      2.434    22.3992 0.0000e+00
      1.726      0.048     5.7978     66.820     36.815  34.898999     4.5923      6.987   227.8691 2.3403e+01     3.5289      1.691      2.453    22.3984 0.0000e+00
      1.743      0.048     5.7766     66.576     36.803  34.887671     4.6057      6.987   227.7689 2.2926e+01     3.5638      1.709      2.480    22.3965 0.0000e+00
      1.759      0.048     5.7515     66.286     36.817  34.900376     4.6466      6.987   227.7840 2.2581e+01     3.6721      1.727      2.504    22.3944 0.0000e+00
      1.770      0.048     5.7236     65.964     36.844  34.925575     4.6733      6.985   227.9661 2.2333e+01     3.7704      1.737      2.519    22.3930 0.0000e+00
      1.778      0.046     5.6954     65.639     36.857  34.938279     4.6707      6.982   228.1633 2.2068e+01     3.8067      1.743      2.528    22.3924 0.0000e+00
      1.787      0.043     5.6682     65.325     36.846  34.926930     4.6334      6.980   228.1897 2.1732e+01     3.7451      1.751      2.540    22.3924 0.0000e+00
      1.799      0.039     5.6439     65.044     36.834  34.915391     4.5722      6.979   228.1997 2.1339e+01     3.6351      1.763      2.556    22.3921 0.0000e+00
      1.814      0.037     5.6252     64.829     36.844  34.925814     4.5466      6.977   228.1977 2.1018e+01     3.5757      1.779      2.580    22.3916 0.0000e+00
      1.825      0.036     5.6134     64.694     36.844  34.925919     4.5446      6.976   228.0793 2.0865e+01     3.5462      1.792      2.599    22.3910 0.0000e+00
      1.830      0.034     5.6096     64.650     36.835  34.916652     4.5014      6.975   228.1448 2.0750e+01     3.5226      1.794      2.603    22.3905 0.0000e+00
      1.834      0.033     5.6120     64.677     36.860  34.940800     4.4284      6.973   228.3871 2.0543e+01     3.5033      1.797      2.606    22.3907 0.0000e+00
      1.841      0.031     5.6179     64.745     36.884  34.963812     4.3980      6.972   228.5142 2.0298e+01     3.4965      1.805      2.618    22.3911 0.0000e+00
      1.851      0.030     5.6243     64.818     36.861  34.940810     4.4088      6.971   228.5636 2.0055e+01     3.5011      1.816      2.633    22.3912 0.0000e+00
      1.861      0.030     5.6283     64.864     36.836  34.916766     4.4114      6.969   228.5541 1.9829e+01     3.4370      1.826      2.649    22.3914 0.0000e+00
      1.870      0.029     5.6288     64.869     36.847  34.927180     4.4020      6.967   228.5711 1.9664e+01     3.3320      1.835      2.662    22.3915 0.0000e+00
      1.876      0.028     5.6240     64.814     36.861  34.939676     4.3969      6.967   228.6828 1.9508e+01     3.2995      1.840      2.668    22.3911 0.0000e+00
      1.882      0.025     5.6181     64.745     36.862  34.940811     4.4039      6.966   228.6999 1.9308e+01     3.3190      1.844      2.675    22.3905 0.0000e+00
      1.888      0.023     5.6152     64.712     36.862  34.940914     4.4686      6.964   228.6916 1.9143e+01     3.3842      1.853      2.686    22.3899 0.0000e+00
      1.893      0.021     5.6143     64.701     36.862  34.940924     4.5820      6.961   228.7548 1.9015e+01     3.4778      1.857      2.693    22.3894 0.0000e+00
      1.899      0.019     5.6156     64.716     36.862  34.940925     4.6362      6.960   228.8622 1.8882e+01     3.5044      1.862      2.700    22.3892 0.0000e+00
      1.904      0.018     5.6199     64.766     36.862  34.940925     4.6370      6.960   229.0440 1.8766e+01     3.5228      1.867      2.709    22.3894 0.0000e+00
      1.909      0.018     5.6248     64.823     36.861  34.940925     4.5911      6.959   229.0599 1.8671e+01     3.5777      1.873      2.715    22.3895 0.0000e+00
      1.912      0.019     5.6286     64.867     36.861  34.940925     4.4857      6.957   228.8814 1.8611e+01     3.5884      1.876      2.720    22.3893 0.0000e+00
      1.914      0.021     5.6340     64.929     36.861  34.940926     4.4196      6.957   228.8652 1.8530e+01     3.5611      1.876      2.721    22.3892 0.0000e+00
      1.919      0.023     5.6415     65.017     36.861  34.940935     4.4075      6.956   229.0360 1.8356e+01     3.5225      1.881      2.728    22.3895 0.0000e+00
      1.927      0.024     5.6484     65.097     36.861  34.941030     4.4032      6.954   229.2259 1.8151e+01     3.5184      1.890      2.742    22.3897 0.0000e+00
      1.936      0.026     5.6525     65.145     36.861  34.942081     4.3862      6.952   229.3547 1.7958e+01     3.5422      1.899      2.753    22.3898 0.0000e+00
      1.943      0.026     5.6526     65.146     36.873  34.953639     4.3578      6.951   229.3025 1.7778e+01     3.5350      1.906      2.763    22.3898 0.0000e+00
      1.949      0.025     5.6497     65.113     36.872  34.953734     4.3455      6.951   229.1973 1.7658e+01     3.5235      1.912      2.773    22.3906 0.0000e+00
      1.954      0.023     5.6447     65.056     36.861  34.943234     4.3566      6.950   229.2013 1.7545e+01     3.5251      1.916      2.779    22.3916 0.0000e+00
      1.960      0.023     5.6350     64.946     36.871  34.953732     4.4741      6.949   229.2638 1.7423e+01     3.5841      1.922      2.788    22.3917 0.0000e+00
      1.965      0.022     5.6218     64.796     36.870  34.953627     4.6815      6.948   229.4382 1.7314e+01     3.6879      1.927      2.795    22.3920 0.0000e+00
      1.970      0.021     5.6105     64.668     36.857  34.941966     4.7879      6.948   229.5029 1.7143e+01     3.7433      1.931      2.800    22.3921 0.0000e+00
      1.977      0.021     5.6023     64.575     36.854  34.939781     4.7944      6.947   229.3569 1.6962e+01     3.7352      1.940      2.814    22.3923 0.0000e+00
      1.984      0.021     5.5946     64.486     36.840  34.927202     4.7789      6.945   229.2227 1.6882e+01     3.6806      1.947      2.824    22.3935 0.0000e+00
      1.987      0.021     5.5887     64.418     36.829  34.916915     4.7477      6.943   229.2561 1.6817e+01     3.6327      1.948      2.826    22.3957 0.0000e+00
      1.991      0.022     5.5868     64.396     36.857  34.942436     4.7396      6.943   229.5891 1.6676e+01     3.6133      1.951      2.830    22.3972 0.0000e+00
      1.996      0.025     5.5887     64.417     36.899  34.981703     4.7441      6.942   229.8934 1.6530e+01     3.5682      1.958      2.840    22.3984 0.0000e+00
      2.002      0.030     5.5927     64.461     36.930  35.010566     4.7205      6.941   229.8374 1.6378e+01     3.5758      1.963      2.847    22.3991 0.0000e+00
      2.009      0.035     5.5959     64.496     36.959  35.037338     4.6748      6.939   229.6870 1.6137e+01     3.7053      1.968      2.856    22.3987 0.0000e+00
      2.020      0.040     5.5951     64.482     36.976  35.051313     4.6501      6.936   229.7086 1.5829e+01     3.7918      1.980      2.871    22.3979 0.0000e+00
      2.034      0.042     5.5883     64.400     36.981  35.052489     4.6607      6.933   229.7550 1.5530e+01     3.7668      1.995      2.893    22.3972 0.0000e+00
      2.047      0.041     5.5762     64.255     36.983  35.051555     4.6738      6.931   229.7324 1.5288e+01     3.7397      2.010      2.914    22.3969 0.0000e+00
      2.058      0.037     5.5582     64.045     36.973  35.040019     4.6808      6.930   229.7793 1.5062e+01     3.7379      2.019      2.926    22.3953 0.0000e+00
      2.068      0.032     5.5303     63.722     36.974  35.040040     4.6984      6.928   229.8054 1.4858e+01     3.7455      2.029      2.942    22.3917 0.0000e+00
      2.075      0.027     5.4939     63.303     36.986  35.051809     4.7126      6.926   229.7044 1.4771e+01     3.7705      2.037      2.955    22.3874 0.0000e+00
      2.079      0.022     5.4573     62.881     36.990  35.055274     4.7151      6.925   229.6759 1.4739e+01     3.7646      2.039      2.957    22.3824 0.0000e+00
      2.082      0.020     5.4260     62.520     37.018  35.081941     4.6460      6.924   229.8052 1.4677e+01     3.7358      2.040      2.960    22.3799 0.0000e+00
      2.085      0.021     5.4025     62.249     37.058  35.120148     4.5016      6.922   229.8909 1.4582e+01     3.7576      2.045      2.966    22.3800 0.0000e+00
      2.090      0.024     5.3848     62.042     37.077  35.136116     4.4225      6.920   229.8520 1.4469e+01     3.7843      2.051      2.974    22.3799 0.0000e+00
      2.096      0.028     5.3705     61.870     37.095  35.147971     4.4241      6.919   229.9372 1.4326e+01     3.7839      2.056      2.982    22.3794 0.0000e+00
      2.104      0.032     5.3593     61.732     37.155  35.199947     4.4845      6.917   230.1469 1.4084e+01     3.7529      2.062      2.990    22.3797 0.0000e+00
      2.116      0.034     5.3476     61.585     37.223  35.256384     4.5921      6.915   230.2369 1.3805e+01     3.7141      2.075      3.009    22.3805 0.0000e+00
      2.126      0.035     5.3285     61.348     37.237  35.258644     4.6499      6.914   230.2509 1.3625e+01     3.7421      2.087      3.027    22.3783 0.0000e+00
      2.135      0.033     5.2968     60.968     37.214  35.227252     4.6584      6.912   230.2299 1.3463e+01     3.7865      2.093      3.035    22.3710 0.0000e+00
      2.144      0.030     5.2515     60.438     37.185  35.194424     4.6684      6.911   230.3262 1.3288e+01     3.7935      2.103      3.049    22.3638 0.0000e+00
      2.152      0.025     5.1934     59.767     37.170  35.179318     4.6695      6.911   230.6413 1.3208e+01     3.7657      2.113      3.064    22.3545 0.0000e+00
      2.157      0.021     5.1285     59.024     37.160  35.171644     4.6618      6.910   230.8562 1.3170e+01     3.7252      2.116      3.069    22.3369 0.0000e+00
      2.161      0.017     5.0675     58.329     37.148  35.165168     4.6676      6.909   230.8596 1.3101e+01     3.7309      2.119      3.073    22.3222 0.0000e+00
      2.164      0.015     5.0182     57.768     37.144  35.164542     4.6936      6.908   230.6822 1.3018e+01     3.7734      2.122      3.077    22.3157 0.0000e+00
      2.167      0.014     4.9841     57.372     37.145  35.164075     4.7188      6.906   230.4322 1.2942e+01     3.7807      2.125      3.082    22.3144 0.0000e+00
      2.169      0.015     4.9653     57.143     37.148  35.159516     4.7238      6.906   230.6766 1.2869e+01     3.7578      2.127      3.085    22.3191 0.0000e+00
      2.173      0.017     4.9593     57.062     37.172  35.172938     4.7175      6.905   231.2280 1.2784e+01     3.7720      2.129      3.088    22.3259 0.0000e+00
      2.178      0.020     4.9614     57.075     37.208  35.199305     4.7167      6.904   231.3345 1.2696e+01     3.7996      2.136      3.097    22.3339 0.0000e+00
      2.183      0.023     4.9663     57.121     37.241  35.224221     4.7322      6.904   231.1898 1.2594e+01     3.8170      2.141      3.105    22.3325 0.0000e+00
      2.189      0.026     4.9705     57.161     37.310  35.283620     4.7482      6.903   231.1135 1.2439e+01     3.7996      2.145      3.111    22.3172 0.0000e+00
      2.197      0.030     4.9687     57.132     37.382  35.345792     4.7457      6.901   231.1867 1.2271e+01     3.7413      2.154      3.125    22.3053 0.0000e+00
      2.206      0.034     4.9574     56.990     37.452  35.404237     4.7385      6.899   231.4714 1.2133e+01     3.7218      2.164      3.139    22.2961 0.0000e+00
      2.213      0.039     4.9365     56.738     37.542  35.482102     4.7431      6.898   231.8033 1.1984e+01     3.8089      2.169      3.146    22.2857 0.0000e+00
      2.223      0.041     4.9056     56.373     37.595  35.524976     4.7466      6.894   232.0162 1.1783e+01     3.9398      2.179      3.160    22.2793 0.0000e+00
      2.235      0.041     4.8657     55.908     37.618  35.541483     4.7353      6.889   232.0661 1.1533e+01     3.9923      2.191      3.178    22.2717 0.0000e+00
      2.249      0.039     4.8192     55.368     37.637  35.554637     4.7258      6.887   232.0630 1.1288e+01     3.9858      2.204      3.198    22.2606 0.0000e+00
      2.262      0.036     4.7678     54.772     37.643  35.556970     4.7230      6.886   232.0647 1.1111e+01     3.9524      2.221      3.221    22.2498 0.0000e+00
      2.271      0.032     4.7135     54.143     37.661  35.569690     4.7206      6.883   232.0867 1.1017e+01     3.9243      2.229      3.233    22.2404 0.0000e+00
      2.275      0.029     4.6598     53.518     37.679  35.581376     4.7241      6.880   232.1569 1.0958e+01     3.9512      2.231      3.237    22.2328 0.0000e+00
      2.278      0.028     4.6093     52.930     37.675  35.571214     4.7282      6.878   232.2252 1.0892e+01     3.9724      2.233      3.239    22.2278 0.0000e+00
      2.283      0.028     4.5642     52.402     37.685  35.573854     4.7241      6.876   232.3098 1.0757e+01     3.9059      2.237      3.244    22.2239 0.0000e+00
      2.292      0.030     4.5259     51.956     37.732  35.613286     4.7202      6.873   232.4928 1.0557e+01     3.8191      2.247      3.260    22.2195 0.0000e+00
      2.302      0.035     4.4964     51.611     37.794  35.666846     4.7274      6.870   232.6307 1.0387e+01     3.8078      2.259      3.277    22.2121 0.0000e+00
      2.311      0.039     4.4766     51.376     37.849  35.713255     4.7477      6.867   232.6003 1.0242e+01     3.8301      2.266      3.287    22.2014 0.0000e+00
      2.321      0.041     4.4636     51.220     37.872  35.729749     4.7807      6.864   232.5553 1.0067e+01     3.8761      2.275      3.300    22.1921 0.0000e+00
      2.332      0.041     4.4521     51.082     37.888  35.739223     4.8141      6.859   232.6023 9.8909e+00     3.9362      2.287      3.318    22.1865 0.0000e+00
      2.344      0.040     4.4359     50.891     37.919  35.764275     4.8297      6.854   232.7378 9.7477e+00     3.9458      2.298      3.334    22.1811 0.0000e+00
      2.354      0.038     4.4129     50.622     37.938  35.778556     4.8317      6.850   232.9039 9.5994e+00     3.9322      2.308      3.348    22.1733 0.0000e+00
      2.365      0.033     4.3849     50.298     37.947  35.784837     4.8205      6.846   232.8893 9.4369e+00     3.8622      2.320      3.364    22.1655 0.0000e+00
      2.376      0.027     4.3509     49.906     37.940  35.776695     4.8037      6.844   232.7330 9.3262e+00     3.7409      2.331      3.382    22.1592 0.0000e+00
      2.382      0.020     4.3127     49.468     37.904  35.743631     4.8041      6.841   232.7353 9.2778e+00     3.7163      2.337      3.390    22.1532 0.0000e+00
      2.384      0.014     4.2761     49.050     37.858  35.702684     4.8061      6.838   232.9175 9.2483e+00     3.7483      2.338      3.391    22.1480 0.0000e+00
      2.385      0.009     4.2452     48.700     37.813  35.662737     4.7919      6.836   233.2160 9.2249e+00     3.7303      2.339      3.393    22.1449 0.0000e+00
      2.385      0.005     4.2243     48.467     37.787  35.641781     4.7420      6.835   233.4182 9.2140e+00     3.6820      2.339      3.393    22.1436 0.0000e+00
      2.386      0.004     4.2157     48.373     37.779  35.639877     4.6623      6.833   233.2116 9.1899e+00     3.6218      2.340      3.393    22.1441 0.0000e+00
      2.387      0.005     4.2191     48.418     37.774  35.639719     4.6184      6.831   232.8691 9.1459e+00     3.5830      2.340      3.395    22.1464 0.0000e+00
      2.388      0.007     4.2344     48.599     37.770  35.639879     4.6154      6.830   232.8898 9.1212e+00     3.5791      2.341      3.396    22.1510 0.0000e+00
      2.389      0.012     4.2605     48.905     37.767  35.641820     4.6266      6.827   233.2047 9.0954e+00     3.6041      2.343      3.398    22.1564 0.0000e+00
      2.390      0.019     4.2929     49.287     37.780  35.663192     4.6532      6.824   233.4929 9.0408e+00     3.6722      2.344      3.399    22.1630 0.0000e+00
      2.394      0.027     4.3270     49.688     37.820  35.707728     4.6702      6.819   233.5354 8.9628e+00     3.7317      2.347      3.404    22.1695 0.0000e+00
      2.402      0.033     4.3620     50.089     37.850  35.735656     4.6668      6.815   233.3735 8.8143e+00     3.7433      2.353      3.412    22.1742 0.0000e+00
      2.414      0.038     4.3932     50.439     37.869  35.746776     4.6763      6.812   233.3434 8.5939e+00     3.7516      2.365      3.430    22.1785 0.0000e+00
      2.429      0.041     4.4140     50.665     37.912  35.778651     4.7111      6.810   233.4292 8.3939e+00     3.7709      2.383      3.457    22.1927 0.0000e+00
      2.441      0.042     4.4210     50.737     37.946  35.803426     4.7295      6.809   233.3779 8.2466e+00     3.7631      2.396      3.475    22.2082 0.0000e+00
      2.451      0.042     4.4159     50.673     37.939  35.792229     4.7336      6.806   233.4114 8.1229e+00     3.7490      2.404      3.487    22.2043 0.0000e+00
      2.460      0.041     4.3983     50.462     37.922  35.770305     4.7971      6.803   233.6620 8.0226e+00     3.8142      2.414      3.501    22.1924 0.0000e+00
      2.468      0.041     4.3683     50.109     37.887  35.728903     4.9010      6.800   233.8266 7.9216e+00     3.9408      2.419      3.510    22.1800 0.0000e+00
      2.478      0.042     4.3368     49.739     37.834  35.672772     4.9411      6.798   233.9391 7.7741e+00     3.9973      2.428      3.522    22.1701 0.0000e+00
      2.490      0.043     4.3093     49.417     37.829  35.663314     4.9328      6.795   234.1616 7.5997e+00     3.9792      2.441      3.542    22.1661 0.0000e+00
      2.504      0.043     4.2846     49.131     37.848  35.678059     4.9199      6.791   234.3668 7.4472e+00     3.9661      2.456      3.562    22.1582 0.0000e+00
      2.515      0.043     4.2681     48.942     37.829  35.660490     4.8872      6.789   234.5271 7.3349e+00     3.9615      2.468      3.579    22.1455 0.0000e+00
      2.525      0.042     4.2649     48.907     37.808  35.641454     4.8588      6.786   234.7231 7.2457e+00     3.9545      2.476      3.592    22.1356 0.0000e+00
      2.534      0.041     4.2729     48.995     37.807  35.638463     4.8430      6.782   234.8440 7.1462e+00     3.9418      2.486      3.604    22.1305 0.0000e+00
      2.544      0.041     4.2868     49.148     37.797  35.624322     4.8331      6.779   234.7843 7.0381e+00     3.9297      2.494      3.616    22.1274 0.0000e+00
      2.554      0.041     4.3004     49.298     37.774  35.597517     4.8498      6.777   234.6030 6.9237e+00     3.9307      2.505      3.632    22.1282 0.0000e+00
      2.567      0.043     4.3086     49.387     37.748  35.568444     4.8797      6.775   234.4594 6.7930e+00     3.9229      2.517      3.651    22.1315 0.0000e+00
      2.578      0.048     4.3127     49.428     37.709  35.526884     4.8916      6.770   234.8544 6.6799e+00     3.9276      2.528      3.668    22.1285 0.0000e+00
      2.588      0.054     4.3136     49.431     37.660  35.476152     4.8834      6.763   235.6791 6.5734e+00     3.9564      2.536      3.679    22.1195 0.0000e+00
      2.600      0.060     4.3106     49.391     37.651  35.463208     4.8072      6.754   236.1712 6.4049e+00     3.9963      2.547      3.695    22.1127 0.0000e+00
      2.616      0.064     4.3082     49.359     37.691  35.497418     4.6782      6.748   236.2444 6.1764e+00     4.1043      2.564      3.719    22.1089 0.0000e+00
      2.636      0.066     4.3107     49.385     37.706  35.508645     4.6202      6.745   236.1334 5.9293e+00     4.1939      2.584      3.747    22.1024 0.0000e+00
      2.659      0.066     4.3204     49.493     37.670  35.471906     4.6201      6.743   236.1199 5.7208e+00     4.1653      2.610      3.784    22.0942 0.0000e+00
      2.678      0.063     4.3364     49.673     37.632  35.434335     4.6039      6.742   236.3395 5.5818e+00     4.0639      2.629      3.813    22.0888 0.0000e+00
      2.691      0.057     4.3537     49.869     37.636  35.435500     4.5889      6.740   236.6373 5.4802e+00     3.9747      2.639      3.828    22.0842 0.0000e+00
      2.703      0.051     4.3696     50.049     37.691  35.485995     4.5949      6.740   236.8816 5.3968e+00     3.9716      2.650      3.844    22.0803 0.0000e+00
      2.714      0.044     4.3849     50.223     37.747  35.536686     4.5941      6.739   236.8845 5.3119e+00     3.9955      2.662      3.860    22.0773 0.0000e+00
      2.725      0.038     4.4022     50.418     37.752  35.540221     4.4781      6.737   236.7570 5.2329e+00     3.9886      2.673      3.877    22.0745 0.0000e+00
      2.735      0.034     4.4173     50.590     37.741  35.528742     4.2681      6.736   236.8032 5.1675e+00     3.9806      2.682      3.890    22.0717 0.0000e+00
      2.744      0.030     4.4223     50.647     37.737  35.524935     4.1592      6.735   236.9264 5.1005e+00     3.9906      2.691      3.903    22.0691 0.0000e+00
      2.750      0.029     4.4202     50.625     37.703  35.494195     4.1539      6.734   237.0424 5.0424e+00     3.9874      2.698      3.914    22.0672 0.0000e+00
      2.755      0.030     4.4118     50.530     37.613  35.411147     4.1301      6.733   237.1741 4.9982e+00     3.9716      2.703      3.919    22.0652 0.0000e+00
      2.759      0.033     4.3979     50.371     37.477  35.283075     4.0645      6.732   237.2283 4.9531e+00     3.9521      2.705      3.922    22.0642 0.0000e+00
      2.767      0.037     4.3854     50.226     37.340  35.152587     4.0134      6.731   237.1804 4.8633e+00     3.9359      2.710      3.932    22.0644 0.0000e+00
      2.779      0.040     4.3760     50.115     37.290  35.103849     4.0090      6.729   237.0260 4.7463e+00     3.9583      2.725      3.952    22.0655 0.0000e+00
      2.793      0.041     4.3746     50.097     37.330  35.138427     4.0118      6.727   236.9101 4.6511e+00     3.9785      2.739      3.973    22.0676 0.0000e+00
      2.807      0.041     4.3866     50.232     37.319  35.126017     3.9827      6.726   237.0701 4.5581e+00     3.9673      2.753      3.993    22.0682 0.0000e+00
      2.818      0.040     4.4121     50.522     37.205  35.017313     3.9326      6.724   237.3253 4.4796e+00     3.9450      2.766      4.012    22.0664 0.0000e+00
      2.826      0.038     4.4489     50.940     37.086  34.903949     3.9018      6.723   237.3277 4.4394e+00     3.9528      2.772      4.022    22.0629 0.0000e+00
      2.831      0.037     4.4926     51.438     37.016  34.835184     3.8955      6.723   237.2717 4.3906e+00     4.0010      2.775      4.025    22.0589 0.0000e+00
      2.839      0.037     4.5411     51.989     37.003  34.821075     3.8657      6.722   237.2506 4.3064e+00     4.1306      2.781      4.034    22.0563 0.0000e+00
      2.850      0.038     4.5923     52.573     37.048  34.860394     3.7989      6.721   237.1591 4.2193e+00     4.3291      2.795      4.054    22.0552 0.0000e+00
      2.863      0.040     4.6429     53.150     37.123  34.929459     3.7589      6.720   237.1971 4.1413e+00     4.4176      2.809      4.074    22.0523 0.0000e+00
      2.874      0.041     4.6877     53.661     37.222  35.020936     3.7589      6.717   237.3661 4.0661e+00     4.4071      2.817      4.086    22.0485 0.0000e+00
      2.884      0.040     4.7247     54.081     37.283  35.077147     3.7891      6.715   237.5684 4.0074e+00     4.2931      2.830      4.104    22.0458 0.0000e+00
      2.893      0.037     4.7510     54.379     37.311  35.100946     3.8484      6.713   237.7502 3.9428e+00     4.0470      2.838      4.116    22.0426 0.0000e+00
      2.902      0.035     4.7623     54.506     37.399  35.181636     3.8875      6.712   237.8434 3.8583e+00     3.9036      2.844      4.126    22.0402 0.0000e+00
      2.912      0.034     4.7559     54.430     37.584  35.354029     3.9030      6.711   237.9205 3.8063e+00     3.9020      2.857      4.143    22.0392 0.0000e+00
      2.920      0.033     4.7296     54.125     37.779  35.533781     4.0093      6.711   237.9935 3.7722e+00     3.9365      2.863      4.153    22.0362 0.0000e+00
      2.926      0.032     4.6860     53.620     37.896  35.639920     4.2075      6.711   237.9520 3.7077e+00     3.9839      2.868      4.160    22.0326 0.0000e+00
      2.935      0.031     4.6294     52.965     37.950  35.684505     4.3140      6.710   237.9353 3.6275e+00     3.9872      2.878      4.174    22.0304 0.0000e+00
      2.945      0.029     4.5596     52.156     37.899  35.628192     4.3138      6.709   238.0497 3.5601e+00     3.9758      2.888      4.189    22.0278 0.0000e+00
      2.953      0.029     4.4732     51.162     37.799  35.530736     4.2694      6.710   238.1305 3.5106e+00     4.0302      2.897      4.201    22.0238 0.0000e+00
      2.959      0.028     4.3715     50.002     37.719  35.459001     4.1908      6.710   238.1375 3.4700e+00     4.1260      2.902      4.208    22.0187 0.0000e+00
      2.965      0.027     4.2645     48.782     37.648  35.396070     4.1452      6.709   238.1355 3.4370e+00     4.1876      2.908      4.217    22.0122 0.0000e+00
      2.971      0.026     4.1665     47.661     37.658  35.405060     4.1399      6.709   238.1924 3.4038e+00     4.1960      2.914      4.225    21.9982 0.0000e+00
      2.978      0.025     4.0907     46.795     37.694  35.440655     4.1356      6.710   238.3089 3.3662e+00     4.1670      2.921      4.236    21.9889 0.0000e+00
      2.986      0.024     4.0449     46.278     37.694  35.445316     4.1024      6.710   238.3398 3.3352e+00     4.1414      2.930      4.250    21.9989 0.0000e+00
      2.992      0.021     4.0309     46.123     37.707  35.461429     4.0513      6.710   238.2217 3.3109e+00     4.1609      2.934      4.256    22.0066 0.0000e+00
      2.997      0.019     4.0453     46.287     37.758  35.508441     4.0327      6.710   238.1713 3.2779e+00     4.1890      2.938      4.261    22.0013 0.0000e+00
      3.001      0.018     4.0801     46.677     37.898  35.632596     4.0339      6.710   238.2467 3.2520e+00     4.1770      2.943      4.269    22.0024 0.0000e+00
      3.005      0.019     4.1236     47.158     38.043  35.755639     3.9833      6.711   238.3583 3.2420e+00     4.1990      2.946      4.273    22.0135 0.0000e+00
      3.008      0.022     4.1634     47.594     38.027  35.725674     3.8889      6.711   238.4891 3.2218e+00     4.3014      2.949      4.278    22.0201 0.0000e+00
      3.012      0.024     4.1877     47.857     37.961  35.651411     3.8397      6.710   238.5366 3.1742e+00     4.3779      2.952      4.281    22.0199 0.0000e+00
      3.020      0.026     4.1867     47.837     37.935  35.619987     3.8294      6.708   238.5032 3.1072e+00     4.3918      2.960      4.292    22.0098 0.0000e+00
      3.031      0.027     4.1572     47.497     37.849  35.536283     3.7554      6.708   238.5154 3.0562e+00     4.3779      2.974      4.314    21.9896 0.0000e+00
      3.039      0.028     4.1063     46.913     37.707  35.401617     3.6245      6.707   238.6841 3.0220e+00     4.3618      2.982      4.325    21.9678 0.0000e+00
      3.044      0.030     4.0484     46.249     37.561  35.262187     3.5614      6.704   238.9942 2.9910e+00     4.3801      2.984      4.329    21.9500 0.0000e+00
      3.049      0.031     3.9949     45.636     37.480  35.184389     3.5619      6.700   239.2533 2.9637e+00     4.4156      2.990      4.337    21.9408 0.0000e+00
      3.055      0.032     3.9563     45.194     37.455  35.159696     3.5296      6.698   239.2360 2.9138e+00     4.4251      2.994      4.344    21.9390 0.0000e+00
      3.065      0.033     3.9421     45.032     37.381  35.090675     3.4641      6.695   239.0435 2.8336e+00     4.4037      3.003      4.357    21.9377 0.0000e+00
      3.078      0.035     3.9557     45.187     37.336  35.048585     3.4317      6.691   238.9904 2.7721e+00     4.4015      3.021      4.381    21.9343 0.0000e+00
      3.088      0.036     3.9949     45.637     37.384  35.095427     3.4414      6.689   239.0244 2.7452e+00     4.4289      3.031      4.395    21.9316 0.0000e+00
      3.094      0.035     4.0538     46.315     37.438  35.148879     3.4988      6.688   239.0244 2.7157e+00     4.4304      3.034      4.399    21.9305 0.0000e+00
      3.104      0.031     4.1248     47.131     37.474  35.186713     3.5926      6.687   239.0754 2.6721e+00     4.4191      3.044      4.415    21.9304 0.0000e+00
      3.114      0.028     4.1993     47.986     37.522  35.235272     3.6391      6.686   239.0397 2.6339e+00     4.4138      3.055      4.431    21.9303 0.0000e+00
      3.121      0.028     4.2666     48.757     37.512  35.227837     3.6375      6.684   238.8506 2.6117e+00     4.3971      3.062      4.441    21.9325 0.0000e+00
      3.125      0.029     4.3158     49.320     37.372  35.096817     3.6380      6.681   238.7680 2.6026e+00     4.4005      3.065      4.446    21.9374 0.0000e+00
      3.129      0.029     4.3432     49.630     37.189  34.921540     3.6909      6.679   238.8151 2.5775e+00     4.4552      3.066      4.447    21.9434 0.0000e+00
      3.136      0.030     4.3517     49.725     37.086  34.823620     3.7811      6.678   238.9041 2.5035e+00     4.5397      3.073      4.456    21.9477 0.0000e+00
      3.148      0.033     4.3450     49.654     37.059  34.802150     3.8192      6.676   239.0692 2.4250e+00     4.5979      3.087      4.477    21.9505 0.0000e+00
      3.159      0.035     4.3325     49.515     37.041  34.788997     3.8116      6.676   239.2628 2.3915e+00     4.6090      3.099      4.494    21.9522 0.0000e+00
      3.167      0.037     4.3292     49.471     37.048  34.791628     3.7803      6.675   239.4384 2.3733e+00     4.7355      3.104      4.504    21.9466 0.0000e+00
      3.175      0.038     4.3429     49.616     37.103  34.833950     3.7259      6.672   239.4713 2.3304e+00     4.9673      3.113      4.515    21.9407 0.0000e+00
      3.183      0.037     4.3725     49.945     37.202  34.919580     3.6961      6.669   239.3164 2.2779e+00     5.0313      3.122      4.528    21.9503 0.0000e+00
      3.193      0.036     4.4129     50.400     37.361  35.064727     3.6961      6.668   239.2869 2.2406e+00     4.9911      3.129      4.539    21.9606 0.0000e+00
      3.204      0.036     4.4554     50.884     37.566  35.254973     3.6977      6.667   239.6308 2.2077e+00     5.0608      3.142      4.557    21.9516 0.0000e+00
      3.215      0.036     4.4917     51.296     37.766  35.441252     3.6967      6.666   239.9468 2.1824e+00     5.2021      3.155      4.576    21.9358 0.0000e+00
      3.223      0.037     4.5103     51.502     37.943  35.601927     3.6932      6.665   239.9234 2.1600e+00     5.2661      3.161      4.585    21.9247 0.0000e+00
      3.229      0.039     4.5031     51.407     38.097  35.736667     3.6929      6.664   239.8642 2.1182e+00     5.2544      3.165      4.591    21.9194 0.0000e+00
      3.237      0.040     4.4677     50.989     38.176  35.799922     3.6741      6.663   239.8334 2.0657e+00     5.2431      3.173      4.602    21.9191 0.0000e+00
      3.250      0.042     4.4037     50.240     38.186  35.795018     3.6403      6.662   239.8091 2.0239e+00     5.2522      3.187      4.623    21.9183 0.0000e+00
      3.264      0.042     4.3115     49.171     38.211  35.804406     3.6340      6.663   240.0004 1.9898e+00     5.2726      3.201      4.644    21.9106 0.0000e+00
      3.276      0.042     4.1967     47.851     38.270  35.849879     3.6252      6.663   240.2535 1.9451e+00     5.2758      3.211      4.658    21.8979 0.0000e+00
      3.286      0.039     4.0725     46.428     38.330  35.900158     3.4886      6.663   240.3744 1.9070e+00     5.2603      3.223      4.675    21.8841 0.0000e+00
      3.296      0.038     3.9522     45.049     38.409  35.967649     3.2502      6.662   240.5164 1.8831e+00     5.2387      3.233      4.690    21.8642 0.0000e+00
      3.304      0.039     3.8462     43.832     38.552  36.094195     3.1320      6.659   240.8513 1.8626e+00     5.2578      3.241      4.700    21.8427 0.0000e+00
      3.310      0.043     3.7582     42.817     38.702  36.223252     3.1345      6.653   241.4986 1.8442e+00     5.2788      3.246      4.708    21.8321 0.0000e+00
      3.318      0.048     3.6885     42.007     38.754  36.257572     3.1246      6.646   242.1474 1.8154e+00     5.2476      3.250      4.714    21.8256 0.0000e+00
      3.332      0.052     3.6345     41.377     38.767  36.255045     3.0767      6.641   242.4158 1.7635e+00     5.3082      3.265      4.735    21.8165 0.0000e+00
      3.351      0.053     3.5896     40.855     38.780  36.256191     3.0142      6.637   242.2478 1.6940e+00     5.5231      3.288      4.768    21.8086 0.0000e+00
      3.370      0.052     3.5455     40.348     38.734  36.207887     2.9845      6.634   241.8375 1.6390e+00     5.6796      3.307      4.796    21.7952 0.0000e+00
      3.385      0.051     3.4973     39.798     38.705  36.179197     2.9755      6.631   241.6705 1.6082e+00     5.6741      3.321      4.818    21.7739 0.0000e+00
      3.394      0.050     3.4482     39.236     38.760  36.226920     2.9055      6.626   241.7779 1.5819e+00     5.6395      3.330      4.829    21.7525 0.0000e+00
      3.399      0.050     3.4052     38.741     38.821  36.276707     2.7815      6.619   241.9309 1.5527e+00     5.6277      3.333      4.834    21.7370 0.0000e+00
      3.408      0.050     3.3737     38.372     38.827  36.272959     2.7168      6.614   242.0583 1.5218e+00     5.6229      3.339      4.843    21.7323 0.0000e+00
      3.424      0.049     3.3552     38.153     38.806  36.245124     2.7204      6.611   242.1139 1.4794e+00     5.6428      3.356      4.867    21.7325 0.0000e+00
      3.445      0.046     3.3488     38.081     38.820  36.257757     2.6968      6.609   242.1732 1.4279e+00     5.5619      3.380      4.902    21.7287 0.0000e+00
      3.462      0.043     3.3510     38.111     38.858  36.298661     2.6248      6.608   242.2585 1.3982e+00     5.3478      3.399      4.930    21.7212 0.0000e+00
      3.470      0.042     3.3605     38.220     38.921  36.358541     2.5844      6.605   242.3707 1.3898e+00     5.2206      3.404      4.937    21.7049 0.0000e+00
      3.472      0.045     3.3757     38.381     38.988  36.410042     2.5934      6.599   242.5833 1.3785e+00     5.2454      3.405      4.938    21.6893 0.0000e+00
      3.476      0.050     3.3900     38.524     38.946  36.349617     2.5960      6.591   242.9360 1.3612e+00     5.5251      3.407      4.942    21.6913 0.0000e+00
      3.486      0.060     3.3988     38.603     38.809  36.199643     2.5891      6.585   243.1943 1.3294e+00     6.0077      3.414      4.952    21.7044 0.0000e+00
      3.505      0.072     3.3981     38.576     38.746  36.121273     2.5921      6.580   243.2117 1.2700e+00     6.2595      3.435      4.981    21.7092 0.0000e+00
      3.533      0.083     3.3821     38.379     38.878  36.227830     2.5964      6.577   243.1460 1.2066e+00     6.2802      3.467      5.027    21.6929 0.0000e+00
      3.561      0.090     3.3507     38.009     39.155  36.471605     2.5677      6.574   243.1735 1.1611e+00     6.3494      3.495      5.068    21.6623 0.0000e+00
      3.586      0.092     3.3135     37.574     39.435  36.718309     2.5114      6.570   243.5442 1.1080e+00     6.4558      3.517      5.100    21.6313 0.0000e+00
      3.607      0.089     3.2789     37.167     39.605  36.860246     2.4763      6.566   244.0146 1.0418e+00     6.4679      3.538      5.131    21.6057 0.0000e+00
      3.627      0.082     3.2468     36.789     39.683  36.917211     2.4648      6.563   244.3014 9.9903e-01     6.4346      3.557      5.158    21.5859 0.0000e+00
      3.648      0.076     3.2090     36.351     39.812  37.025896     2.4541      6.561   244.6882 9.7976e-01     6.4500      3.575      5.187    21.5690 0.0000e+00
      3.670      0.072     3.1572     35.757     40.032  37.221419     2.4216      6.558   244.9922 9.4573e-01     6.4402      3.601      5.222    21.5502 0.0000e+00
      3.688      0.069     3.0907     34.997     40.205  37.375443     2.3750      6.555   244.8797 9.0470e-01     6.3778      3.620      5.250    21.5291 0.0000e+00
      3.701      0.064     3.0157     34.144     40.266  37.427039     2.3497      6.554   244.6182 8.7778e-01     6.3063      3.628      5.262    21.5089 0.0000e+00
      3.716      0.058     2.9354     33.233     40.308  37.464093     2.3360      6.553   244.5832 8.5470e-01     6.2772      3.642      5.282    21.4940 0.0000e+00
      3.733      0.051     2.8500     32.266     40.422  37.569338     2.3292      6.552   244.8007 8.3424e-01     6.2087      3.663      5.313    21.4845 0.0000e+00
      3.748      0.044     2.7655     31.310     40.613  37.746627     2.3415      6.550   244.9257 8.1573e-01     6.0277      3.677      5.333    21.4752 0.0000e+00
      3.758      0.038     2.6877     30.428     40.839  37.955923     2.3555      6.550   244.8038 8.1483e-01     5.9202      3.686      5.347    21.4683 0.0000e+00
      3.765      0.033     2.6219     29.680     41.031  38.130512     2.3514      6.550   244.6176 8.1821e-01     5.9155      3.693      5.357    21.4662 0.0000e+00
      3.770      0.031     2.5744     29.138     41.187  38.269316     2.3563      6.549   244.4803 7.9134e-01     6.0014      3.698      5.364    21.4667 0.0000e+00
      3.775      0.034     2.5423     28.770     41.434  38.490627     2.3878      6.546   244.4346 7.6492e-01     6.1950      3.703      5.370    21.4672 0.0000e+00
      3.781      0.039     2.5173     28.480     41.885  38.900427     2.4094      6.543   244.4953 7.5246e-01     6.3038      3.706      5.375    21.4663 0.0000e+00
      3.792      0.046     2.4940     28.205     42.455  39.412203     2.4064      6.540   244.6126 7.3286e-01     6.3102      3.716      5.390    21.4619 0.0000e+00
      3.807      0.052     2.4713     27.929     42.890  39.786375     2.3792      6.535   244.7337 7.1005e-01     6.3636      3.734      5.415    21.4544 0.0000e+00
      3.823      0.057     2.4475     27.642     43.077  39.930065     2.3467      6.530   244.8415 6.8953e-01     6.4611      3.750      5.438    21.4433 0.0000e+00
      3.840      0.059     2.4147     27.259     43.248  40.069400     2.3357      6.525   244.8840 6.6708e-01     6.5121      3.766      5.462    21.4339 0.0000e+00
      3.857      0.059     2.3607     26.642     43.473  40.263832     2.3289      6.521   244.9025 6.5025e-01     6.5230      3.783      5.487    21.4181 0.0000e+00
      3.872      0.057     2.2761     25.680     43.469  40.247731     2.2743      6.517   244.9787 6.4627e-01     6.5926      3.798      5.508    21.3778 0.0000e+00
      3.885      0.054     2.1643     24.415     43.348  40.128864     2.1799      6.514   244.9454 6.3434e-01     6.7126      3.811      5.527    21.3360 0.0000e+00
      3.897      0.051     2.0386     23.000     43.240  40.033817     2.1349      6.511   244.8444 6.0961e-01     6.7533      3.821      5.541    21.3165 0.0000e+00
      3.910      0.047     1.9084     21.538     43.107  39.924499     2.1436      6.509   244.7902 5.8915e-01     6.7190      3.833      5.560    21.3049 0.0000e+00
      3.924      0.043     1.7854     20.157     43.388  40.204924     2.1474      6.507   244.7198 5.8375e-01     6.6949      3.850      5.584    21.2859 0.0000e+00
      3.935      0.040     1.6849     19.027     44.110  40.882933     2.1533      6.505   244.7681 5.8460e-01     6.6750      3.861      5.599    21.2764 0.0000e+00
      3.943      0.037     1.6167     18.248     44.614  41.323700     2.1781      6.504   244.8576 5.6719e-01     6.6620      3.866      5.607    21.2842 0.0000e+00
      3.950      0.034     1.5841     17.859     45.375  41.976021     2.1989      6.503   244.7692 5.4057e-01     6.6900      3.873      5.617    21.3006 0.0000e+00
      3.959      0.033     1.5738     17.723     46.666  43.114542     2.2112      6.502   244.6463 5.3049e-01     6.7077      3.883      5.631    21.3284 0.0000e+00
      3.968      0.034     1.5580     17.524     47.379  43.714977     2.2451      6.500   244.6617 5.3135e-01     6.6323      3.893      5.646    21.3553 0.0000e+00
      3.975      0.039     1.5198     17.074     48.536  44.724210     2.3051      6.498   244.8691 5.1950e-01     6.5106      3.898      5.653    21.3206 0.0000e+00
      3.983      0.046     1.4549     16.327     51.264  47.181929     2.3480      6.493   245.1747 5.0494e-01     6.4566      3.903      5.662    21.2442 0.0000e+00
      3.994      0.055     1.3555     15.192     53.556  49.216116     2.3592      6.485   245.4317 4.9952e-01     6.4984      3.916      5.680    21.1957 0.0000e+00
      4.008      0.062     1.2173     13.620     54.098  49.616035     2.3405      6.476   245.8261 4.9083e-01     6.5886      3.929      5.699    21.1290 0.0000e+00
      4.028      0.067     1.0461     11.685     53.907  49.347550     2.2959      6.469   246.4155 4.7613e-01     6.6628      3.947      5.724    21.0627 0.0000e+00
      4.052      0.068     0.8491      9.472     53.972  49.338765     2.2703      6.460   247.0514 4.5791e-01     6.6929      3.975      5.764    21.0267 0.0000e+00
      4.072      0.064     0.6408      7.144     54.123  49.446182     2.2705      6.451   247.4917 4.4803e-01     6.7086      3.996      5.795    20.9555 0.0000e+00
      4.088      0.057     0.4456      4.967     54.049  49.374966     2.2433      6.443   247.6100 4.4749e-01     6.6703      4.009      5.814    20.8479 0.0000e+00
      4.101      0.048     0.2773      3.091     53.419  48.795528     2.1801      6.437   247.6211 4.3609e-01     6.5653      4.024      5.836    20.7572 0.0000e+00
      4.111      0.041     0.1407      1.569     52.760  48.160861     2.1403      6.430   247.5397 4.1512e-01     6.5068      4.033      5.850    20.6909 0.0000e+00
      4.117      0.039     0.0409      0.456     53.639  48.883803     2.1393      6.424   247.4864 4.0258e-01     6.5127      4.037      5.856    20.6624 0.0000e+00
      4.122      0.040    -0.0209     -0.231     55.311  50.290093     2.1861      6.418   247.4060 3.9225e-01     6.5145      4.040      5.860    20.6732 0.0000e+00
      4.131      0.042    -0.0456     -0.506     56.070  50.861779     2.2745      6.410   247.0845 3.7993e-01     6.4971      4.049      5.873    20.6765 0.0000e+00
      4.146      0.045    -0.0381     -0.421     56.205  50.901190     2.3250      6.403   246.7827 3.8352e-01     6.4862      4.066      5.896    20.6538 0.0000e+00
      4.161      0.050    -0.0132     -0.146     56.385  51.020775     2.3290      6.397   246.5963 3.9072e-01     6.5045      4.082      5.921    20.5798 0.0000e+00
      4.175      0.052     0.0147      0.162     56.581  51.163341     2.3404      6.391   246.3803 3.7702e-01     6.3526      4.095      5.940    20.4583 0.0000e+00
      4.187      0.051     0.0424      0.467     56.639  51.162764     2.3710      6.386   245.8918 3.5751e-01     5.9617      4.105      5.954    20.3367 0.0000e+00
      4.199      0.046     0.0678      0.746     56.527  51.013726     2.3960      6.384   244.8190 3.5236e-01     5.7148      4.117      5.971    20.2606 0.0000e+00
      4.214      0.040     0.0868      0.956     56.254  50.759827     2.4030      6.382   243.2175 3.5289e-01     5.6864      4.133      5.994    20.2366 0.0000e+00
      4.226      0.033     0.0992      1.094     56.010  50.572135     2.4014      6.382   241.5855 3.4423e-01     5.6493      4.147      6.015    20.2188 0.0000e+00
      4.233      0.027     0.1071      1.182     56.054  50.651508     2.3940      6.382   240.2291 3.4303e-01     5.4496      4.153      6.023    20.1600 0.0000e+00
      4.236      0.021     0.1126      1.243     56.304  50.893177     2.3879      6.382   238.9492 3.5073e-01     5.1637      4.154      6.024    20.1009 0.0000e+00
      4.237      0.016     0.1189      1.313     56.520  51.078481     2.4010      6.381   237.5535 3.4352e-01     5.0617      4.155      6.026    20.0975 0.0000e+00
      4.240      0.014     0.1287      1.420     56.586  51.112009     2.4240      6.380   236.0020 3.2940e-01     5.0699      4.157      6.030    20.1386 0.0000e+00
      4.244      0.014     0.1426      1.573     56.539  51.044230     2.4451      6.379   234.3858 3.2321e-01     5.0491      4.162      6.037    20.1885 0.0000e+00
      4.248      0.016     0.1555      1.714     56.516  51.021798     2.4629      6.378   233.0689 3.2646e-01     5.0240      4.167      6.043    20.1967 0.0000e+00
      4.252      0.019     0.1617      1.784     56.595  51.095061     2.4646      6.377   232.0389 3.2753e-01     5.0114      4.170      6.048    20.1871 0.0000e+00
      4.255      0.024     0.1637      1.805     56.843  51.294336     2.4662      6.375   230.8813 3.2091e-01     5.0487      4.172      6.051    20.1612 0.0000e+00
      4.261      0.031     0.1643      1.810     57.242  51.587610     2.5465      6.372   229.6552 3.1722e-01     5.2307      4.177      6.059    20.1215 0.0000e+00
      4.269      0.040     0.1624      1.785     57.590  51.780160     2.7002      6.368   228.4842 3.1967e-01     5.5032      4.187      6.073    20.1329 0.0000e+00
      4.279      0.047     0.1574      1.725     57.822  51.842233     2.7907      6.361   227.6505 3.2866e-01     5.6275      4.195      6.085    20.1485 0.0000e+00
      4.294      0.053     0.1522      1.664     58.012  51.892914     2.8684      6.353   227.6627 3.3299e-01     5.6354      4.208      6.103    20.1241 0.0000e+00
      4.313      0.061     0.1472      1.607     58.169  51.947764     3.6945      6.345   227.9436 3.1838e-01     5.5988      4.231      6.137    20.0781 0.0000e+00
      4.329      0.068     0.1418      1.547     58.313  51.996713     5.2246      6.337   227.6052 2.9778e-01     5.4895      4.248      6.161    19.9634 0.0000e+00
      4.343      0.073     0.1388      1.512     58.456  52.039630     6.0768      6.330   226.8403 2.8258e-01     5.4130      4.257      6.174    19.8107 0.0000e+00
      4.361      0.075     0.1370      1.490     58.597  52.085113     6.2415      6.325   226.2670 2.7667e-01     5.3752      4.273      6.198    19.7084 0.0000e+00
      4.386      0.077     0.1342      1.458     58.763  52.165098     7.2163      6.320   225.8356 2.6956e-01     5.2156      4.302      6.239    19.6481 0.0000e+00
      4.409      0.081     0.1322      1.435     58.923  52.243730     9.0029      6.316   225.0651 2.5546e-01     4.9485      4.326      6.275    19.5835 0.0000e+00
      4.426      0.083     0.1312      1.421     59.035  52.272859     9.9774      6.313   224.0076 2.4980e-01     4.8011      4.341      6.296    19.5045 0.0000e+00
      4.444      0.080     0.1297      1.403     59.107  52.262907    10.0669      6.311   222.9436 2.4026e-01     4.7760      4.355      6.316    19.4344 0.0000e+00
      4.467      0.073     0.1291      1.396     59.159  52.250450    10.1395      6.310   222.1811 2.2388e-01     4.4920      4.380      6.353    19.3798 0.0000e+00
      4.492      0.064     0.1294      1.400     59.183  52.249311    10.2585      6.311   221.7570 2.1416e-01     3.9308      4.408      6.393    19.3306 0.0000e+00
      4.510      0.055     0.1285      1.390     59.171  52.249102    10.3196      6.311   221.1709 2.1117e-01     3.6061      4.427      6.420    19.2720 0.0000e+00
      4.520      0.047     0.1276      1.380     59.154  52.247942    10.3278      6.311   220.1711 2.1605e-01     3.5562      4.435      6.433    19.2011 0.0000e+00
      4.525      0.040     0.1270      1.373     59.148  52.235321    10.3203      6.312   218.8748 2.2139e-01     3.5723      4.437      6.436    19.1442 0.0000e+00
      4.529      0.034     0.1251      1.353     59.159  52.223640    10.2106      6.313   217.8012 2.1671e-01     3.6786      4.440      6.440    19.1253 0.0000e+00
      4.537      0.031     0.1224      1.323     59.190  52.233825    10.0032      6.315   217.1714 2.1164e-01     3.8035      4.448      6.452    19.1457 0.0000e+00
      4.549      0.030     0.1194      1.291     59.199  52.231292     9.8898      6.315   216.4217 2.1156e-01     3.8318      4.461      6.470    19.1676 0.0000e+00
      4.560      0.030     0.1172      1.266     59.162  52.193002     9.8958      6.316   215.4472 2.0756e-01     3.8070      4.473      6.487    19.1567 0.0000e+00
      4.567      0.029     0.1158      1.251     59.115  52.152300     9.9196      6.317   214.6812 2.0870e-01     3.8084      4.481      6.498    19.1312 0.0000e+00
      4.572      0.026     0.1143      1.235     59.075  52.120613     9.9382      6.318   214.0433 2.1967e-01     3.8186      4.485      6.504    19.1164 0.0000e+00
      4.577      0.025     0.1123      1.214     59.014  52.064179     9.9370      6.318   213.2415 2.1519e-01     3.8085      4.487      6.507    19.1105 0.0000e+00
      4.582      0.025     0.1109      1.198     58.937  51.978561     9.9235      6.318   212.4717 1.9817e-01     3.7783      4.493      6.516    19.1042 0.0000e+00
      4.588      0.030     0.1104      1.191     58.916  51.911857     9.8121      6.317   211.7907 1.9752e-01     3.7890      4.500      6.527    19.1038 0.0000e+00
      4.595      0.038     0.1101      1.187     58.986  51.893353     9.5918      6.315   211.0305 1.9883e-01     3.8770      4.506      6.535    19.1123 0.0000e+00
      4.604      0.045     0.1108      1.193     59.060  51.881873     9.4566      6.314   210.3356 1.8299e-01     3.9567      4.514      6.545    19.1103 0.0000e+00
      4.616      0.050     0.1118      1.202     59.062  51.836518     9.4173      6.312   209.6692 1.7478e-01     3.9595      4.524      6.562    19.1002 0.0000e+00
      4.633      0.051     0.1116      1.200     59.042  51.789931     9.3104      6.311   208.9105 1.8990e-01     3.8795      4.542      6.588    19.0660 0.0000e+00
      4.653      0.050     0.1116      1.200     59.042  51.763572     9.1285      6.310   208.0457 1.9174e-01     3.7829      4.564      6.620    18.9808 0.0000e+00
      4.668      0.047     0.1127      1.211     59.001  51.708505     9.0283      6.308   207.2137 1.7149e-01     3.7680      4.580      6.644    18.9044 0.0000e+00
      4.677      0.045     0.1132      1.216     58.860  51.569108     9.0454      6.307   206.5942 1.6617e-01     3.7910      4.589      6.655    18.8747 0.0000e+00
      4.681      0.044     0.1127      1.209     58.678  51.349579     9.2440      6.306   205.9765 1.6994e-01     3.6949      4.590      6.657    18.8560 0.0000e+00
      4.687      0.046     0.1133      1.212     58.611  51.152034     9.6005      6.305   205.4235 1.6543e-01     3.4919      4.593      6.662    18.8291 0.0000e+00
      4.700      0.050     0.1145      1.222     58.747  51.087589     9.7997      6.303   204.9842 1.5708e-01     3.3809      4.607      6.683    18.8094 0.0000e+00
      4.717      0.054     0.1155      1.228     59.001  51.142274     9.8143      6.302   204.4510 1.5308e-01     3.3591      4.626      6.709    18.8154 0.0000e+00
      4.736      0.056     0.1175      1.247     59.251  51.240866     9.7949      6.301   203.8807 1.5246e-01     3.3204      4.645      6.736    18.7830 0.0000e+00
      4.753      0.053     0.1189      1.261     59.432  51.325930     9.6027      6.301   203.3373 1.4900e-01     3.2484      4.663      6.763    18.6463 0.0000e+00
      4.767      0.047     0.1190      1.262     59.579  51.407824     9.2547      6.300   202.7843 1.4821e-01     3.1603      4.676      6.782    18.4682 0.0000e+00
      4.777      0.039     0.1198      1.268     59.767  51.531681     9.0611      6.300   202.2714 1.4446e-01     3.1096      4.686      6.796    18.3198 0.0000e+00
      4.785      0.033     0.1185      1.253     59.985  51.679111     9.0079      6.300   201.8689 1.3874e-01     3.1231      4.693      6.807    18.2213 0.0000e+00
      4.790      0.028     0.1159      1.225     60.246  51.855287     8.7130      6.299   201.5301 1.3644e-01     3.2018      4.697      6.813    18.1687 0.0000e+00
      4.795      0.026     0.1152      1.217     60.566  52.072407     8.1880      6.297   201.1866 1.3549e-01     3.2986      4.701      6.819    18.1378 0.0000e+00
      4.801      0.029     0.1150      1.213     60.867  52.269823     7.9067      6.297   200.8995 1.4154e-01     3.3474      4.708      6.828    18.1072 0.0000e+00
      4.808      0.035     0.1147      1.209     61.219  52.525628     7.8674      6.296   200.8124 1.4694e-01     3.3343      4.714      6.838    18.0748 0.0000e+00
      4.815      0.045     0.1149      1.211     61.674  52.876512     7.6947      6.294   200.7353 1.4844e-01     3.2930      4.721      6.847    18.0359 0.0000e+00
      4.825      0.055     0.1147      1.208     61.995  53.079136     7.3996      6.289   200.3118 1.4769e-01     3.2752      4.730      6.859    17.9866 0.0000e+00
      4.841      0.060     0.1142      1.199     62.105  53.068134     7.2481      6.286   199.6494 1.3854e-01     3.3014      4.745      6.881    17.9286 0.0000e+00
      4.865      0.062     0.1146      1.202     62.048  52.934082     7.2240      6.284   199.0930 1.3003e-01     3.3356      4.771      6.918    17.8864 0.0000e+00
      4.887      0.062     0.1152      1.207     61.862  52.729764     7.0343      6.281   198.6610 1.2700e-01     3.3834      4.797      6.957    17.8786 0.0000e+00
      4.902      0.059     0.1148      1.202     61.709  52.568588     6.6819      6.278   198.2110 1.2562e-01     3.4820      4.809      6.976    17.8206 0.0000e+00
      4.912      0.052     0.1145      1.198     61.696  52.511125     6.4834      6.278   197.6103 1.2552e-01     3.5511      4.816      6.987    17.7101 0.0000e+00
      4.923      0.045     0.1140      1.192     61.804  52.543534     6.4260      6.278   196.9053 1.2570e-01     3.5479      4.827      7.002    17.6366 0.0000e+00
      4.933      0.041     0.1135      1.186     61.912  52.578908     5.9975      6.277   196.3113 1.2750e-01     3.5354      4.838      7.018    17.6104 0.0000e+00
      4.943      0.042     0.1138      1.188     61.948  52.557306     5.2084      6.276   195.8493 1.2951e-01     3.5218      4.848      7.032    17.5977 0.0000e+00
      4.952      0.047     0.1127      1.176     61.988  52.536576     4.7690      6.274   195.2765 1.2831e-01     3.5055      4.857      7.043    17.5569 0.0000e+00
      4.962      0.051     0.1101      1.148     62.107  52.582496     4.6919      6.271   194.6348 1.2669e-01     3.5215      4.864      7.057    17.5010 0.0000e+00
      4.975      0.054     0.1090      1.135     62.328  52.730992     4.3599      6.269   194.1987 1.3157e-01     3.6546      4.878      7.075    17.4569 0.0000e+00
      4.993      0.055     0.1086      1.130     62.673  52.996868     3.7774      6.267   193.7030 1.3652e-01     3.8628      4.895      7.100    17.4184 0.0000e+00
      5.013      0.055     0.1080      1.124     63.080  53.317622     3.4661      6.267   193.0297 1.3149e-01     3.9635      4.917      7.132    17.3737 0.0000e+00
      5.029      0.052     0.1083      1.127     63.465  53.620978     3.4362      6.267   192.2531 1.2601e-01     3.9572      4.933      7.155    17.3222 0.0000e+00
      5.040      0.047     0.1084      1.128     63.927  53.994366     3.4345      6.266   191.3682 1.2558e-01     3.9388      4.942      7.168    17.2915 0.0000e+00
      5.049      0.042     0.1071      1.113     64.648  54.589586     3.4541      6.266   190.5900 1.2599e-01     3.8940      4.952      7.182    17.2784 0.0000e+00
      5.058      0.040     0.1045      1.086     65.499  55.286047     3.4899      6.266   189.8999 1.3075e-01     3.8120      4.961      7.196    17.2572 0.0000e+00
      5.066      0.040     0.1021      1.060     66.166  55.802466     3.5086      6.266   189.3045 1.3605e-01     3.7712      4.968      7.206    17.2381 0.0000e+00
      5.074      0.044     0.1011      1.048     66.417  55.937412     3.5148      6.265   188.8125 1.3282e-01     3.7669      4.974      7.214    17.2270 0.0000e+00
      5.084      0.049     0.1009      1.045     66.171  55.645830     3.5932      6.264   188.1664 1.2827e-01     3.7902      4.984      7.229    17.2174 0.0000e+00
      5.099      0.053     0.1006      1.041     65.795  55.265430     3.7402      6.263   187.5149 1.2815e-01     3.8704      5.000      7.252    17.2074 0.0000e+00
      5.116      0.056     0.1009      1.043     65.628  55.089528     3.8207      6.261   187.3026 1.2753e-01     3.9130      5.017      7.276    17.1751 0.0000e+00
      5.135      0.058     0.1013      1.047     65.523  54.981424     3.8227      6.259   187.2333 1.2614e-01     3.9084      5.035      7.303    17.1079 0.0000e+00
      5.150      0.058     0.1008      1.042     65.479  54.912095     3.7459      6.257   186.7638 1.2559e-01     3.9669      5.051      7.327    17.0356 0.0000e+00
      5.161      0.057     0.1008      1.040     65.589  54.950661     3.5995      6.255   186.0997 1.2554e-01     4.0711      5.061      7.340    16.9857 0.0000e+00
      5.173      0.057     0.1018      1.050     65.569  54.875402     3.5145      6.253   185.6565 1.2555e-01     4.1306      5.071      7.353    16.9616 0.0000e+00
      5.189      0.057     0.1028      1.060     65.120  54.447160     3.4898      6.251   185.4490 1.2556e-01     4.1667      5.088      7.379    16.9569 0.0000e+00
      5.205      0.062     0.1021      1.051     64.304  53.714868     3.4021      6.249   185.2265 1.2570e-01     4.2340      5.106      7.405    16.9353 0.0000e+00
      5.219      0.067     0.1006      1.035     63.606  53.078768     3.2624      6.248   184.9441 1.2583e-01     4.3037      5.118      7.423    16.8863 0.0000e+00
      5.234      0.071     0.1018      1.046     63.416  52.859727     3.1975      6.247   184.5300 1.2568e-01     4.3380      5.131      7.442    16.8400 0.0000e+00
      5.253      0.071     0.1044      1.071     63.548  52.910176     3.1960      6.246   184.1773 1.2551e-01     4.3429      5.149      7.468    16.7998 0.0000e+00
      5.276      0.069     0.1054      1.081     63.703  52.989309     3.2540      6.247   184.2072 1.2551e-01     4.3022      5.175      7.506    16.7628 0.0000e+00
      5.299      0.064     0.1038      1.065     63.824  53.053522     3.3753      6.248   184.2897 1.2554e-01     4.2421      5.199      7.541    16.7234 0.0000e+00
      5.315      0.058     0.1007      1.032     63.922  53.114315     3.4399      6.249   184.2272 1.2553e-01     4.1970      5.213      7.561    16.6725 0.0000e+00
      5.326      0.050     0.0991      1.015     63.975  53.152123     3.4469      6.250   184.2267 1.2552e-01     4.1530      5.223      7.577    16.6233 0.0000e+00
      5.335      0.044     0.0989      1.013     64.033  53.192768     3.4417      6.251   184.3698 1.2550e-01     4.1377      5.232      7.589    16.5840 0.0000e+00
      5.342      0.043     0.0987      1.011     64.171  53.287840     3.3956      6.253   184.4943 1.2549e-01     4.1645      5.237      7.596    16.5533 0.0000e+00
      5.352      0.045     0.0982      1.006     64.364  53.411502     3.3311      6.254   184.4422 1.2549e-01     4.2020      5.247      7.610    16.5377 0.0000e+00
      5.363      0.049     0.0971      0.994     64.503  53.479906     3.3046      6.254   184.0837 1.2548e-01     4.1940      5.259      7.628    16.5380 0.0000e+00
      5.377      0.052     0.0963      0.984     64.552  53.479046     3.3056      6.255   183.6020 1.2548e-01     4.1599      5.272      7.647    16.5355 0.0000e+00
      5.393      0.054     0.0961      0.982     64.563  53.464634     3.2875      6.257   183.2640 1.2553e-01     4.1560      5.289      7.671    16.5203 0.0000e+00
      5.409      0.056     0.0955      0.975     64.614  53.496363     3.2506      6.258   183.0075 1.2560e-01     4.1777      5.307      7.695    16.4918 0.0000e+00
      5.423      0.059     0.0955      0.975     64.690  53.544772     3.2366      6.259   182.6511 1.2562e-01     4.2081      5.319      7.714    16.4497 0.0000e+00
      5.435      0.063     0.0956      0.976     64.656  53.477706     3.2466      6.259   182.0527 1.2562e-01     4.1879      5.330      7.731    16.4136 0.0000e+00
      5.449      0.065     0.0958      0.977     64.545  53.321218     3.2800      6.258   181.5371 1.2559e-01     4.0856      5.343      7.749    16.3969 0.0000e+00
      5.467      0.067     0.0972      0.990     64.535  53.242091     3.3372      6.257   181.2346 1.2558e-01     3.9787      5.360      7.773    16.3932 0.0000e+00
      5.488      0.067     0.0983      1.000     64.657  53.283855     3.3687      6.257   180.8916 1.2564e-01     3.9325      5.381      7.805    16.3901 0.0000e+00
      5.510      0.067     0.0986      1.002     64.827  53.381055     3.3668      6.256   180.4863 1.2568e-01     3.9242      5.406      7.840    16.3610 0.0000e+00
      5.528      0.063     0.0979      0.995     64.961  53.463583     3.3599      6.256   180.0342 1.2568e-01     3.9398      5.423      7.865    16.3024 0.0000e+00
      5.541      0.058     0.0971      0.987     65.055  53.518705     3.3588      6.256   179.6421 1.2567e-01     3.9687      5.433      7.880    16.2428 0.0000e+00
      5.554      0.053     0.0971      0.987     65.186  53.602455     3.3622      6.256   179.3587 1.2561e-01     3.9687      5.446      7.899    16.1960 0.0000e+00
      5.566      0.050     0.0961      0.976     65.433  53.776785     3.3639      6.256   179.0164 1.2555e-01     3.9393      5.459      7.918    16.1634 0.0000e+00
      5.578      0.050     0.0933      0.947     65.792  54.036963     3.4072      6.256   178.5148 1.2551e-01     3.8569      5.470      7.933    16.1445 0.0000e+00
      5.589      0.053     0.0920      0.934     66.128  54.268540     3.5006      6.255   178.0258 1.2550e-01     3.7666      5.481      7.950    16.1317 0.0000e+00
      5.600      0.055     0.0938      0.950     66.288  54.351349     3.5554      6.255   177.6645 1.2553e-01     3.7627      5.490      7.963    16.1119 0.0000e+00
      5.615      0.056     0.0962      0.974     66.316  54.338739     3.5548      6.255   177.1571 1.2556e-01     3.7795      5.504      7.984    16.0898 0.0000e+00
      5.634      0.056     0.0972      0.984     66.371  54.370362     3.4750      6.255   176.5380 1.2553e-01     3.6647      5.526      8.015    16.0663 0.0000e+00
      5.651      0.055     0.0964      0.976     66.504  54.479354     3.3258      6.254   176.1151 1.2549e-01     3.4120      5.545      8.041    16.0308 0.0000e+00
      5.664      0.053     0.0954      0.966     66.697  54.639219     3.2492      6.254   175.7442 1.2552e-01     3.2573      5.555      8.056    15.9890 0.0000e+00
      5.675      0.048     0.0961      0.974     66.946  54.840873     3.2482      6.255   175.2362 1.2557e-01     3.2898      5.566      8.072    15.9583 0.0000e+00
      5.686      0.044     0.0967      0.979     67.174  55.010014     3.2482      6.256   174.7046 1.2559e-01     3.3470      5.579      8.091    15.9516 0.0000e+00
      5.696      0.042     0.0945      0.956     67.324  55.094670     3.2496      6.256   174.2209 1.2554e-01     3.3390      5.588      8.103    15.9567 0.0000e+00
      5.706      0.042     0.0921      0.931     67.464  55.164961     3.2456      6.255   173.8625 1.2553e-01     3.3149      5.594      8.114    15.9555 0.0000e+00
      5.718      0.041     0.0912      0.921     67.590  55.223989     3.2377      6.254   173.6414 1.2557e-01     3.2997      5.607      8.133    15.9593 0.0000e+00
      5.730      0.041     0.0905      0.913     67.656  55.236054     3.2366      6.254   173.2678 1.2555e-01     3.2772      5.620      8.151    15.9511 0.0000e+00
      5.741      0.042     0.0892      0.900     67.711  55.247200     3.2141      6.254   172.6143 1.2558e-01     3.2872      5.628      8.164    15.9138 0.0000e+00
      5.751      0.043     0.0886      0.893     67.795  55.295131     3.1675      6.254   172.1077 1.2563e-01     3.3288      5.641      8.182    15.8804 0.0000e+00
      5.760      0.046     0.0881      0.888     67.904  55.370456     3.1327      6.253   171.8741 1.2558e-01     3.3524      5.650      8.194    15.8497 0.0000e+00
      5.768      0.049     0.0877      0.884     68.039  55.458493     3.1146      6.252   171.4251 1.2554e-01     3.3286      5.655      8.200    15.8141 0.0000e+00
      5.782      0.052     0.0887      0.894     68.178  55.532943     3.1139      6.251   170.8081 1.2556e-01     3.2549      5.669      8.222    15.7892 0.0000e+00
      5.799      0.055     0.0893      0.899     68.280  55.571124     3.1249      6.251   170.3509 1.2554e-01     3.1639      5.687      8.248    15.7748 0.0000e+00
      5.816      0.059     0.0908      0.914     68.362  55.602154     3.1280      6.251   169.9413 1.2551e-01     3.1122      5.703      8.271    15.7698 0.0000e+00
      5.831      0.061     0.0929      0.935     68.458  55.653732     3.1242      6.251   169.4696 1.2553e-01     3.1187      5.719      8.295    15.7566 0.0000e+00
      5.846      0.059     0.0919      0.924     68.535  55.686025     3.1340      6.252   168.9496 1.2554e-01     3.0902      5.731      8.313    15.7242 0.0000e+00
      5.861      0.055     0.0907      0.911     68.564  55.674631     3.1538      6.253   168.3860 1.2556e-01     2.9807      5.747      8.334    15.6866 0.0000e+00
      5.877      0.050     0.0912      0.916     68.566  55.643107     3.1705      6.254   167.9027 1.2556e-01     2.9234      5.765      8.361    15.6604 0.0000e+00
      5.891      0.044     0.0902      0.906     68.575  55.622764     3.1797      6.255   167.6663 1.2555e-01     2.9466      5.778      8.381    15.6465 0.0000e+00
      5.901      0.036     0.0906      0.910     68.595  55.619379     3.1457      6.255   167.5074 1.2555e-01     2.9566      5.788      8.394    15.6243 0.0000e+00
      5.908      0.028     0.0917      0.920     68.590  55.602155     3.0810      6.256   167.1856 1.2554e-01     2.9526      5.795      8.405    15.5952 0.0000e+00
      5.913      0.022     0.0901      0.904     68.599  55.605261     3.0500      6.258   166.8725 1.2551e-01     2.9294      5.799      8.412    15.5713 0.0000e+00
      5.916      0.020     0.0890      0.893     68.666  55.656926     3.0479      6.260   166.9059 1.2550e-01     2.8889      5.802      8.416    15.5507 0.0000e+00
      5.918      0.022     0.0886      0.889     68.757  55.718150     3.0546      6.260   167.0724 1.2552e-01     2.8912      5.804      8.419    15.5361 0.0000e+00
      5.921      0.027     0.0871      0.874     68.852  55.773213     3.0663      6.260   166.9076 1.2553e-01     2.9257      5.805      8.420    15.5254 0.0000e+00
      5.928      0.034     0.0868      0.870     68.926  55.813956     3.0610      6.260   166.4618 1.2552e-01     2.9407      5.810      8.428    15.5239 0.0000e+00
      5.939      0.042     0.0883      0.884     68.963  55.829223     3.0460      6.261   166.0705 1.2547e-01     2.9190      5.823      8.446    15.5287 0.0000e+00
      5.953      0.050     0.0888      0.889     68.986  55.830613     3.0500      6.262   166.0475 1.2540e-01     2.8780      5.838      8.467    15.5163 0.0000e+00
      5.968      0.056     0.0877      0.878     69.013  55.830751     3.1091      6.261   166.0983 1.2538e-01     2.8719      5.852      8.488    15.4964 0.0000e+00
      5.983      0.057     0.0864      0.865     69.044  55.830858     3.2006      6.261   165.8240 1.2541e-01     2.9058      5.867      8.509    15.4832 0.0000e+00
      5.998      0.054     0.0862      0.863     69.070  55.831881     3.2464      6.261   165.3977 1.2548e-01     2.9218      5.881      8.531    15.4742 0.0000e+00
      6.014      0.049     0.0875      0.875     69.093  55.843094     3.2491      6.262   165.0745 1.2553e-01     2.9124      5.898      8.555    15.4628 0.0000e+00
      6.029      0.043     0.0885      0.885     69.084  55.839248     3.2147      6.263   164.8413 1.2550e-01     2.8537      5.916      8.581    15.4468 0.0000e+00
      6.038      0.036     0.0879      0.880     69.011  55.785385     3.1532      6.264   164.4704 1.2551e-01     2.7609      5.924      8.592    15.4271 0.0000e+00
      6.043      0.031     0.0870      0.870     68.899  55.700547     3.1297      6.265   164.0319 1.2559e-01     2.7367      5.926      8.595    15.4080 0.0000e+00
      6.048      0.027     0.0857      0.857     68.815  55.640117     3.1323      6.266   163.5826 1.2560e-01     2.7451      5.931      8.602    15.4049 0.0000e+00
      6.053      0.026     0.0836      0.837     68.792  55.627016     3.1118      6.267   163.1683 1.2553e-01     2.7703      5.937      8.610    15.4102 0.0000e+00
      6.059      0.029     0.0830      0.831     68.859  55.669324     3.0751      6.268   162.9814 1.2548e-01     2.8272      5.941      8.617    15.4144 0.0000e+00
      6.067      0.034     0.0842      0.843     69.192  55.897304     3.0561      6.268   162.7857 1.2549e-01     2.8537      5.950      8.629    15.4172 0.0000e+00
      6.077      0.038     0.0850      0.849     69.849  56.348652     3.0564      6.268   162.2646 1.2549e-01     2.8768      5.959      8.642    15.4224 0.0000e+00
      6.087      0.042     0.0858      0.856     70.536  56.802425     3.0600      6.267   161.6702 1.2549e-01     2.8627      5.967      8.655    15.4328 0.0000e+00
      6.099      0.044     0.0868      0.864     70.955  57.059630     3.0634      6.267   161.3645 1.2551e-01     2.7745      5.981      8.674    15.4262 0.0000e+00
      6.113      0.044     0.0870      0.866     71.065  57.105563     3.0604      6.269   161.2354 1.2549e-01     2.6955      5.996      8.695    15.3997 0.0000e+00
      6.125      0.043     0.0876      0.872     71.010  57.039797     3.0512      6.269   160.9684 1.2549e-01     2.6702      6.007      8.713    15.3420 0.0000e+00
      6.134      0.042     0.0883      0.879     70.939  56.963931     3.0267      6.269   160.4599 1.2553e-01     2.7439      6.016      8.725    15.2536 0.0000e+00
      6.143      0.039     0.0891      0.886     70.943  56.951344     2.9927      6.270   160.0770 1.2553e-01     2.8541      6.025      8.738    15.1922 0.0000e+00
      6.153      0.037     0.0904      0.899     71.037  57.014771     2.9805      6.272   160.0389 1.2548e-01     2.9032      6.033      8.751    15.1710 0.0000e+00
      6.163      0.036     0.0913      0.908     71.158  57.094895     2.9891      6.272   159.9135 1.2547e-01     2.9414      6.044      8.766    15.1601 0.0000e+00
      6.172      0.036     0.0903      0.897     71.278  57.157006     2.9961      6.273   159.5077 1.2551e-01     2.9502      6.054      8.780    15.1453 0.0000e+00
      6.181      0.035     0.0888      0.882     71.403  57.193383     3.0181      6.274   159.1765 1.2552e-01     2.8563      6.062      8.792    15.1339 0.0000e+00
      6.189      0.034     0.0890      0.882     71.529  57.216694     3.0720      6.274   159.0056 1.2551e-01     2.7522      6.070      8.803    15.1283 0.0000e+00
      6.198      0.031     0.0901      0.892     71.654  57.247991     3.1148      6.275   158.8177 1.2551e-01     2.7288      6.077      8.815    15.1190 0.0000e+00
      6.207      0.028     0.0900      0.891     71.723  57.253752     3.1221      6.275   158.7122 1.2556e-01     2.7265      6.087      8.830    15.0997 0.0000e+00
      6.215      0.026     0.0883      0.874     71.725  57.222702     3.1141      6.275   158.6764 1.2563e-01     2.6633      6.096      8.841    15.0514 0.0000e+00
      6.220      0.023     0.0880      0.870     71.713  57.190486     3.1108      6.275   158.4710 1.2569e-01     2.5444      6.100      8.847    14.9870 0.0000e+00
      6.225      0.021     0.0888      0.878     71.732  57.182164     3.1187      6.275   158.2934 1.2572e-01     2.4795      6.105      8.854    14.9393 0.0000e+00
      6.229      0.019     0.0889      0.878     71.765  57.185646     3.1182      6.276   158.2494 1.2567e-01     2.4885      6.108      8.859    14.9046 0.0000e+00
      6.234      0.017     0.0880      0.869     71.765  57.168965     3.0760      6.277   158.0248 1.2562e-01     2.5917      6.112      8.865    14.8832 0.0000e+00
      6.238      0.017     0.0865      0.854     71.793  57.171238     3.0135      6.278   157.7284 1.2564e-01     2.7516      6.118      8.874    14.8729 0.0000e+00
      6.242      0.018     0.0848      0.837     71.963  57.276689     2.9872      6.278   157.5915 1.2561e-01     2.8342      6.122      8.879    14.8541 0.0000e+00
      6.246      0.020     0.0833      0.822     72.272  57.490056     2.9970      6.279   157.4024 1.2555e-01     2.8592      6.124      8.883    14.8359 0.0000e+00
      6.251      0.022     0.0831      0.820     72.592  57.716040     3.0588      6.279   157.0766 1.2553e-01     2.9004      6.130      8.891    14.8290 0.0000e+00
      6.257      0.024     0.0840      0.829     72.777  57.846852     3.1649      6.279   156.7497 1.2553e-01     2.9666      6.135      8.898    14.8161 0.0000e+00
      6.263      0.025     0.0850      0.838     72.795  57.863402     3.2234      6.279   156.3749 1.2556e-01     2.9574      6.141      8.907    14.7933 0.0000e+00
      6.271      0.025     0.0855      0.843     72.760  57.852554     3.2324      6.279   155.9874 1.2560e-01     2.8812      6.149      8.919    14.7684 0.0000e+00
      6.279      0.024     0.0855      0.844     72.726  57.842896     3.2456      6.281   155.6779 1.2558e-01     2.8076      6.158      8.931    14.7474 0.0000e+00
      6.285      0.024     0.0856      0.844     72.688  57.810245     3.2631      6.282   155.4719 1.2555e-01     2.7383      6.165      8.941    14.7341 0.0000e+00
      6.290      0.024     0.0846      0.834     72.695  57.775737     3.2696      6.282   155.3033 1.2558e-01     2.7143      6.169      8.948    14.7362 0.0000e+00
      6.293      0.026     0.0832      0.820     72.740  57.743580     3.2596      6.282   155.1020 1.2558e-01     2.7013      6.171      8.950    14.7526 0.0000e+00
      6.298      0.031     0.0830      0.816     72.814  57.739323     3.2161      6.282   154.9315 1.2555e-01     2.6427      6.175      8.955    14.7675 0.0000e+00
      6.307      0.039     0.0828      0.814     72.931  57.787791     3.1487      6.280   154.7905 1.2549e-01     2.5548      6.185      8.971    14.7740 0.0000e+00
      6.317      0.049     0.0827      0.813     73.101  57.884396     3.1148      6.278   154.6008 1.2544e-01     2.4932      6.195      8.985    14.7433 0.0000e+00
      6.328      0.058     0.0835      0.821     73.331  58.016998     3.1102      6.277   154.2726 1.2544e-01     2.4475      6.202      8.996    14.6849 0.0000e+00
      6.345      0.063     0.0857      0.841     73.539  58.119131     3.1109      6.277   153.9206 1.2548e-01     2.3985      6.221      9.021    14.6398 0.0000e+00
      6.369      0.065     0.0876      0.859     73.671  58.165288     3.1052      6.277   153.7003 1.2553e-01     2.2666      6.247      9.060    14.6120 0.0000e+00
      6.391      0.063     0.0878      0.861     73.763  58.193450     3.0782      6.277   153.5018 1.2553e-01     2.0121      6.268      9.092    14.5932 0.0000e+00
      6.407      0.057     0.0878      0.860     73.819  58.205200     3.0599      6.277   153.2409 1.2548e-01     1.8552      6.284      9.114    14.5589 0.0000e+00
      6.419      0.048     0.0882      0.863     73.814  58.180138     3.0587      6.278   153.0414 1.2549e-01     1.8645      6.295      9.130    14.5105 0.0000e+00
      6.428      0.038     0.0883      0.864     73.784  58.144773     3.0727      6.280   152.8959 1.2558e-01     1.9105      6.304      9.142    14.4683 0.0000e+00
      6.435      0.031     0.0880      0.861     73.814  58.159159     3.1004      6.281   152.6865 1.2560e-01     1.9230      6.312      9.154    14.4402 0.0000e+00
      6.441      0.027     0.0864      0.845     73.921  58.226878     3.1179      6.281   152.5742 1.2550e-01     1.9245      6.317      9.162    14.4196 0.0000e+00
      6.446      0.025     0.0849      0.831     74.076  58.327594     3.1190      6.282   152.5697 1.2541e-01     1.9292      6.322      9.168    14.4026 0.0000e+00
      6.451      0.025     0.0852      0.833     74.224  58.422949     3.0769      6.284   152.3751 1.2540e-01     1.8882      6.327      9.176    14.3982 0.0000e+00
      6.457      0.026     0.0846      0.827     74.343  58.489452     3.0129      6.285   152.0275 1.2539e-01     1.8561      6.333      9.185    14.3954 0.0000e+00
      6.464      0.030     0.0839      0.820     74.477  58.559287     2.9880      6.286   152.0674 1.2546e-01     1.8769      6.339      9.194    14.3827 0.0000e+00
      6.472      0.035     0.0832      0.812     74.612  58.631307     2.9874      6.287   152.4272 1.2561e-01     1.8957      6.346      9.205    14.3652 0.0000e+00
      6.482      0.042     0.0818      0.799     74.762  58.724245     2.9964      6.287   152.3346 1.2562e-01     1.8687      6.356      9.220    14.3545 0.0000e+00
      6.492      0.048     0.0818      0.799     74.957  58.856200     3.0152      6.286   151.8939 1.2551e-01     1.8258      6.366      9.233    14.3382 0.0000e+00
      6.503      0.051     0.0831      0.811     75.114  58.954808     3.0301      6.285   151.6585 1.2543e-01     1.8348      6.374      9.245    14.3088 0.0000e+00
      6.520      0.051     0.0844      0.823     75.231  59.026122     3.0386      6.286   151.6388 1.2546e-01     1.8853      6.393      9.272    14.2847 0.0000e+00
      6.539      0.049     0.0844      0.823     75.397  59.146047     3.0082      6.287   151.5700 1.2551e-01     1.9787      6.415      9.305    14.2691 0.0000e+00
      6.554      0.044     0.0839      0.818     75.557  59.260035     2.9477      6.288   151.3427 1.2551e-01     2.0796      6.431      9.328    14.2587 0.0000e+00
      6.562      0.038     0.0839      0.818     75.657  59.323162     2.9232      6.288   151.0407 1.2546e-01     2.0985      6.437      9.335    14.2402 0.0000e+00
      6.567      0.032     0.0834      0.813     75.759  59.400506     2.9321      6.288   150.6726 1.2545e-01     2.0855      6.440      9.339    14.2214 0.0000e+00
      6.573      0.027     0.0841      0.819     75.879  59.495608     3.0000      6.289   150.3335 1.2548e-01     2.0134      6.446      9.349    14.2218 0.0000e+00
      6.580      0.025     0.0864      0.841     76.097  59.646253     3.1188      6.290   150.2099 1.2549e-01     1.8670      6.453      9.359    14.2152 0.0000e+00
      6.587      0.027     0.0869      0.846     76.542  59.949919     3.1740      6.291   150.1251 1.2547e-01     1.7809      6.460      9.369    14.1964 0.0000e+00
      6.593      0.032     0.0859      0.836     77.064  60.305146     3.1712      6.291   149.9104 1.2544e-01     1.7349      6.466      9.378    14.1983 0.0000e+00
      6.599      0.038     0.0856      0.832     77.468  60.570361     3.1681      6.291   149.7657 1.2544e-01     1.7075      6.470      9.386    14.2085 0.0000e+00
      6.607      0.043     0.0862      0.838     77.737  60.739682     3.1539      6.291   149.5802 1.2548e-01     1.6633      6.476      9.393    14.1935 0.0000e+00
      6.621      0.047     0.0860      0.835     77.884  60.825879     3.1280      6.292   149.0435 1.2556e-01     1.5675      6.491      9.414    14.1595 0.0000e+00
      6.638      0.049     0.0842      0.818     77.934  60.849300     3.1131      6.293   148.3527 1.2562e-01     1.5253      6.511      9.443    14.1224 0.0000e+00
      6.655      0.049     0.0824      0.801     77.920  60.832032     3.1120      6.293   148.0245 1.2561e-01     1.5195      6.528      9.468    14.0884 0.0000e+00
      6.667      0.046     0.0811      0.788     77.890  60.807894     3.1142      6.294   147.8288 1.2554e-01     1.4974      6.540      9.486    14.0612 0.0000e+00
      6.677      0.040     0.0807      0.784     77.891  60.811859     3.1222      6.295   147.3628 1.2552e-01     1.5020      6.548      9.497    14.0424 0.0000e+00
      6.685      0.033     0.0810      0.787     77.887  60.816380     3.1247      6.297   146.9499 1.2552e-01     1.5135      6.556      9.508    14.0338 0.0000e+00
      6.692      0.026     0.0805      0.783     77.854  60.798961     3.1180      6.298   146.7086 1.2552e-01     1.4841      6.563      9.519    14.0307 0.0000e+00
      6.698      0.021     0.0807      0.785     77.835  60.792069     3.0874      6.298   146.5109 1.2557e-01     1.4220      6.570      9.529    14.0303 0.0000e+00
      6.702      0.017     0.0819      0.795     77.834  60.796658     3.0302      6.299   146.3663 1.2557e-01     1.3423      6.574      9.535    14.0328 0.0000e+00
      6.706      0.014     0.0819      0.796     77.822  60.790853     2.9953      6.300   146.1644 1.2551e-01     1.2829      6.576      9.539    14.0375 0.0000e+00
      6.710      0.012     0.0811      0.788     77.809  60.785489     2.9873      6.300   145.9629 1.2551e-01     1.2531      6.581      9.544    14.0439 0.0000e+00
      6.712      0.011     0.0794      0.772     77.814  60.795411     2.9789      6.301   145.9086 1.2555e-01     1.2874      6.583      9.547    14.0496 0.0000e+00
      6.714      0.012     0.0776      0.754     77.876  60.847221     2.9770      6.302   145.8522 1.2555e-01     1.3925      6.585      9.549    14.0527 0.0000e+00
      6.716      0.015     0.0781      0.759     78.192  61.093906     2.9827      6.302   145.7110 1.2555e-01     1.4558      6.587      9.552    14.0540 0.0000e+00
      6.719      0.023     0.0790      0.767     79.125  61.806331     2.9744      6.303   145.4921 1.2557e-01     1.4733      6.588      9.556    14.0570 0.0000e+00
      6.723      0.034     0.0792      0.769     80.508  62.846027     2.9594      6.303   145.3559 1.2551e-01     1.4512      6.593      9.562    14.0619 0.0000e+00
      6.731      0.046     0.0798      0.775     81.558  63.614667     2.9580      6.302   145.3555 1.2544e-01     1.3415      6.599      9.570    14.0640 0.0000e+00
      6.745      0.056     0.0796      0.772     81.997  63.911927     2.9670      6.302   145.2289 1.2546e-01     1.2457      6.610      9.587    14.0665 0.0000e+00
      6.765      0.062     0.0801      0.777     82.181  64.022861     2.9849      6.302   145.0289 1.2553e-01     1.2385      6.633      9.620    14.0599 0.0000e+00
      6.789      0.064     0.0817      0.793     82.426  64.192566     2.9814      6.302   144.8313 1.2557e-01     1.2547      6.660      9.660    14.0309 0.0000e+00
      6.808      0.061     0.0810      0.785     82.761  64.437068     2.9434      6.302   144.5599 1.2558e-01     1.2580      6.680      9.688    13.9942 0.0000e+00
      6.822      0.056     0.0794      0.769     83.181  64.752594     2.9204      6.303   144.2434 1.2560e-01     1.2481      6.691      9.704    13.9656 0.0000e+00
      6.832      0.051     0.0790      0.765     83.779  65.208464     2.9243      6.304   143.8433 1.2555e-01     1.2570      6.699      9.716    13.9469 0.0000e+00
      6.842      0.046     0.0790      0.765     84.324  65.623020     2.9262      6.304   143.4216 1.2549e-01     1.2742      6.709      9.731    13.9346 0.0000e+00
      6.852      0.043     0.0780      0.755     84.591  65.820671     2.9333      6.305   143.1026 1.2549e-01     1.2731      6.720      9.745    13.9257 0.0000e+00
      6.863      0.041     0.0768      0.744     84.681  65.880540     2.9554      6.305   142.8258 1.2555e-01     1.2736      6.730      9.760    13.9190 0.0000e+00
      6.876      0.038     0.0760      0.736     84.800  65.965173     2.9729      6.306   142.4843 1.2559e-01     1.2497      6.744      9.782    13.9138 0.0000e+00
      6.887      0.035     0.0750      0.726     85.120  66.207751     2.9787      6.308   142.0712 1.2555e-01     1.2287      6.756      9.798    13.9082 0.0000e+00
      6.895      0.033     0.0766      0.742     85.531  66.523199     2.9616      6.310   141.6167 1.2554e-01     1.2938      6.762      9.807    13.9014 0.0000e+00
      6.900      0.032     0.0804      0.778     85.796  66.725442     2.9314      6.310   141.2902 1.2558e-01     1.4273      6.767      9.815    13.8957 0.0000e+00
      6.905      0.033     0.0819      0.793     85.830  66.744410     2.9267      6.311   141.3076 1.2553e-01     1.4997      6.771      9.821    13.8909 0.0000e+00
      6.912      0.038     0.0801      0.775     85.772  66.688915     2.9320      6.312   141.3968 1.2545e-01     1.4980      6.778      9.831    13.8873 0.0000e+00
      6.922      0.047     0.0785      0.760     85.876  66.754271     2.9407      6.312   141.1643 1.2551e-01     1.3759      6.788      9.846    13.8851 0.0000e+00
      6.934      0.055     0.0785      0.760     86.090  66.898389     2.9671      6.313   140.9053 1.2561e-01     1.1217      6.799      9.861    13.8840 0.0000e+00
      6.950      0.060     0.0780      0.754     86.209  66.968097     2.9850      6.314   140.7604 1.2560e-01     0.9878      6.813      9.881    13.8795 0.0000e+00
      6.972      0.061     0.0774      0.748     86.302  67.024479     2.9914      6.314   140.3594 1.2551e-01     1.0084      6.837      9.914    13.8727 0.0000e+00
      6.993      0.058     0.0771      0.745     86.374  67.071098     3.0164      6.315   139.8428 1.2542e-01     1.0348      6.861      9.952    13.8652 0.0000e+00
      7.008      0.053     0.0769      0.743     86.321  67.022772     3.0480      6.316   139.5895 1.2549e-01     1.0330      6.875      9.972    13.8509 0.0000e+00
      7.017      0.045     0.0774      0.748     86.235  66.949142     3.0529      6.317   139.4485 1.2557e-01     1.0171      6.881      9.980    13.8353 0.0000e+00
      7.025      0.035     0.0768      0.743     86.150  66.880690     3.0475      6.318   139.0839 1.2555e-01     0.9953      6.889      9.991    13.8265 0.0000e+00
      7.033      0.028     0.0754      0.729     86.082  66.831350     3.0387      6.320   138.7090 1.2560e-01     1.0447      6.898     10.004    13.8228 0.0000e+00
      7.039      0.024     0.0741      0.717     86.193  66.925177     3.0197      6.321   138.5294 1.2562e-01     1.1866      6.904     10.014    13.8183 0.0000e+00
      7.044      0.024     0.0741      0.717     86.532  67.188059     3.0106      6.321   138.2883 1.2553e-01     1.2767      6.909     10.021    13.8139 0.0000e+00
      7.048      0.025     0.0759      0.733     86.985  67.528534     3.0020      6.322   137.8588 1.2546e-01     1.2790      6.912     10.025    13.8119 0.0000e+00
      7.052      0.029     0.0765      0.739     87.434  67.860614     2.9798      6.324   137.2947 1.2546e-01     1.2754      6.916     10.029    13.8135 0.0000e+00
      7.060      0.034     0.0758      0.733     87.744  68.085584     2.9636      6.324   136.7161 1.2548e-01     1.2945      6.923     10.040    13.8210 0.0000e+00
      7.070      0.041     0.0752      0.727     87.847  68.148974     2.9709      6.325   136.3687 1.2550e-01     1.2961      6.933     10.056    13.8227 0.0000e+00
      7.081      0.050     0.0746      0.720     87.828  68.118025     2.9857      6.326   136.1917 1.2556e-01     1.2640      6.944     10.071    13.8132 0.0000e+00
      7.095      0.056     0.0749      0.723     87.810  68.093115     2.9864      6.327   135.6955 1.2565e-01     1.2420      6.956     10.088    13.8026 0.0000e+00
      7.111      0.058     0.0770      0.744     87.825  68.102280     3.0069      6.329   135.0141 1.2565e-01     1.1828      6.971     10.111    13.7953 0.0000e+00
      7.130      0.058     0.0783      0.756     87.824  68.101587     3.0683      6.330   134.6644 1.2560e-01     1.0664      6.992     10.141    13.7860 0.0000e+00
      7.148      0.055     0.0762      0.735     87.804  68.084733     3.1129      6.331   134.2211 1.2558e-01     1.0252      7.012     10.170    13.7740 0.0000e+00
      7.162      0.049     0.0736      0.710     87.822  68.089382     3.1145      6.333   133.5258 1.2559e-01     1.0515      7.025     10.189    13.7678 0.0000e+00
      7.173      0.042     0.0730      0.704     87.849  68.094157     3.0962      6.335   133.2270 1.2559e-01     1.0481      7.034     10.202    13.7680 0.0000e+00
      7.181      0.036     0.0736      0.709     87.854  68.078822     3.0759      6.337   133.1038 1.2550e-01     1.0146      7.043     10.215    13.7692 0.0000e+00
      7.187      0.033     0.0746      0.719     87.901  68.094819     3.0708      6.338   132.4658 1.2542e-01     1.0128      7.050     10.224    13.7693 0.0000e+00
      7.193      0.033     0.0754      0.727     88.014  68.160301     3.0712      6.340   131.5362 1.2544e-01     1.0577      7.053     10.230    13.7642 0.0000e+00
      7.201      0.034     0.0754      0.727     88.136  68.234268     3.0632      6.342   130.9839 1.2549e-01     1.0987      7.060     10.240    13.7535 0.0000e+00
      7.211      0.034     0.0755      0.728     88.227  68.289235     3.0565      6.344   130.6916 1.2555e-01     1.1742      7.071     10.255    13.7418 0.0000e+00
      7.224      0.034     0.0755      0.728     88.272  68.315871     3.0545      6.345   130.1533 1.2557e-01     1.2684      7.084     10.275    13.7309 0.0000e+00
      7.234      0.032     0.0747      0.720     88.252  68.301802     3.0570      6.346   129.4666 1.2554e-01     1.2906      7.096     10.292    13.7185 0.0000e+00
      7.241      0.029     0.0746      0.719     88.165  68.246388     3.0680      6.347   128.9279 1.2551e-01     1.2595      7.102     10.301    13.7050 0.0000e+00
      7.246      0.025     0.0749      0.723     88.103  68.218517     3.0873      6.349   128.5437 1.2550e-01     1.2288      7.106     10.307    13.6959 0.0000e+00
      7.251      0.022     0.0746      0.720     88.079  68.219344     3.1060      6.350   128.0908 1.2555e-01     1.2240      7.111     10.314    13.6915 0.0000e+00
      7.256      0.022     0.0751      0.724     87.953  68.129157     3.1190      6.351   127.5812 1.2553e-01     1.2629      7.116     10.321    13.6911 0.0000e+00
      7.261      0.025     0.0761      0.734     87.660  67.891606     3.1433      6.352   127.2002 1.2547e-01     1.3025      7.119     10.327    13.6989 0.0000e+00
      7.266      0.031     0.0772      0.744     87.289  67.574016     3.1803      6.353   127.0982 1.2548e-01     1.3060      7.125     10.334    13.7126 0.0000e+00
      7.272      0.039     0.0783      0.754     87.040  67.343157     3.1985      6.353   127.1228 1.2555e-01     1.2743      7.130     10.342    13.7249 0.0000e+00
      7.282      0.045     0.0776      0.748     86.979  67.263500     3.1980      6.354   126.8083 1.2560e-01     1.2243      7.139     10.353    13.7312 0.0000e+00
      7.297      0.050     0.0764      0.736     86.985  67.247094     3.2474      6.356   126.3935 1.2562e-01     1.1601      7.155     10.377    13.7262 0.0000e+00
      7.316      0.052     0.0756      0.728     87.033  67.272009     3.3543      6.357   126.1523 1.2555e-01     1.0773      7.175     10.407    13.7059 0.0000e+00
      7.333      0.052     0.0736      0.709     87.175  67.373859     3.4248      6.359   125.7845 1.2539e-01     1.0472      7.193     10.431    13.6801 0.0000e+00
      7.344      0.053     0.0741      0.713     87.627  67.715060     3.4378      6.361   125.3017 1.2534e-01     1.0707      7.203     10.446    13.6608 0.0000e+00
      7.353      0.055     0.0767      0.738     88.702  68.534305     3.4288      6.362   124.8746 1.2544e-01     1.0877      7.210     10.458    13.6494 0.0000e+00
      7.362      0.059     0.0766      0.737     90.074  69.580384     3.3628      6.362   124.4931 1.2550e-01     1.1300      7.218     10.469    13.6428 0.0000e+00
      7.377      0.063     0.0747      0.718     90.872  70.182437     3.2457      6.361   124.1298 1.2556e-01     1.2155      7.231     10.488    13.6395 0.0000e+00
      7.397      0.064     0.0731      0.703     90.929  70.214163     3.1802      6.361   123.6660 1.2561e-01     1.2674      7.252     10.519    13.6360 0.0000e+00
      7.421      0.062     0.0717      0.690     91.029  70.282148     3.1692      6.362   123.1873 1.2558e-01     1.2694      7.278     10.556    13.6291 0.0000e+00
      7.442      0.059     0.0726      0.699     91.640  70.749880     3.1495      6.364   122.7294 1.2552e-01     1.2701      7.301     10.589    13.6209 0.0000e+00
      7.455      0.056     0.0744      0.717     92.508  71.415073     3.1255      6.366   122.1739 1.2549e-01     1.2756      7.313     10.607    13.6128 0.0000e+00
      7.461      0.053     0.0726      0.699     93.063  71.834095     3.1174      6.366   121.6322 1.2554e-01     1.2750      7.316     10.611    13.6050 0.0000e+00
      7.468      0.049     0.0719      0.692     93.045  71.807101     3.1162      6.365   121.0842 1.2560e-01     1.2623      7.320     10.617    13.5999 0.0000e+00
      7.482      0.046     0.0744      0.715     93.035  71.788711     3.1106      6.365   120.4526 1.2558e-01     1.2440      7.335     10.638    13.5986 0.0000e+00
      7.501      0.046     0.0752      0.724     93.228  71.929931     3.1140      6.367   119.8457 1.2550e-01     1.2374      7.359     10.673    13.5972 0.0000e+00
      7.516      0.044     0.0748      0.719     93.145  71.859976     3.1298      6.367   119.2533 1.2545e-01     1.2433      7.374     10.695    13.5921 0.0000e+00
      7.523      0.040     0.0745      0.717     92.860  71.642910     3.1364      6.367   118.6250 1.2549e-01     1.2551      7.377     10.700    13.5835 0.0000e+00
      7.530      0.033     0.0735      0.707     92.700  71.532727     3.1204      6.368   118.0999 1.2552e-01     1.1962      7.385     10.710    13.5775 0.0000e+00
      7.539      0.028     0.0722      0.695     92.705  71.545972     3.1017      6.369   117.7214 1.2552e-01     1.0809      7.395     10.725    13.5742 0.0000e+00
      7.545      0.027     0.0721      0.694     92.801  71.612153     3.1034      6.370   117.3188 1.2548e-01     1.0508      7.400     10.733    13.5687 0.0000e+00
      7.549      0.031     0.0727      0.700     92.851  71.632903     3.1131      6.371   116.8452 1.2548e-01     1.0764      7.403     10.737    13.5691 0.0000e+00
      7.554      0.039     0.0742      0.714     92.834  71.605929     3.1455      6.371   116.5554 1.2555e-01     1.1159      7.408     10.743    13.5807 0.0000e+00
      7.563      0.052     0.0762      0.732     92.757  71.540537     3.2102      6.370   116.3969 1.2551e-01     1.1927      7.415     10.754    13.5893 0.0000e+00
      7.577      0.068     0.0754      0.725     92.521  71.351340     3.2437      6.369   116.2189 1.2545e-01     1.2419      7.429     10.775    13.5827 0.0000e+00
      7.595      0.081     0.0738      0.710     92.304  71.163813     3.2377      6.369   115.9518 1.2551e-01     1.2226      7.447     10.801    13.5693 0.0000e+00
      7.619      0.089     0.0744      0.715     92.197  71.054962     3.2193      6.370   115.3173 1.2557e-01     1.1427      7.468     10.830    13.5611 0.0000e+00
      7.653      0.091     0.0748      0.718     91.886  70.798828     3.1870      6.372   114.4847 1.2557e-01     1.0697      7.504     10.885    13.5599 0.0000e+00
      7.686      0.087     0.0738      0.709     91.491  70.485021     3.1689      6.374   113.8008 1.2556e-01     1.0714      7.543     10.941    13.5596 0.0000e+00
      7.707      0.079     0.0721      0.693     91.291  70.315190     3.1746      6.376   113.1575 1.2558e-01     1.0728      7.561     10.966    13.5470 0.0000e+00
      7.719      0.069     0.0704      0.676     91.012  70.081695     3.1740      6.378   112.5575 1.2563e-01     1.0558      7.568     10.977    13.5277 0.0000e+00
      7.731      0.060     0.0693      0.665     90.620  69.761698     3.1521      6.380   112.2245 1.2564e-01     1.1407      7.582     10.996    13.5199 0.0000e+00
      7.744      0.058     0.0698      0.670     90.550  69.691344     3.1215      6.381   111.8840 1.2556e-01     1.3048      7.596     11.017    13.5194 0.0000e+00
      7.755      0.061     0.0713      0.684     90.796  69.867356     3.1080      6.383   111.2805 1.2549e-01     1.3927      7.604     11.029    13.5091 0.0000e+00
      7.769      0.065     0.0728      0.698     90.955  69.980888     3.1083      6.384   110.7775 1.2549e-01     1.4398      7.615     11.045    13.4969 0.0000e+00
      7.789      0.065     0.0739      0.709     90.960  69.982298     3.0785      6.385   110.5344 1.2552e-01     1.4471      7.636     11.075    13.4890 0.0000e+00
      7.814      0.061     0.0729      0.698     90.995  70.011664     3.0227      6.386   109.9766 1.2557e-01     1.3592      7.664     11.116    13.4787 0.0000e+00
      7.836      0.053     0.0721      0.691     91.083  70.081428     2.9949      6.387   109.0229 1.2564e-01     1.2924      7.689     11.153    13.4706 0.0000e+00
      7.847      0.043     0.0726      0.696     91.138  70.125845     2.9899      6.389   108.2949 1.2564e-01     1.2499      7.698     11.166    13.4652 0.0000e+00
      7.850      0.031     0.0731      0.701     91.193  70.166912     2.9999      6.391   107.7137 1.2561e-01     1.1511      7.697     11.164    13.4647 0.0000e+00
      7.853      0.023     0.0742      0.711     91.232  70.196179     3.0326      6.392   107.0720 1.2558e-01     1.0446      7.701     11.169    13.4673 0.0000e+00
      7.857      0.023     0.0752      0.721     91.349  70.288808     3.0544      6.394   106.5590 1.2555e-01     1.0296      7.706     11.176    13.4679 0.0000e+00
      7.858      0.030     0.0744      0.713     91.806  70.650546     3.0619      6.394   106.1571 1.2555e-01     1.0611      7.706     11.177    13.4698 0.0000e+00
      7.862      0.040     0.0731      0.701     92.582  71.260959     3.0947      6.395   105.7405 1.2555e-01     1.1197      7.707     11.179    13.4685 0.0000e+00
      7.874      0.049     0.0741      0.711     93.465  71.942094     3.1478      6.397   105.2210 1.2554e-01     1.2197      7.718     11.195    13.4671 0.0000e+00
      7.894      0.056     0.0748      0.717     93.991  72.331448     3.1716      6.398   104.6086 1.2554e-01     1.2627      7.742     11.229    13.4683 0.0000e+00
      7.916      0.059     0.0729      0.699     93.781  72.150278     3.1713      6.398   104.1868 1.2559e-01     1.2740      7.765     11.262    13.4736 0.0000e+00
      7.933      0.055     0.0708      0.679     93.319  71.788015     3.1438      6.399   103.9071 1.2566e-01     1.2947      7.779     11.283    13.4848 0.0000e+00
      7.948      0.046     0.0703      0.674     93.123  71.642392     3.0872      6.400   103.3769 1.2566e-01     1.2999      7.794     11.305    13.4871 0.0000e+00
      7.959      0.036     0.0708      0.679     93.147  71.662330     3.0564      6.400   102.7672 1.2561e-01     1.3059      7.808     11.324    13.4758 0.0000e+00
      7.964      0.028     0.0719      0.690     93.549  71.965447     3.0472      6.401   102.5575 1.2555e-01     1.3059      7.811     11.329    13.4603 0.0000e+00
      7.966      0.028     0.0725      0.695     94.597  72.761796     3.0406      6.401   102.5626 1.2551e-01     1.3006      7.811     11.328    13.4571 0.0000e+00
      7.967      0.035     0.0718      0.688     95.860  73.717700     3.0505      6.401   102.2261 1.2551e-01     1.3022      7.813     11.332    13.4654 0.0000e+00
      7.971      0.046     0.0711      0.681     96.639  74.295076     3.0565      6.401   101.7591 1.2550e-01     1.2947      7.815     11.335    13.4656 0.0000e+00
      7.982      0.057     0.0705      0.676     96.797  74.396689     3.0484      6.402   101.4752 1.2549e-01     1.2717      7.823     11.345    13.4605 0.0000e+00
      8.005      0.063     0.0705      0.676     96.700  74.309809     3.0536      6.402   101.1169 1.2551e-01     1.2374      7.849     11.383    13.4570 0.0000e+00
      8.034      0.065     0.0710      0.681     96.730  74.326592     3.0825      6.403   100.6968 1.2551e-01     1.2162      7.882     11.432    13.4489 0.0000e+00
      8.057      0.061     0.0718      0.688     96.841  74.408664     3.1128      6.403   100.3539 1.2544e-01     1.2284      7.906     11.467    13.4358 0.0000e+00
      8.069      0.052     0.0723      0.693     96.847  74.411090     3.1174      6.402    99.8964 1.2538e-01     1.2328      7.916     11.480    13.4239 0.0000e+00
      8.074      0.039     0.0726      0.696     96.774  74.355926     3.1106      6.402    99.3807 1.2539e-01     1.2392      7.916     11.481    13.4184 0.0000e+00
      8.080      0.027     0.0736      0.706     96.630  74.250859     3.0853      6.404    98.9370 1.2545e-01     1.2742      7.923     11.492    13.4162 0.0000e+00
      8.087      0.022     0.0740      0.710     96.503  74.159061     3.0325      6.405    98.5759 1.2552e-01     1.2901      7.934     11.507    13.4148 0.0000e+00
      8.091      0.027     0.0719      0.690     96.636  74.264332     2.9950      6.405    98.3701 1.2556e-01     1.2784      7.935     11.509    13.4134 0.0000e+00
      8.093      0.041     0.0696      0.667     96.878  74.441706     2.9819      6.405    98.0829 1.2554e-01     1.2556      7.936     11.510    13.4132 0.0000e+00
      8.097      0.057     0.0693      0.664     96.938  74.457946     3.0021      6.405    97.5980 1.2547e-01     1.2589      7.939     11.513    13.4173 0.0000e+00
      8.108      0.073     0.0699      0.669     96.910  74.397008     3.0467      6.406    97.1543 1.2546e-01     1.2879      7.944     11.520    13.4197 0.0000e+00
      8.137      0.087     0.0712      0.681     96.959  74.404963     3.0618      6.407    96.7619 1.2550e-01     1.2704      7.975     11.567    13.4235 0.0000e+00
      8.176      0.098     0.0727      0.695     97.100  74.490453     3.0561      6.408    96.3806 1.2550e-01     1.2295      8.022     11.636    13.4233 0.0000e+00
      8.207      0.103     0.0747      0.714     97.196  74.539577     3.0876      6.409    95.9858 1.2549e-01     1.2218      8.053     11.679    13.4037 0.0000e+00
      8.229      0.098     0.0772      0.738     97.163  74.489719     3.1489      6.410    95.5162 1.2550e-01     1.2083      8.068     11.701    13.3783 0.0000e+00
      8.251      0.088     0.0780      0.746     97.061  74.396777     3.1817      6.412    95.1772 1.2552e-01     1.1883      8.090     11.733    13.3648 0.0000e+00
      8.274      0.079     0.0764      0.730     96.863  74.243199     3.1808      6.414    94.9837 1.2551e-01     1.2237      8.118     11.773    13.3554 0.0000e+00
      8.293      0.075     0.0732      0.700     96.504  73.969372     3.1654      6.415    94.7256 1.2551e-01     1.2695      8.135     11.799    13.3418 0.0000e+00
      8.306      0.074     0.0715      0.683     96.152  73.695412     3.1430      6.416    94.3787 1.2545e-01     1.2835      8.144     11.812    13.3271 0.0000e+00
      8.321      0.073     0.0705      0.675     95.955  73.540190     3.1309      6.417    93.9742 1.2537e-01     1.2717      8.156     11.830    13.3183 0.0000e+00
      8.343      0.071     0.0687      0.657     95.811  73.429108     3.1197      6.418    93.5346 1.2538e-01     1.2488      8.181     11.865    13.3203 0.0000e+00
      8.366      0.069     0.0682      0.652     95.740  73.370608     3.0811      6.418    93.0201 1.2546e-01     1.2505      8.206     11.903    13.3232 0.0000e+00
      8.385      0.065     0.0688      0.658     95.797  73.405655     3.0231      6.419    92.5720 1.2556e-01     1.2616      8.224     11.928    13.3192 0.0000e+00
      8.401      0.059     0.0696      0.666     95.807  73.407350     2.9883      6.421    92.3322 1.2555e-01     1.2619      8.239     11.949    13.3155 0.0000e+00
      8.413      0.054     0.0699      0.668     95.700  73.327452     2.9904      6.423    92.1000 1.2552e-01     1.2540      8.252     11.968    13.3172 0.0000e+00
      8.423      0.049     0.0700      0.668     95.448  73.139679     3.0120      6.424    91.5707 1.2555e-01     1.2577      8.261     11.981    13.3165 0.0000e+00
      8.433      0.049     0.0710      0.678     94.910  72.728068     3.0384      6.425    90.9232 1.2555e-01     1.2457      8.269     11.993    13.3083 0.0000e+00
      8.445      0.052     0.0721      0.688     94.367  72.296441     3.0523      6.427    90.6387 1.2550e-01     1.1997      8.282     12.012    13.3045 0.0000e+00
      8.458      0.056     0.0720      0.687     94.270  72.184791     3.0506      6.427    90.2807 1.2550e-01     1.1902      8.294     12.030    13.3081 0.0000e+00
      8.472      0.058     0.0708      0.676     94.347  72.205401     3.0454      6.428    89.6063 1.2556e-01     1.2222      8.306     12.047    13.3104 0.0000e+00
      8.491      0.060     0.0708      0.676     94.081  71.972844     3.0632      6.429    89.1108 1.2560e-01     1.2512      8.326     12.077    13.3144 0.0000e+00
      8.510      0.061     0.0723      0.691     93.544  71.536628     3.1012      6.430    88.8494 1.2555e-01     1.2657      8.348     12.109    13.3091 0.0000e+00
      8.524      0.058     0.0720      0.687     93.212  71.258487     3.1182      6.431    88.5109 1.2552e-01     1.2757      8.360     12.126    13.2825 0.0000e+00
      8.537      0.053     0.0701      0.669     93.181  71.218962     3.1121      6.432    87.9423 1.2555e-01     1.2801      8.370     12.140    13.2590 0.0000e+00
      8.553      0.049     0.0693      0.661     93.226  71.249625     3.0913      6.433    87.5676 1.2559e-01     1.2581      8.387     12.165    13.2478 0.0000e+00
      8.566      0.049     0.0707      0.674     93.145  71.183771     3.0600      6.433    87.3362 1.2563e-01     1.2542      8.403     12.187    13.2339 0.0000e+00
      8.573      0.054     0.0736      0.702     92.673  70.804526     3.0466      6.434    86.8647 1.2564e-01     1.2641      8.409     12.195    13.2185 0.0000e+00
      8.580      0.060     0.0756      0.721     92.124  70.355007     3.0486      6.434    86.4272 1.2561e-01     1.2555      8.410     12.199    13.2092 0.0000e+00
      8.593      0.065     0.0752      0.716     91.967  70.203062     3.0471      6.435    86.0899 1.2558e-01     1.3015      8.423     12.216    13.2101 0.0000e+00
      8.617      0.067     0.0752      0.716     91.963  70.176377     3.0468      6.435    85.7123 1.2558e-01     1.3931      8.449     12.254    13.2119 0.0000e+00
      8.646      0.067     0.0765      0.729     91.875  70.095959     3.0456      6.435    85.3028 1.2558e-01     1.4476      8.481     12.302    13.2010 0.0000e+00
      8.667      0.064     0.0766      0.730     91.917  70.121572     3.0420      6.436    84.8378 1.2556e-01     1.4722      8.504     12.335    13.1814 0.0000e+00
      8.678      0.056     0.0747      0.712     92.228  70.358790     3.0399      6.437    84.6511 1.2556e-01     1.4462      8.510     12.343    13.1624 0.0000e+00
      8.686      0.046     0.0716      0.682     92.543  70.609707     3.0378      6.437    84.6796 1.2560e-01     1.3474      8.517     12.353    13.1495 0.0000e+00
      8.696      0.039     0.0707      0.674     92.605  70.673699     3.0441      6.438    84.4086 1.2558e-01     1.2846      8.529     12.369    13.1432 0.0000e+00
      8.705      0.039     0.0723      0.689     92.446  70.559822     3.0526      6.438    83.9555 1.2554e-01     1.2974      8.538     12.382    13.1398 0.0000e+00
      8.713      0.044     0.0725      0.691     92.307  70.441882     3.0482      6.438    83.7614 1.2560e-01     1.3499      8.544     12.392    13.1379 0.0000e+00
      8.722      0.052     0.0723      0.688     92.368  70.456737     3.0457      6.438    83.8681 1.2565e-01     1.4312      8.553     12.404    13.1444 0.0000e+00
      8.733      0.060     0.0718      0.683     92.455  70.484853     3.0503      6.438    83.6974 1.2565e-01     1.4863      8.562     12.418    13.1578 0.0000e+00
      8.750      0.066     0.0710      0.675     92.466  70.463609     3.0498      6.438    83.3322 1.2562e-01     1.4981      8.578     12.441    13.1636 0.0000e+00
      8.773      0.068     0.0710      0.675     92.476  70.454386     3.0209      6.437    83.1518 1.2557e-01     1.4206      8.603     12.478    13.1574 0.0000e+00
      8.797      0.066     0.0704      0.670     92.464  70.436960     2.9666      6.436    82.8070 1.2556e-01     1.2814      8.629     12.516    13.1379 0.0000e+00
      8.816      0.061     0.0695      0.661     92.478  70.443795     2.9357      6.434    82.3467 1.2557e-01     1.2494      8.649     12.543    13.1129 0.0000e+00
      8.829      0.055     0.0692      0.659     92.597  70.537020     2.9320      6.434    82.1460 1.2554e-01     1.2788      8.660     12.561    13.0961 0.0000e+00
      8.837      0.050     0.0687      0.654     92.771  70.673270     2.9311      6.435    82.0152 1.2549e-01     1.2399      8.666     12.571    13.0887 0.0000e+00
      8.845      0.049     0.0688      0.655     92.890  70.754868     2.9435      6.436    81.6257 1.2543e-01     1.2370      8.673     12.579    13.0854 0.0000e+00
      8.854      0.052     0.0698      0.663     92.930  70.759995     2.9717      6.436    81.1367 1.2546e-01     1.3040      8.682     12.592    13.0823 0.0000e+00
      8.868      0.056     0.0712      0.677     92.934  70.735229     2.9873      6.436    80.8347 1.2555e-01     1.3181      8.695     12.612    13.0843 0.0000e+00
      8.888      0.058     0.0725      0.688     92.924  70.709925     2.9848      6.435    80.7272 1.2561e-01     1.2853      8.716     12.641    13.0903 0.0000e+00
      8.908      0.056     0.0729      0.692     92.934  70.708567     2.9690      6.435    80.5247 1.2567e-01     1.2124      8.738     12.672    13.0869 0.0000e+00
      8.926      0.052     0.0739      0.701     92.953  70.718799     2.9430      6.435    80.1072 1.2562e-01     1.1079      8.756     12.699    13.0686 0.0000e+00
      8.937      0.047     0.0747      0.709     92.933  70.706360     2.9277      6.434    79.7234 1.2551e-01     1.0602      8.767     12.716    13.0500 0.0000e+00
      8.944      0.042     0.0739      0.701     92.896  70.685446     2.9223      6.434    79.4985 1.2546e-01     1.0625      8.771     12.721    13.0421 0.0000e+00
      8.950      0.040     0.0726      0.690     92.938  70.720470     2.9145      6.434    79.3670 1.2546e-01     1.1662      8.775     12.727    13.0383 0.0000e+00
      8.959      0.040     0.0718      0.682     93.076  70.811663     2.9067      6.434    79.1656 1.2548e-01     1.3679      8.784     12.741    13.0357 0.0000e+00
      8.970      0.045     0.0707      0.671     93.152  70.833528     2.9021      6.433    78.8703 1.2548e-01     1.4569      8.797     12.759    13.0372 0.0000e+00
      8.982      0.050     0.0698      0.662     93.168  70.793883     2.8956      6.433    78.6353 1.2546e-01     1.4184      8.808     12.776    13.0428 0.0000e+00
      8.996      0.055     0.0699      0.663     93.214  70.777696     2.8829      6.433    78.3898 1.2546e-01     1.4201      8.821     12.794    13.0473 0.0000e+00
      9.012      0.055     0.0707      0.671     93.249  70.765028     2.8681      6.433    78.0533 1.2547e-01     1.4781      8.838     12.818    13.0421 0.0000e+00
      9.029      0.054     0.0719      0.681     93.289  70.767933     2.8546      6.433    77.7495 1.2549e-01     1.5088      8.854     12.842    13.0207 0.0000e+00
      9.044      0.051     0.0723      0.686     93.378  70.812796     2.8485      6.433    77.4700 1.2555e-01     1.4865      8.869     12.864    12.9889 0.0000e+00
      9.057      0.047     0.0723      0.686     93.473  70.861996     2.8669      6.432    77.1690 1.2555e-01     1.3918      8.884     12.885    12.9595 0.0000e+00
      9.067      0.044     0.0728      0.690     93.568  70.917336     2.9027      6.432    76.9493 1.2547e-01     1.2783      8.892     12.897    12.9384 0.0000e+00
      9.074      0.043     0.0730      0.691     93.818  71.100067     2.9224      6.432    76.7072 1.2553e-01     1.2446      8.898     12.905    12.9257 0.0000e+00
      9.083      0.044     0.0726      0.688     94.158  71.353216     2.9220      6.431    76.3926 1.2559e-01     1.2582      8.907     12.919    12.9148 0.0000e+00
      9.094      0.046     0.0715      0.678     94.275  71.432684     2.9161      6.430    76.2420 1.2554e-01     1.2602      8.918     12.935    12.9011 0.0000e+00
      9.107      0.047     0.0715      0.678     94.194  71.360909     2.9156      6.430    76.0906 1.2555e-01     1.2691      8.929     12.951    12.8901 0.0000e+00
      9.124      0.046     0.0738      0.699     94.140  71.312646     2.9161      6.430    75.6814 1.2554e-01     1.2742      8.947     12.977    12.8887 0.0000e+00
      9.139      0.042     0.0752      0.711     94.116  71.294595     2.9134      6.429    75.3379 1.2550e-01     1.2605      8.965     13.002    12.8886 0.0000e+00
      9.149      0.036     0.0740      0.700     94.074  71.269918     2.9104      6.429    75.2072 1.2553e-01     1.2552      8.973     13.015    12.8822 0.0000e+00
      9.155      0.030     0.0714      0.676     94.058  71.268830     2.8978      6.430    74.9616 1.2558e-01     1.2414      8.978     13.022    12.8758 0.0000e+00
      9.160      0.023     0.0682      0.647     94.063  71.281460     2.8813      6.430    74.6051 1.2558e-01     1.2468      8.983     13.029    12.8717 0.0000e+00
      9.165      0.018     0.0662      0.628     94.078  71.295356     2.8668      6.429    74.4246 1.2554e-01     1.2592      8.988     13.036    12.8708 0.0000e+00
      9.169      0.017     0.0657      0.623     94.098  71.309575     2.8503      6.428    74.3267 1.2553e-01     1.2382      8.991     13.041    12.8759 0.0000e+00
      9.171      0.018     0.0652      0.618     94.109  71.326106     2.8109      6.428    74.1105 1.2552e-01     1.2368      8.993     13.044    12.8836 0.0000e+00
      9.175      0.018     0.0661      0.627     94.135  71.367967     2.7574      6.429    73.8755 1.2556e-01     1.2425      8.997     13.049    12.8884 0.0000e+00
      9.181      0.017     0.0698      0.662     94.192  71.433923     2.7370      6.429    73.6365 1.2556e-01     1.2468      9.002     13.057    12.8889 0.0000e+00
      9.187      0.015     0.0716      0.679     94.341  71.550878     2.7293      6.429    73.3716 1.2554e-01     1.2886      9.010     13.069    12.8868 0.0000e+00
      9.193      0.013     0.0714      0.676     94.553  71.700234     2.6825      6.429    73.1676 1.2561e-01     1.2587      9.016     13.078    12.8879 0.0000e+00
      9.195      0.010     0.0725      0.687     94.759  71.839738     2.6129      6.428    72.9775 1.2565e-01     1.0987      9.017     13.079    12.9038 0.0000e+00
      9.195      0.007     0.0720      0.682     94.939  71.964828     2.5772      6.428    72.8793 1.2559e-01     1.0030      9.018     13.078    12.9212 0.0000e+00
      9.195      0.003     0.0698      0.661     95.074  72.067174     2.5822      6.428    72.8403 1.2554e-01     1.0477      9.018     13.079    12.9217 0.0000e+00
      9.196      0.001     0.0684      0.648     95.225  72.186268     2.6356      6.429    72.6793 1.2554e-01     1.1811      9.018     13.080    12.9130 0.0000e+00
      9.197      0.001     0.0679      0.643     95.318  72.259278     2.6811      6.429    72.5663 1.2553e-01     1.2729      9.019     13.081    12.9026 0.0000e+00
      9.197 -9.990e-29 -9.990e-29 -9.990e-29 -9.990e-29 -9.990e-29 -9.990e-29 -9.990e-29 -9.990e-29 1.2550e-01 -9.990e-29      9.019     13.081    12.8949 0.0000e+00
      9.197 -9.990e-29 -9.990e-29 -9.990e-29 -9.990e-29 -9.990e-29 -9.990e-29 -9.990e-29 -9.990e-29 1.2545e-01 -9.990e-29      9.019     13.081    12.8964 0.0000e+00
      9.197 -9.990e-29 -9.990e-29 -9.990e-29 -9.990e-29 -9.990e-29 -9.990e-29 -9.990e-29 -9.990e-29 1.2542e-01 -9.990e-29      9.019     13.081    12.9008 0.0000e+00
      9.197 -9.990e-29 -9.990e-29 -9.990e-29 -9.990e-29 -9.990e-29 -9.990e-29 -9.990e-29 -9.990e-29 1.2544e-01 -9.990e-29      9.019     13.082    12.9016 0.0000e+00
