* Sea-Bird SBE19plus  Data File:
* FileName = C:\R\Reservoirs\Data\DataNotYetUploadedToEDI\Raw_CTD\RawDownloads\091823_bvr50_S7809_0002.hex
* Software version 2.8.0.119
* Temperature SN = 7809
* Conductivity SN = 7809
* System UpLoad Time = Sep 22 2023 13:08:28
* <ApplicationData>
* <Seaterm232>
* <SoftwareVersion>2.8.0.119</SoftwareVersion>
* <BuildDate>07-Nov-2018</BuildDate>
* </Seaterm232>
* </ApplicationData>
* <InstrumentState>
* <HardwareData DeviceType='SBE19plus' SerialNumber='01907809'>
*
*    <Manufacturer>Sea-Bird Electronics, Inc.</Manufacturer>
*
*    <FirmwareVersion>3.1.8</FirmwareVersion>
*
*    <FirmwareDate>Mar  9 2016 16:22:29</FirmwareDate>
*
*    <CommandSetVersion>1.4</CommandSetVersion>
*
*    <PCBAssembly PCBSerialNum='120721' AssemblyNum='41054J'/>
*
*    <PCBAssembly PCBSerialNum='120715' AssemblyNum='41967A'/>
*
*    <PCBAssembly PCBSerialNum='116699' AssemblyNum='41606'/>
*
*    <PCBAssembly PCBSerialNum='120719' AssemblyNum='41059D'/>
*
*    <MfgDate>28-Apr-2017</MfgDate>
*
*    <InternalSensors>
*
*       <Sensor id='Main Temperature'>
*
*          <type>temperature0</type>
*
*          <SerialNumber>01907809</SerialNumber>
*
*       </Sensor>
*
*       <Sensor id='Main Conductivity'>
*
*          <type>conductivity-0</type>
*
*          <SerialNumber>01907809</SerialNumber>
*
*       </Sensor>
*
*       <Sensor id='Main Pressure'>
*
*          <type>strain-0</type>
*
*          <SerialNumber>10586018</SerialNumber>
*
*       </Sensor>
*
*    </InternalSensors>
*
*    <ExternalSensors>
*
*       <Sensor id='volt 0'>
*
*          <type>pH</type>
*
*          <SerialNumber>27-0363</SerialNumber>
*
*       </Sensor>
*
*       <Sensor id='volt 1'>
*
*          <type>ORP</type>
*
*          <SerialNumber>27-0363</SerialNumber>
*
*       </Sensor>
*
*       <Sensor id='volt 2'>
*
*          <type>OXY</type>
*
*          <SerialNumber>43-0434</SerialNumber>
*
*       </Sensor>
*
*       <Sensor id='volt 3'>
*
*          <type>PAR</type>
*
*          <SerialNumber>1122</SerialNumber>
*
*       </Sensor>
*
*       <Sensor id='volt 4'>
*
*          <type>ECO AFL/FL</type>
*
*          <SerialNumber>FLNTURT-2496</SerialNumber>
*
*       </Sensor>
*
*       <Sensor id='volt 5'>
*
*          <type>ECO-NTU</type>
*
*          <SerialNumber>FLNTURT-2496</SerialNumber>
*
*       </Sensor>
*
*       <Sensor id='serial'>
*
*          <type>not assigned</type>
*
*          <SerialNumber>not assigned</SerialNumber>
*
*       </Sensor>
*
*    </ExternalSensors>
*
* </HardwareData>
* <StatusData DeviceType='SBE19plus' SerialNumber='01907809'>
*
*    <DateTime>2023-09-22T13:06:42</DateTime>
*
*    <LoggingState>not logging</LoggingState>
*
*    <EventSummary numEvents='0'/>
*
*    <Power>
*
*       <vMain>12.9</vMain>
*
*       <vLith>8.4</vLith>
*
*       <iMain>63.0</iMain>
*
*       <iPump>131.1</iPump>
*
*       <iExt01>20.0</iExt01>
*
*       <iExt2345>37.4</iExt2345>
*
*    </Power>
*
*    <MemorySummary>
*
*       <Bytes>66907</Bytes>
*
*       <Samples>2909</Samples>
*
*       <SamplesFree>2857879</SamplesFree>
*
*       <SampleLength>23</SampleLength>
*
*       <Profiles>2</Profiles>
*
*    </MemorySummary>
*
* </StatusData>
* <ConfigurationData DeviceType='SBE19plus' SerialNumber='01907809'>
*
*    <ProfileMode>
*
*       <ScansToAverage>1</ScansToAverage>
*
*       <MinimumCondFreq>0</MinimumCondFreq>
*
*       <PumpDelay>45</PumpDelay>
*
*       <AutoRun>no</AutoRun>
*
*       <IgnoreSwitch>no</IgnoreSwitch>
*
*    </ProfileMode>
*
*    <Battery>
*
*       <Type>alkaline</Type>
*
*       <CutOff>7.5</CutOff>
*
*    </Battery>
*
*    <DataChannels>
*
*       <ExtVolt0>yes</ExtVolt0>
*
*       <ExtVolt1>yes</ExtVolt1>
*
*       <ExtVolt2>yes</ExtVolt2>
*
*       <ExtVolt3>yes</ExtVolt3>
*
*       <ExtVolt4>yes</ExtVolt4>
*
*       <ExtVolt5>yes</ExtVolt5>
*
*       <SBE38>no</SBE38>
*
*       <WETLABS>no</WETLABS>
*
*       <OPTODE>no</OPTODE>
*
*       <SBE63>no</SBE63>
*
*       <SeaFET>no</SeaFET>
*
*       <GTD>no</GTD>
*
*    </DataChannels>
*
*    <EchoCharacters>yes</EchoCharacters>
*
*    <OutputExecutedTag>yes</OutputExecutedTag>
*
*    <OutputFormat>raw HEX</OutputFormat>
*
* </ConfigurationData>
* <CalibrationCoefficients DeviceType='SBE19plus' SerialNumber='01907809'>
*
*    <Calibration format='TEMP1' id='Main Temperature'>
*
*       <SerialNum>01907809</SerialNum>
*
*       <CalDate>31-Jan-23</CalDate>
*
*       <TA0>1.218232e-03</TA0>
*
*       <TA1>2.815090e-04</TA1>
*
*       <TA2>-1.578887e-06</TA2>
*
*       <TA3>1.972343e-07</TA3>
*
*       <TOFFSET>0.000000e+00</TOFFSET>
*
*    </Calibration>
*
*    <Calibration format='WBCOND0' id='Main Conductivity'>
*
*       <SerialNum>01907809</SerialNum>
*
*       <CalDate>31-Jan-23</CalDate>
*
*       <G>-1.005652e+00</G>
*
*       <H>1.267963e-01</H>
*
*       <I>-1.561708e-04</I>
*
*       <J>2.645944e-05</J>
*
*       <CPCOR>-9.570000e-08</CPCOR>
*
*       <CTCOR>3.250000e-06</CTCOR>
*
*       <CSLOPE>1.000000e+00</CSLOPE>
*
*    </Calibration>
*
*    <Calibration format='STRAIN0' id='Main Pressure'>
*
*       <SerialNum>10586018</SerialNum>
*
*       <CalDate>20-Jan-23</CalDate>
*
*       <PA0>4.416439e-02</PA0>
*
*       <PA1>4.850502e-04</PA1>
*
*       <PA2>-3.090426e-12</PA2>
*
*       <PTCA0>5.254757e+05</PTCA0>
*
*       <PTCA1>1.050255e+01</PTCA1>
*
*       <PTCA2>-2.922435e-01</PTCA2>
*
*       <PTCB0>2.516687e+01</PTCB0>
*
*       <PTCB1>3.750000e-04</PTCB1>
*
*       <PTCB2>0.000000e+00</PTCB2>
*
*       <PTEMPA0>-5.470820e+01</PTEMPA0>
*
*       <PTEMPA1>5.485421e+01</PTEMPA1>
*
*       <PTEMPA2>-3.446578e-01</PTEMPA2>
*
*       <POFFSET>8.500000e-01</POFFSET>
*
*       <PRANGE>1.600000e+02</PRANGE>
*
*    </Calibration>
*
*    <Calibration format='VOLT0' id='Volt 0'>
*
*       <OFFSET>-4.920000e-02</OFFSET>
*
*       <SLOPE>1.248122e+00</SLOPE>
*
*    </Calibration>
*
*    <Calibration format='VOLT0' id='Volt 1'>
*
*       <OFFSET>-4.784000e-02</OFFSET>
*
*       <SLOPE>1.248871e+00</SLOPE>
*
*    </Calibration>
*
*    <Calibration format='VOLT0' id='Volt 2'>
*
*       <OFFSET>-4.864632e-02</OFFSET>
*
*       <SLOPE>1.248714e+00</SLOPE>
*
*    </Calibration>
*
*    <Calibration format='VOLT0' id='Volt 3'>
*
*       <OFFSET>-4.743790e-02</OFFSET>
*
*       <SLOPE>1.248571e+00</SLOPE>
*
*    </Calibration>
*
*    <Calibration format='VOLT0' id='Volt 4'>
*
*       <OFFSET>-4.671263e-02</OFFSET>
*
*       <SLOPE>1.248951e+00</SLOPE>
*
*    </Calibration>
*
*    <Calibration format='VOLT0' id='Volt 5'>
*
*       <OFFSET>-4.871053e-02</OFFSET>
*
*       <SLOPE>1.249136e+00</SLOPE>
*
*    </Calibration>
*
*    <Calibration format='FREQ0' id='external frequency channel'>
*
*       <EXTFREQSF>1.000014e+00</EXTFREQSF>
*
*    </Calibration>
*
* </CalibrationCoefficients>
* <EventCounters DeviceType='SBE19plus' SerialNumber='01907809'>
*
*    <EventSummary numEvents='0'/>
*
* </EventCounters></InstrumentState>
* <Headers>
*
* cast   2 18 Sep 2023 13:27:47 samples 1835 to 2909, avg = 1, stop = mag switch
*
# nquan = 15
# nvalues = 1075                        
# units = specified
# name 0 = depFM: Depth [fresh water, m]
# name 1 = dz/dtM: Descent Rate [m/s]
# name 2 = sbeox0Mg/L: Oxygen, SBE 43 [mg/l]
# name 3 = sbeox0PS: Oxygen, SBE 43 [% saturation]
# name 4 = specc: Specific Conductance [uS/cm]
# name 5 = c0uS/cm: Conductivity [uS/cm]
# name 6 = flECO-AFL: Fluorescence, WET Labs ECO-AFL/FL [mg/m^3]
# name 7 = ph: pH
# name 8 = orp: Oxidation Reduction Potential [mV]
# name 9 = par/sat/log: PAR/Logarithmic, Satlantic
# name 10 = turbWETntu0: Turbidity, WET Labs ECO [NTU]
# name 11 = prdM: Pressure, Strain Gauge [db]
# name 12 = prdE: Pressure, Strain Gauge [psi]
# name 13 = tv290C: Temperature [ITS-90, deg C]
# name 14 = flag:  0.000e+00
# span 0 =     -0.693,      9.484       
# span 1 =     -0.229,      0.201       
# span 2 =     0.0469,     8.6501       
# span 3 =      0.531,     99.005       
# span 4 =      0.506,    425.565       
# span 5 =   0.480870, 313.476669       
# span 6 =    -1.9764,   227.4717       
# span 7 =     -2.159,      7.772       
# span 8 = -1240.7455,   690.7386       
# span 9 = 1.2357e-01, 1.8196e+03       
# span 10 =    -5.0304,   932.4748      
# span 11 =     -0.680,      9.303      
# span 12 =     -0.986,     13.494      
# span 13 =    11.7953,    22.5287      
# span 14 = 0.0000e+00, 0.0000e+00      
# interval = seconds: 0.25
# start_time = Sep 18 2023 13:27:47 [Instrument's time stamp, header]
# bad_flag = -9.990e-29
# <Sensors count="9" >
#   <sensor Channel="1" >
#     <!-- Count, Temperature -->
#     <TemperatureSensor SensorID="58" >
#       <SerialNumber>7809</SerialNumber>
#       <CalibrationDate>31-Jan-23</CalibrationDate>
#       <A0>1.21823180e-003</A0>
#       <A1>2.81508993e-004</A1>
#       <A2>-1.57888696e-006</A2>
#       <A3>1.97234302e-007</A3>
#       <Slope>1.00000000</Slope>
#       <Offset>0.0000</Offset>
#     </TemperatureSensor>
#   </sensor>
#   <sensor Channel="2" >
#     <!-- Frequency 0, Conductivity -->
#     <ConductivitySensor SensorID="3" >
#       <SerialNumber>7809</SerialNumber>
#       <CalibrationDate>31-Jan-23</CalibrationDate>
#       <UseG_J>1</UseG_J>
#       <!-- Cell const and series R are applicable only for wide range sensors. -->
#       <SeriesR>0.0000</SeriesR>
#       <CellConst>2000.0000</CellConst>
#       <ConductivityType>0</ConductivityType>
#       <Coefficients equation="0" >
#         <A>0.00000000e+000</A>
#         <B>0.00000000e+000</B>
#         <C>0.00000000e+000</C>
#         <D>0.00000000e+000</D>
#         <M>0.0</M>
#         <CPcor>-9.57000000e-008</CPcor>
#       </Coefficients>
#       <Coefficients equation="1" >
#         <G>-1.00565232e+000</G>
#         <H>1.26796307e-001</H>
#         <I>-1.56170788e-004</I>
#         <J>2.64594368e-005</J>
#         <CPcor>-9.57000000e-008</CPcor>
#         <CTcor>3.2500e-006</CTcor>
#         <!-- WBOTC not applicable unless ConductivityType = 1. -->
#         <WBOTC>0.00000000e+000</WBOTC>
#       </Coefficients>
#       <Slope>1.00000000</Slope>
#       <Offset>0.00000</Offset>
#     </ConductivitySensor>
#   </sensor>
#   <sensor Channel="3" >
#     <!-- Count, Pressure, Strain Gauge -->
#     <PressureSensor SensorID="46" >
#       <SerialNumber>7809</SerialNumber>
#       <CalibrationDate>20-Jan-23</CalibrationDate>
#       <PA0>4.41643944e-002</PA0>
#       <PA1>4.85050239e-004</PA1>
#       <PA2>-3.09042623e-012</PA2>
#       <PTEMPA0>-5.47081996e+001</PTEMPA0>
#       <PTEMPA1>5.48542136e+001</PTEMPA1>
#       <PTEMPA2>-3.44657813e-001</PTEMPA2>
#       <PTCA0>5.25475731e+005</PTCA0>
#       <PTCA1>1.05025484e+001</PTCA1>
#       <PTCA2>-2.92243463e-001</PTCA2>
#       <PTCB0>2.51668750e+001</PTCB0>
#       <PTCB1>3.75000000e-004</PTCB1>
#       <PTCB2>0.00000000e+000</PTCB2>
#       <Offset>0.000000</Offset>
#     </PressureSensor>
#   </sensor>
#   <sensor Channel="4" >
#     <!-- A/D voltage 0, Oxygen, SBE 43 -->
#     <OxygenSensor SensorID="38" >
#       <SerialNumber>0434</SerialNumber>
#       <CalibrationDate>18-Feb-23</CalibrationDate>
#       <Use2007Equation>1</Use2007Equation>
#       <CalibrationCoefficients equation="0" >
#         <!-- Coefficients for Owens-Millard equation. -->
#         <Boc>0.0000</Boc>
#         <Soc>0.0000e+000</Soc>
#         <offset>0.0000</offset>
#         <Pcor>0.00e+000</Pcor>
#         <Tcor>0.0000</Tcor>
#         <Tau>0.0</Tau>
#       </CalibrationCoefficients>
#       <CalibrationCoefficients equation="1" >
#         <!-- Coefficients for Sea-Bird equation - SBE calibration in 2007 and later. -->
#         <Soc>5.1878e-001</Soc>
#         <offset>-0.5046</offset>
#         <A>-4.2788e-003</A>
#         <B> 1.5372e-004</B>
#         <C>-2.1853e-006</C>
#         <D0> 2.5826e+000</D0>
#         <D1> 1.92634e-004</D1>
#         <D2>-4.64803e-002</D2>
#         <E> 3.6000e-002</E>
#         <Tau20> 0.9900</Tau20>
#         <H1>-3.3000e-002</H1>
#         <H2> 5.0000e+003</H2>
#         <H3> 1.4500e+003</H3>
#       </CalibrationCoefficients>
#     </OxygenSensor>
#   </sensor>
#   <sensor Channel="5" >
#     <!-- A/D voltage 1, PAR/Logarithmic, Satlantic -->
#     <PARLog_SatlanticSensor SensorID="76" >
#       <SerialNumber>1122</SerialNumber>
#       <CalibrationDate>08-Sep-2021</CalibrationDate>
#       <a0>9.6751e-001</a0>
#       <a1>8.0992e-001</a1>
#       <Im>1.3589e+000</Im>
#       <Multiplier>1.0000e+000</Multiplier>
#     </PARLog_SatlanticSensor>
#   </sensor>
#   <sensor Channel="6" >
#     <!-- A/D voltage 2, pH -->
#     <pH_Sensor SensorID="43" >
#       <SerialNumber>0363</SerialNumber>
#       <CalibrationDate>28-Feb-23</CalibrationDate>
#       <Slope>4.7364</Slope>
#       <Offset>2.5433</Offset>
#     </pH_Sensor>
#   </sensor>
#   <sensor Channel="7" >
#     <!-- A/D voltage 3, Oxidation Reduction Potential -->
#     <OxidationReductionPotentialSensor SensorID="41" >
#       <SerialNumber>0363</SerialNumber>
#       <CalibrationDate>28-Feb-23</CalibrationDate>
#       <B>2.499480</B>
#       <M>-0.496195</M>
#       <Offset>0.0</Offset>
#     </OxidationReductionPotentialSensor>
#   </sensor>
#   <sensor Channel="8" >
#     <!-- A/D voltage 4, Fluorometer, WET Labs ECO-AFL/FL -->
#     <FluoroWetlabECO_AFL_FL_Sensor SensorID="20" >
#       <SerialNumber>FLNTURT-2496</SerialNumber>
#       <CalibrationDate>02-Sep-2021</CalibrationDate>
#       <ScaleFactor>4.80000000e+001</ScaleFactor>
#       <!-- Dark output -->
#       <Vblank>0.0550</Vblank>
#     </FluoroWetlabECO_AFL_FL_Sensor>
#   </sensor>
#   <sensor Channel="9" >
#     <!-- A/D voltage 5, Turbidity Meter, WET Labs, ECO-NTU -->
#     <TurbidityMeter SensorID="67" >
#       <SerialNumber>FLNTURT--2496</SerialNumber>
#       <CalibrationDate>02-Sep-2021</CalibrationDate>
#       <ScaleFactor>197.000000</ScaleFactor>
#       <!-- Dark output -->
#       <DarkVoltage>0.070000</DarkVoltage>
#     </TurbidityMeter>
#   </sensor>
# </Sensors>
# datcnv_date = Sep 22 2023 13:37:44, 7.26.7.129 [datcnv_vars = 14]
# datcnv_in = C:\R\Reservoirs\Data\DataNotYetUploadedToEDI\Raw_CTD\RawDownloads\091823_fcr50_S7809002.hex C:\R\Reservoirs\Data\DataNotYetUploadedToEDI\Raw_CTD\RawDownloads\SBE19plusV2_7809_start20230701.xmlcon
# datcnv_skipover = 0
# datcnv_ox_hysteresis_correction = yes
# datcnv_ox_tau_correction = yes
# filter_date = Sep 22 2023 13:38:27, 7.26.7.129
# filter_in = C:\R\Reservoirs\Data\DataNotYetUploadedToEDI\Raw_CTD\RawDownloads\091823_fcr50_S7809002.cnv
# filter_low_pass_tc_A = 0.030
# filter_low_pass_tc_B = 0.150
# filter_low_pass_A_vars = sbeox0Mg/L prdM prdE tv290C
# filter_low_pass_B_vars = depFM dz/dtM sbeox0PS specc c0uS/cm flECO-AFL ph orp par/sat/log turbWETntu0
# alignctd_date = Sep 22 2023 13:38:57, 7.26.7.129
# alignctd_in = C:\R\Reservoirs\Data\DataNotYetUploadedToEDI\Raw_CTD\RawDownloads\091823_fcr50_S7809002.cnv
# alignctd_adv = dz/dtM 1.000, sbeox0PS 1.000, specc 1.000, c0uS/cm 1.000, flECO-AFL 1.000, ph 1.000, orp 1.000, turbWETntu0 1.000                                                                                                   
# file_type = ascii
*END*
     -0.692 -1.567e-09     8.1956     94.687      0.579   0.550311    -0.0589      5.432 -1240.7455 4.2476e+02     1.7247     -0.678     -0.984    22.5197 0.0000e+00
     -0.692 -1.724e-08     8.1942     94.676      0.591   0.561827    -0.0687      5.433 -1240.7455 4.1743e+02     1.6894     -0.679     -0.985    22.5203 0.0000e+00
     -0.692 -1.897e-07     8.1987     94.670      0.580   0.551443    -0.0747      5.436 -1240.7455 4.0887e+02     1.6728     -0.679     -0.985    22.5207 0.0000e+00
     -0.692 -2.232e-07     8.1962     94.684      0.580   0.551442    -0.0651      5.438 -1240.7455 4.0109e+02     1.6950     -0.679     -0.985    22.5214 0.0000e+00
     -0.692 -4.234e-07     8.1961     94.688      0.591   0.561816    -0.0601      5.438 -1240.7455 3.9474e+02     1.6843     -0.679     -0.984    22.5221 0.0000e+00
     -0.692     -0.000     8.1955     94.674      0.579   0.550196    -0.0734      5.437 -1240.7455 3.9150e+02     1.6461     -0.678     -0.984    22.5227 0.0000e+00
     -0.692     -0.000     8.1925     94.668      0.565   0.537623    -0.0835      5.438 -1240.7455 3.8977e+02     1.6432     -0.679     -0.985    22.5232 0.0000e+00
     -0.692     -0.001     8.1966     94.669      0.564   0.536471    -0.0816      5.439 -1240.7455 3.8656e+02     1.6499     -0.679     -0.985    22.5238 0.0000e+00
     -0.693     -0.001     8.1964     94.671      0.564   0.536263    -0.0846      5.441 -1240.7455 3.8101e+02     1.6582     -0.680     -0.986    22.5243 0.0000e+00
     -0.693     -0.000     8.1939     94.684      0.563   0.535112    -0.0786      5.446 -1240.7455 3.7430e+02     1.7098     -0.680     -0.986    22.5247 0.0000e+00
     -0.693 -1.847e-08     8.1934     94.701      0.550   0.522547    -0.0661      5.450 -1240.7455 3.6847e+02     1.7614     -0.680     -0.986    22.5255 0.0000e+00
     -0.693 -2.032e-07     8.1943     94.713      0.538   0.511020    -0.0673      5.447 -1240.7455 3.6428e+02     1.7689     -0.680     -0.986    22.5260 0.0000e+00
     -0.693 -2.032e-07     8.1929     94.720      0.549   0.522422    -0.0765      5.447 -1240.7455 3.6488e+02     1.7329     -0.680     -0.986    22.5266 0.0000e+00
     -0.693 -1.847e-08     8.1950     94.714      0.561   0.533729    -0.0776      5.452 -1240.7455 4.2146e+02     1.7353     -0.679     -0.985    22.5270 0.0000e+00
     -0.693 -1.680e-09     8.1968     94.711      0.548   0.521052    -0.0631      5.450 -1240.7455 4.6456e+02     1.7644     -0.680     -0.986    22.5274 0.0000e+00
     -0.693 -1.527e-10     8.1970     94.721      0.522   0.495821    -0.0597      5.443 -1240.7455 3.7941e+02     1.7084     -0.680     -0.986    22.5279 0.0000e+00
     -0.693 -1.388e-11     8.1987     94.721      0.507   0.482020    -0.0792      5.441 -1240.7455 2.9088e+02     1.6391     -0.680     -0.986    22.5283 0.0000e+00
     -0.693 -1.262e-12     8.1971     94.708      0.506   0.480870    -0.0819      5.443 -1240.7455 2.7033e+02     1.6441     -0.680     -0.986    22.5286 0.0000e+00
     -0.693 -1.128e-13     8.1964     94.702      0.507   0.481907    -0.0667      5.444 -1240.7455 2.4823e+02     1.7003     -0.680     -0.986    22.5287 0.0000e+00
     -0.693 1.0598e-14     8.1983     94.703      0.520   0.494564    -0.0698      5.445 -1240.7455 2.1451e+02     1.7046     -0.679     -0.985    22.5287 0.0000e+00
     -0.693 2.3036e-13     8.1988     94.702      0.534   0.507223    -0.0864      5.450 -1240.7455 1.9412e+02     1.6618     -0.680     -0.986    22.5285 0.0000e+00
     -0.693 2.5443e-12     8.1962     94.698      0.535   0.508292    -0.0934      5.451 -1240.7455 2.0607e+02     1.6944     -0.680     -0.986    22.5280 0.0000e+00
     -0.693 2.7989e-11     8.1960     94.682      0.534   0.507486    -0.0882      5.452 -1240.7455 2.6910e+02     1.7235     -0.680     -0.986    22.5278 0.0000e+00
     -0.693 3.0787e-10     8.1969     94.649      0.524   0.497486    -0.0817      5.459 -1240.7455 6.6129e+02     1.6721     -0.679     -0.985    22.5279 0.0000e+00
     -0.693 3.3866e-09     8.1961     94.639      0.541   0.514056    -0.0726      5.465 -1240.7455 1.3186e+03     1.6527     -0.679     -0.985    22.5275 0.0000e+00
     -0.693 3.7253e-08     8.1967     94.694      0.611   0.581154    -0.0616      5.475 -1240.7455 1.6233e+03     1.6940     -0.679     -0.985    22.5268 0.0000e+00
     -0.693 4.0978e-07     8.1957     94.739      0.711   0.675378    -0.0651      5.492 -1240.7455 1.5660e+03     1.6940     -0.680     -0.986    22.5263 0.0000e+00
     -0.693      0.000     8.1920     94.719      0.806   0.766575    -0.0823      5.490 -1240.7455 1.4259e+03     1.6527     -0.680     -0.986    22.5254 0.0000e+00
     -0.693      0.000     8.1882     94.724      0.838   0.797058    -0.0778      5.467 -1240.7455 1.2117e+03     1.6042     -0.680     -0.986    22.5245 0.0000e+00
     -0.693      0.001     8.1956     94.751      0.832   0.790587    -0.0604      5.417 -1240.7455 9.0003e+02     1.5178     -0.679     -0.985    22.5239 0.0000e+00
     -0.692      0.001     8.2058     94.762      0.859   0.815022    -0.0637      5.217 -1240.7455 7.2930e+02     1.4282     -0.679     -0.985    22.5241 0.0000e+00
     -0.692      0.001     8.1950     94.810      0.884   0.839132    -0.0758      4.544 -1240.7455 8.7961e+02     1.3747     -0.679     -0.985    22.5197 0.0000e+00
     -0.692      0.001     8.2019     94.977      0.874   0.828751    -0.0815      3.186 -1240.7455 1.0506e+03     1.3831     -0.678     -0.984    22.5054 0.0000e+00
     -0.692      0.000     8.2090     95.157      0.862   0.816178    -0.0747      1.069 -1240.7455 1.1784e+03     1.4272     -0.679     -0.985    22.4815 0.0000e+00
     -0.692 1.8626e-08     8.2140     95.164      0.860   0.813798    -0.0692     -1.070 -1240.7455 1.1821e+03     1.3963     -0.679     -0.984    22.4461 0.0000e+00
     -0.692 2.0489e-07     8.2201     95.138      0.845   0.799971    -0.0730     -2.041 -1240.7455 8.8825e+02     1.3848     -0.679     -0.984    22.4080 0.0000e+00
     -0.692 2.0489e-07     8.2393     95.176      0.819   0.775675    -0.0703     -2.148 -1240.7455 5.3280e+02     1.5273     -0.678     -0.984    22.3787 0.0000e+00
     -0.692 1.8628e-08     8.2754     95.203      0.817   0.773398    -0.0701     -2.158 -1240.7455 3.1460e+02     1.6507     -0.679     -0.985    22.3582 0.0000e+00
     -0.692 1.7045e-09     8.2631     95.203      0.817   0.772430    -0.0864     -2.159 -1240.7455 3.0305e+02     1.6465     -0.679     -0.984    22.3442 0.0000e+00
     -0.692 2.7728e-10     8.2614     95.215      0.808   0.763969    -0.0932     -2.155 -1240.7455 5.7606e+02     1.6473     -0.679     -0.984    22.3323 0.0000e+00
     -0.692 1.3708e-09     8.2723     95.236      0.845   0.797773    -0.0853     -2.097 -1240.7451 9.2458e+02     1.6601     -0.679     -0.985    22.3192 0.0000e+00
     -0.692 1.4926e-08     8.2753     95.245      0.983   0.927802    -0.0824     -1.452 -1240.7414 9.7051e+02     1.7333     -0.679     -0.984    22.3066 0.0000e+00
     -0.692 1.6418e-07     8.2768     95.293      1.200   1.132673    -0.0747      0.251 -1240.7003 6.6901e+02     1.9515     -0.679     -0.984    22.2906 0.0000e+00
     -0.692      0.000     8.2807     95.353      1.322   1.247976    -0.0671      2.251 -1240.2483 3.0820e+02     2.1130     -0.678     -0.984    22.2659 0.0000e+00
     -0.692      0.000     8.2911     95.354      1.319   1.245144    -0.0655      3.494 -1235.2761 1.3873e+02     2.1484     -0.679     -0.985    22.2393 0.0000e+00
     -0.692      0.000     8.2893     95.331      1.298   1.225111    -0.0637      2.817 -1180.5818 1.3233e+02     2.0381     -0.679     -0.985    22.2179 0.0000e+00
     -0.692      0.002     8.2987     95.316      1.334   1.259123    -0.0708      1.291  -578.9443 2.6888e+02     1.7694     -0.679     -0.984    22.1980 0.0000e+00
     -0.692      0.011     8.3113     95.301      2.159   2.036419    -0.0767      1.831   400.4885 4.4578e+02     1.6327     -0.680     -0.986    22.1825 0.0000e+00
     -0.692      0.031     8.3086     95.296      9.528   8.976434    -0.0681      3.651   690.7386 4.0120e+02     1.6832     -0.679     -0.985    22.1754 0.0000e+00
     -0.692      0.059     8.3060     95.288     25.698  24.198709    -0.0495      4.977   481.9401 2.5388e+02     1.7650     -0.680     -0.986    22.1762 0.0000e+00
     -0.684      0.093     8.3051     95.271     39.290  36.980567    -0.0345      5.887   395.4972 2.0201e+02     1.8360     -0.678     -0.984    22.1810 0.0000e+00
     -0.656      0.125     8.3013     95.274     43.580  41.001307    -0.0204      6.492   372.2527 2.0043e+02     1.9260     -0.650     -0.945    22.1905 0.0000e+00
     -0.608      0.151     8.3038     95.309     43.821  41.217964     0.0453      6.889   355.7639 2.0782e+02     2.5455     -0.598     -0.868    22.1679 0.0000e+00
     -0.550      0.169     8.3177     95.668     43.724  41.123338     0.6188      7.160   338.6124 2.2218e+02     8.6090     -0.541     -0.784    22.1004 0.0000e+00
     -0.495      0.181     8.3150     96.328     43.657  41.063058     1.6449      7.345   315.4448 2.3537e+02    19.5603     -0.480     -0.696    22.0541 0.0000e+00
     -0.451      0.186     8.3289     96.799     43.713  41.123786     2.1903      7.478   286.7001 2.3632e+02    25.4423     -0.436     -0.632    22.0340 0.0000e+00
     -0.417      0.185     8.3174     97.188     43.809  41.222943     2.2599      7.581   267.6797 2.3022e+02    25.5153     -0.413     -0.598    22.0214 0.0000e+00
     -0.377      0.178     8.3390     97.689     43.826  41.246497     2.4702      7.655   262.7982 2.3487e+02    20.4094     -0.376     -0.546    22.0180 0.0000e+00
     -0.322      0.167     8.4387     98.165     43.791  41.218191     2.8191      7.698   273.2782 2.3261e+02    10.9161     -0.317     -0.460    22.0216 0.0000e+00
     -0.265      0.149     8.4556     98.538     43.766  41.198037     2.9994      7.716   284.0043 2.0434e+02     5.7297     -0.254     -0.368    22.0332 0.0000e+00
     -0.220      0.122     8.4819     98.820     43.758  41.193217     3.0023      7.724   273.8385 1.8029e+02     5.2169     -0.209     -0.303    22.0447 0.0000e+00
     -0.192      0.086     8.5347     98.990     43.720  41.159925     3.0042      7.734   261.4408 1.6578e+02     5.1264     -0.183     -0.266    22.0523 0.0000e+00
     -0.179      0.047     8.5753     99.005     43.668  41.112842     3.0635      7.746   268.8419 1.5288e+02     5.1472     -0.170     -0.247    22.0571 0.0000e+00
     -0.180      0.015     8.6074     98.930     43.619  41.068207     3.1610      7.757   280.2971 1.5272e+02     5.1957     -0.173     -0.251    22.0615 0.0000e+00
     -0.190     -0.005     8.6300     98.833     43.549  41.001038     3.2017      7.765   272.3487 1.5942e+02     5.1989     -0.186     -0.269    22.0648 0.0000e+00
     -0.201     -0.012     8.6501     98.714     43.482  40.935368     3.1811      7.768   259.8096 1.6309e+02     5.1521     -0.200     -0.290    22.0677 0.0000e+00
     -0.208     -0.010     8.6451     98.534     43.457  40.908848     3.1778      7.770   263.6828 1.6337e+02     5.1429     -0.207     -0.300    22.0702 0.0000e+00
     -0.208     -0.003     8.6375     98.271     43.485  40.934249     3.2028      7.772   280.6343 1.6268e+02     5.2236     -0.205     -0.297    22.0709 0.0000e+00
     -0.205      0.003     8.6284     97.991     43.540  40.988626     3.2098      7.772   294.2397 1.6193e+02     5.2742     -0.201     -0.291    22.0698 0.0000e+00
     -0.200      0.007     8.6209     97.827     43.609  41.058596     3.1953      7.769   287.0799 1.6128e+02     5.2431     -0.196     -0.285    22.0669 0.0000e+00
     -0.195      0.007     8.6069     97.772     43.696  41.145598     3.2102      7.764   266.3386 1.6112e+02     5.2235     -0.190     -0.276    22.0618 0.0000e+00
     -0.193      0.005     8.5830     97.612     43.766  41.215503     3.2650      7.757   254.5131 1.6107e+02     5.3100     -0.186     -0.270    22.0590 0.0000e+00
     -0.194      0.002     8.5513     97.151     43.821  41.269150     3.3086      7.750   250.9594 1.6109e+02     5.4341     -0.190     -0.275    22.0635 0.0000e+00
     -0.197      0.001     8.5345     96.066     43.906  41.349985     3.3216      7.740   246.4293 1.6150e+02     5.4606     -0.194     -0.281    22.0715 0.0000e+00
     -0.198      0.001     8.5391     93.773     43.992  41.431269     3.2728      7.732   244.6520 1.6120e+02     5.3576     -0.195     -0.282    22.0776 0.0000e+00
     -0.197      0.004     8.5292     90.158     44.054  41.490338     3.1766      7.723   255.3688 1.5936e+02     5.2127     -0.193     -0.280    22.0817 0.0000e+00
     -0.196      0.005     8.4927     85.922     44.124  41.556449     3.1396      7.712   267.5095 1.5750e+02     5.1784     -0.193     -0.280    22.0831 0.0000e+00
     -0.194      0.004     8.4260     81.783     44.166  41.595934     3.1510      7.697   269.6129 1.5718e+02     5.2161     -0.192     -0.278    22.0834 0.0000e+00
     -0.189      0.000     8.2335     77.948     44.156  41.586935     3.1228      7.684   278.9075 1.5763e+02     5.1564     -0.185     -0.268    22.0843 0.0000e+00
     -0.185     -0.005     7.8867     74.614     44.142  41.574578     3.0567      7.674   287.3117 1.5717e+02     5.0033     -0.179     -0.258    22.0850 0.0000e+00
     -0.188     -0.010     7.4897     72.276     44.141  41.573464     3.0096      7.665   275.3793 1.5531e+02     4.9012     -0.183     -0.265    22.0854 0.0000e+00
     -0.197     -0.011     7.1288     71.148     44.142  41.573467     3.0029      7.653   255.2608 1.5300e+02     4.8785     -0.193     -0.281    22.0855 0.0000e+00
     -0.206     -0.009     6.7939     71.035     44.144  41.574614     3.0166      7.637   245.5645 1.5166e+02     4.8650     -0.202     -0.294    22.0859 0.0000e+00
     -0.211     -0.006     6.4774     71.576     44.158  41.587332     3.0511      7.616   242.5465 1.5217e+02     4.9437     -0.209     -0.304    22.0866 0.0000e+00
     -0.209     -0.001     6.2672     72.252     44.172  41.600302     3.1034      7.593   240.1084 1.5333e+02     5.1127     -0.208     -0.300    22.0862 0.0000e+00
     -0.202      0.002     6.1811     72.802     44.177  41.604504     3.1323      7.575   239.7468 1.5348e+02     5.1659     -0.197     -0.286    22.0849 0.0000e+00
     -0.197      0.003     6.1754     73.197     44.212  41.638136     3.1427      7.558   238.3468 1.5309e+02     5.1768     -0.191     -0.278    22.0840 0.0000e+00
     -0.197      0.003     6.2472     73.250     44.267  41.689605     3.1715      7.540   236.8604 1.5337e+02     5.2107     -0.192     -0.278    22.0835 0.0000e+00
     -0.200      0.002     6.3135     72.824     44.298  41.719058     3.2052      7.521   236.1439 1.5463e+02     5.1652     -0.196     -0.285    22.0831 0.0000e+00
     -0.204      0.001     6.3543     72.004     44.320  41.740382     3.2084      7.503   235.1046 1.5714e+02     5.1057     -0.200     -0.291    22.0832 0.0000e+00
     -0.204      0.002     6.4011     70.982     44.337  41.757023     3.1941      7.487   234.1026 1.6113e+02     5.0719     -0.201     -0.292    22.0834 0.0000e+00
     -0.202      0.005     6.4093     69.951     44.308  41.729857     3.2240      7.473   233.3207 1.7045e+02     5.0976     -0.198     -0.287    22.0837 0.0000e+00
     -0.198      0.008     6.3690     69.109     44.240  41.665796     3.2865      7.459   232.7065 2.3615e+02     5.1772     -0.194     -0.281    22.0844 0.0000e+00
     -0.195      0.009     6.2896     68.587     44.188  41.617152     3.3179      7.446   232.9575 4.7057e+02     5.2146     -0.191     -0.278    22.0850 0.0000e+00
     -0.192      0.008     6.1964     68.452     44.157  41.585980     3.3203      7.434   233.7740 8.7058e+02     5.1744     -0.188     -0.273    22.0853 0.0000e+00
     -0.190      0.007     6.0986     68.767     44.112  41.542768     3.3233      7.422   233.6304 1.1899e+03     5.1349     -0.186     -0.270    22.0854 0.0000e+00
     -0.188      0.007     6.0210     69.482     44.042  41.475488     3.3470      7.412   232.6838 1.1603e+03     5.1812     -0.185     -0.268    22.0855 0.0000e+00
     -0.187      0.008     5.9757     70.406     43.971  41.407172     3.3730      7.402   231.7931 7.9884e+02     5.2220     -0.184     -0.266    22.0853 0.0000e+00
     -0.187      0.010     5.9593     71.311     43.914  41.351432     3.3800      7.391   232.2386 4.1254e+02     5.2182     -0.184     -0.266    22.0843 0.0000e+00
     -0.185      0.012     5.9892     72.056     43.871  41.309278     3.3731      7.380   233.7687 2.2888e+02     5.3059     -0.183     -0.265    22.0824 0.0000e+00
     -0.181      0.012     6.0580     72.576     43.840  41.278289     3.3566      7.370   234.3763 1.8997e+02     5.4961     -0.179     -0.259    22.0805 0.0000e+00
     -0.175      0.012     6.1475     72.869     43.790  41.230610     3.3555      7.360   235.7132 1.8093e+02     5.6393     -0.172     -0.249    22.0786 0.0000e+00
     -0.170      0.011     6.2302     72.996     43.735  41.177058     3.3674      7.350   237.2855 1.7330e+02     5.6708     -0.166     -0.240    22.0766 0.0000e+00
     -0.168      0.007     6.2972     72.973     43.695  41.138537     3.3336      7.335   239.1901 1.7168e+02     5.6038     -0.164     -0.237    22.0750 0.0000e+00
     -0.168      0.002     6.3437     72.755     43.636  41.082184     3.2467      7.320   241.3622 1.7407e+02     5.4793     -0.165     -0.240    22.0734 0.0000e+00
     -0.168     -0.006     6.3659     72.363     43.552  41.003431     3.1829      7.306   238.7692 1.6858e+02     5.3953     -0.166     -0.239    22.0714 0.0000e+00
     -0.168     -0.012     6.3767     71.947     43.494  40.947930     3.1780      7.290   235.1986 1.5539e+02     5.4080     -0.163     -0.236    22.0700 0.0000e+00
     -0.170     -0.014     6.3772     71.610     43.464  40.918851     3.1956      7.269   234.0678 1.5413e+02     5.4615     -0.165     -0.239    22.0696 0.0000e+00
     -0.179     -0.010     6.3590     71.323     43.450  40.905710     3.1881      7.246   233.3570 1.6778e+02     5.4621     -0.173     -0.251    22.0694 0.0000e+00
     -0.189     -0.002     6.3179     71.041     43.461  40.915969     3.1528      7.224   233.4875 1.7673e+02     5.4151     -0.188     -0.273    22.0691 0.0000e+00
     -0.194      0.009     6.2773     70.758     43.462  40.915956     3.1271      7.204   233.8388 1.8019e+02     5.3721     -0.195     -0.283    22.0681 0.0000e+00
     -0.188      0.019     6.2514     70.548     43.452  40.905551     3.1358      7.186   233.9043 1.8694e+02     5.3507     -0.186     -0.271    22.0671 0.0000e+00
     -0.173      0.026     6.2268     70.491     43.465  40.917093     3.1748      7.171   233.6776 2.0133e+02     5.2932     -0.171     -0.248    22.0670 0.0000e+00
     -0.158      0.028     6.2036     70.559     43.477  40.928578     3.2064      7.158   233.5075 2.1478e+02     5.1890     -0.154     -0.223    22.0666 0.0000e+00
     -0.147      0.022     6.1760     70.639     43.466  40.917478     3.2022      7.147   237.4395 2.5431e+02     5.1497     -0.142     -0.206    22.0657 0.0000e+00
     -0.142      0.012     6.1536     70.642     43.458  40.909819     3.1824      7.137   242.8457 2.9941e+02     5.1599     -0.138     -0.199    22.0648 0.0000e+00
     -0.144      0.001     6.1509     70.530     43.514  40.962906     3.1923      7.127   242.1732 2.8836e+02     5.1764     -0.140     -0.202    22.0641 0.0000e+00
     -0.150     -0.014     6.1600     70.267     43.608  41.051625     3.2296      7.115   253.1416 4.5744e+02     5.1781     -0.147     -0.213    22.0637 0.0000e+00
     -0.156     -0.036     6.1721     69.861     43.652  41.093990     3.2423      7.105   281.2507 6.4559e+02     5.1119     -0.154     -0.223    22.0631 0.0000e+00
     -0.159     -0.066     6.1697     69.111     43.648  41.094345     3.2301      7.098   297.5921 4.5127e+02     5.0594     -0.156     -0.226    22.0626 0.0000e+00
     -0.164     -0.103     6.1659     67.955     43.603  41.055931     3.1817      7.084   298.5209 2.4581e+02     5.0555     -0.155     -0.225    22.0627 0.0000e+00
     -0.188     -0.138     6.1366     66.929     43.552  41.010325     3.1058      7.062   297.4711 2.3740e+02     5.0648     -0.174     -0.252    22.0629 0.0000e+00
     -0.237     -0.164     6.1083     66.371     43.594  41.050661     3.0781      7.039   295.9119 2.4495e+02     5.1375     -0.226     -0.328    22.0638 0.0000e+00
     -0.304     -0.178     6.0578     66.177     43.711  41.162833     3.0547      7.020   293.7794 2.5186e+02     5.9010     -0.298     -0.431    22.0678 0.0000e+00
     -0.372     -0.179     5.9221     66.215     43.831  41.287666     2.7399      7.003   286.4856 2.5609e+02    15.1835     -0.371     -0.538    22.0739 0.0000e+00
     -0.424     -0.172     5.8245     66.507     44.074  41.544561     2.1768      6.985   267.9511 2.6848e+02    32.4168     -0.425     -0.617    22.0778 0.0000e+00
     -0.454     -0.161     5.7835     67.294     44.644  42.111065     1.9231      6.966   246.6626 3.0568e+02    41.8993     -0.451     -0.653    22.0789 0.0000e+00
     -0.472     -0.146     5.7705     68.809     45.228  42.678922     2.3852      6.950   234.8946 3.1740e+02    42.7629     -0.459     -0.666    22.0752 0.0000e+00
     -0.500     -0.130     5.7740     70.984     45.304  42.761669     7.6058      6.936   228.8263 2.6854e+02    42.1759     -0.480     -0.696    22.0844 0.0000e+00
     -0.546     -0.116     5.7854     73.554     45.064  42.540354    65.0865      6.923   221.1286 2.2439e+02    34.9043     -0.533     -0.774    22.1259 0.0000e+00
     -0.594     -0.104     5.8393     76.151     45.271  42.732280   170.4525      6.909   210.6541 2.1060e+02    21.6245     -0.593     -0.862    22.1639 0.0000e+00
     -0.622     -0.090     5.9726     78.267     46.226  43.622330   227.4717      6.893   198.4584 2.0641e+02    14.4566     -0.619     -0.898    22.1782 0.0000e+00
     -0.630     -0.071     6.1734     79.762     46.808  44.161652   227.4074      6.873   191.4594 2.0441e+02    14.3356     -0.618     -0.896    22.1891 0.0000e+00
     -0.635     -0.049     6.3989     80.643     42.251  39.858869   169.6415      6.844   192.9674 2.0087e+02    19.6502     -0.621     -0.900    22.1981 0.0000e+00
     -0.644     -0.032     6.6537     80.779     30.571  28.842009    62.9150      6.811   198.3659 1.9887e+02    29.5934     -0.633     -0.917    22.1945 0.0000e+00
     -0.653     -0.022     6.8391     80.355     19.593  18.486893     4.6904      6.785   205.9690 1.9816e+02    36.8285     -0.641     -0.929    22.1785 0.0000e+00
     -0.661     -0.016     6.9635     79.667     14.003  13.214050    -0.5444      6.774   210.5571 1.9930e+02    58.1107     -0.650     -0.943    22.1637 0.0000e+00
     -0.664     -0.010     7.0577     78.918     10.902  10.287934    -0.3695      6.772   212.7995 2.0383e+02   286.7782     -0.654     -0.948    22.1619 0.0000e+00
     -0.664     -0.005     7.0549     78.289      8.692   8.203524     0.8207      6.770   216.4763 2.2808e+02   705.7761     -0.649     -0.941    22.1693 0.0000e+00
     -0.663     -0.000     7.0083     77.802      7.507   7.085124     1.9447      6.764   217.1560 2.8276e+02   932.4748     -0.654     -0.947    22.1748 0.0000e+00
     -0.660      0.003     6.9444     77.370      7.247   6.839880     7.2525      6.757   218.2643 3.1564e+02   931.6141     -0.646     -0.938    22.1775 0.0000e+00
     -0.659      0.003     6.8699     76.979      6.557   6.188845    64.8390      6.752   222.3909 2.8510e+02   694.8233     -0.644     -0.934    22.1801 0.0000e+00
     -0.660      0.004     6.8154     76.649      5.274   4.978837   170.3494      6.751   227.3004 2.3756e+02   257.4031     -0.650     -0.942    22.1822 0.0000e+00
     -0.660      0.007     6.7778     76.373      5.237   4.944048   227.4500      6.753   234.6911 2.1736e+02    18.7961     -0.646     -0.936    22.1837 0.0000e+00
     -0.660      0.010     6.7395     76.170      6.580   6.211629   227.3865      6.754   249.1147 2.1551e+02    -2.8238     -0.648     -0.939    22.1851 0.0000e+00
     -0.657      0.015     6.7033     76.007     11.444  10.802043   169.3893      6.751   268.7640 2.1840e+02    -4.7868     -0.646     -0.936    22.1867 0.0000e+00
     -0.652      0.023     6.6768     75.846     24.154  22.800047    62.2028      6.749   284.1873 2.2201e+02    -5.0060     -0.640     -0.928    22.1883 0.0000e+00
     -0.645      0.032     6.6496     75.733     38.621  36.455726     3.7106      6.751   292.6857 2.2088e+02    -5.0304     -0.633     -0.918    22.1897 0.0000e+00
     -0.637      0.040     6.6337     75.708     45.398  42.850804    -1.5933      6.753   292.9632 2.1797e+02    -4.9790     -0.626     -0.907    22.1904 0.0000e+00
     -0.626      0.046     6.6224     75.736     46.460  43.849009    -1.9764      6.755   285.6506 2.2159e+02    -4.5554     -0.618     -0.897    22.1909 0.0000e+00
     -0.609      0.053     6.6045     75.755     46.311  43.701064    -0.9541      6.757   279.2954 2.2857e+02     0.1598     -0.595     -0.864    22.1913 0.0000e+00
     -0.594      0.064     6.5934     75.770     45.479  42.902732     0.9878      6.757   275.8348 2.3463e+02     8.8202     -0.580     -0.841    22.1916 0.0000e+00
     -0.581      0.079     6.5917     75.810     44.410  41.876563     2.0263      6.755   272.8028 2.4214e+02    13.5284     -0.573     -0.830    22.1900 0.0000e+00
     -0.566      0.099     6.5997     76.060     43.779  41.258605     2.0975      6.746   269.7387 2.5175e+02    14.1134     -0.558     -0.809    22.1857 0.0000e+00
     -0.544      0.122     6.5984     76.555     43.546  41.016273     1.9068      6.729   265.4593 2.6450e+02    15.9956     -0.537     -0.780    22.1789 0.0000e+00
     -0.509      0.144     6.6044     76.881     43.456  40.913971     1.5182      6.713   261.2404 2.9064e+02    19.3436     -0.504     -0.731    22.1657 0.0000e+00
     -0.462      0.162     6.6039     76.964     43.463  40.910173     1.2943      6.706   258.9951 4.1976e+02    21.1176     -0.455     -0.660    22.1440 0.0000e+00
     -0.409      0.171     6.6176     77.113     43.533  40.970341     1.2968      6.705   257.8434 8.5681e+02    20.9121     -0.400     -0.581    22.1157 0.0000e+00
     -0.358      0.168     6.6931     77.389     43.574  41.006786     1.6823      6.703   253.4241 1.4388e+03    17.0635     -0.349     -0.507    22.0878 0.0000e+00
     -0.312      0.153     6.7244     77.742     43.536  40.970035     2.3843      6.700   241.9557 1.7230e+03     9.9395     -0.305     -0.443    22.0678 0.0000e+00
     -0.272      0.130     6.7135     78.165     43.468  40.906776     2.7513      6.699   229.2246 1.7701e+03     5.9983     -0.264     -0.384    22.0562 0.0000e+00
     -0.241      0.105     6.7312     78.561     43.435  40.876584     2.7747      6.697   223.3038 1.8069e+03     5.5852     -0.231     -0.334    22.0509 0.0000e+00
     -0.222      0.081     6.7583     78.893     43.416  40.858843     2.7918      6.695   222.0783 1.8196e+03     5.5261     -0.214     -0.311    22.0484 0.0000e+00
     -0.211      0.063     6.7858     79.232     43.373  40.819204     2.8331      6.693   221.6340 1.7999e+03     5.5230     -0.208     -0.303    22.0473 0.0000e+00
     -0.201      0.050     6.8286     79.543     43.330  40.778114     2.8577      6.690   221.5453 1.7820e+03     5.4786     -0.197     -0.285    22.0484 0.0000e+00
     -0.191      0.043     6.8655     79.778     43.293  40.742808     2.8473      6.687   221.5218 1.7715e+03     5.3996     -0.188     -0.271    22.0500 0.0000e+00
     -0.181      0.039     6.8875     79.963     43.258  40.709650     2.8322      6.685   221.5220 1.6450e+03     5.3532     -0.178     -0.260    22.0506 0.0000e+00
     -0.170      0.036     6.9211     80.069     43.242  40.694525     2.8252      6.684   221.6337 1.4594e+03     5.3966     -0.166     -0.241    22.0507 0.0000e+00
     -0.159      0.032     6.9503     80.042     43.233  40.686870     2.8300      6.683   221.8393 1.3900e+03     5.5139     -0.156     -0.226    22.0501 0.0000e+00
     -0.151      0.027     6.9688     80.060     43.227  40.680559     2.8481      6.684   222.1148 1.3461e+03     5.5419     -0.147     -0.214    22.0497 0.0000e+00
     -0.145      0.022     6.9846     80.288     43.228  40.681688     2.8531      6.686   223.1589 1.3291e+03     5.4616     -0.141     -0.204    22.0497 0.0000e+00
     -0.140      0.017     7.0005     80.496     43.248  40.700517     2.8489      6.689   233.7751 1.3421e+03     5.3974     -0.137     -0.198    22.0496 0.0000e+00
     -0.138      0.013     6.9906     80.362     43.266  40.717821     2.8629      6.694   245.7644 1.2377e+03     5.4144     -0.135     -0.196    22.0495 0.0000e+00
     -0.137      0.012     6.9798     79.777     43.247  40.700516     2.8897      6.698   248.5263 9.9628e+02     5.4967     -0.135     -0.196    22.0493 0.0000e+00
     -0.135      0.014     7.0135     78.825     43.226  40.681676     2.9064      6.701   256.5854 6.8568e+02     5.5379     -0.133     -0.192    22.0494 0.0000e+00
     -0.132      0.018     7.0424     77.652     43.225  40.680427     2.9149      6.702   264.6534 4.1874e+02     5.5372     -0.131     -0.189    22.0497 0.0000e+00
     -0.128      0.019     7.0341     76.470     43.230  40.685420     2.9354      6.700   265.8864 2.9149e+02     5.5558     -0.127     -0.184    22.0503 0.0000e+00
     -0.120      0.019     6.9786     75.589     43.224  40.678578     2.9535      6.697   267.1058 2.5865e+02     5.5927     -0.119     -0.172    22.0507 0.0000e+00
     -0.110      0.018     6.8909     75.324     43.207  40.661158     2.9588      6.695   267.3517 2.4346e+02     5.6081     -0.107     -0.154    22.0510 0.0000e+00
     -0.104      0.017     6.7840     75.900     43.213  40.665198     2.9744      6.695   266.6224 2.4335e+02     5.5365     -0.100     -0.145    22.0514 0.0000e+00
     -0.104      0.016     6.6685     77.150     43.214  40.663949     3.0009      6.695   265.7739 2.4568e+02     5.4101     -0.102     -0.146    22.0512 0.0000e+00
     -0.104      0.015     6.5837     78.425     43.195  40.646053     3.0136      6.694   265.5240 2.3513e+02     5.3102     -0.103     -0.149    22.0507 0.0000e+00
     -0.102      0.015     6.5506     79.166     43.187  40.639221     3.0116      6.693   265.8374 2.2787e+02     5.2849     -0.101     -0.147    22.0493 0.0000e+00
     -0.097      0.017     6.6029     79.276     43.192  40.644805     3.0423      6.693   265.8634 2.3115e+02     5.4112     -0.096     -0.139    22.0463 0.0000e+00
     -0.090      0.020     6.7399     78.837     43.197  40.650101     3.1020      6.693   265.4942 2.3140e+02     5.5728     -0.087     -0.126    22.0443 0.0000e+00
     -0.084      0.023     6.8714     77.880     43.186  40.639801     3.1256      6.693   264.9879 2.2448e+02     5.6002     -0.081     -0.118    22.0442 0.0000e+00
     -0.078      0.023     6.9347     76.506     43.193  40.647186     3.1289      6.694   264.0430 2.1600e+02     5.5713     -0.077     -0.112    22.0451 0.0000e+00
     -0.072      0.022     6.9396     74.978     43.223  40.675933     3.1495      6.695   263.1903 2.0746e+02     5.6332     -0.070     -0.102    22.0458 0.0000e+00
     -0.066      0.021     6.9022     73.584     43.217  40.670061     3.1834      6.695   263.1093 2.0305e+02     5.8020     -0.063     -0.092    22.0459 0.0000e+00
     -0.061      0.020     6.8169     72.445     43.184  40.639644     3.2055      6.694   263.2358 1.9935e+02     5.9040     -0.059     -0.085    22.0460 0.0000e+00
     -0.057      0.018     6.6869     71.500     43.168  40.625495     3.2008      6.692   263.4288 1.9624e+02     5.8766     -0.057     -0.083    22.0472 0.0000e+00
     -0.052      0.015     6.5434     70.660     43.168  40.625922     3.1932      6.690   263.6358 1.9551e+02     5.8464     -0.051     -0.075    22.0481 0.0000e+00
     -0.046      0.011     6.4169     69.834     43.188  40.644800     3.2044      6.690   262.7280 1.9550e+02     5.7777     -0.042     -0.062    22.0483 0.0000e+00
     -0.042      0.010     6.3222     69.020     43.207  40.663357     3.2287      6.690   261.0567 1.9589e+02     5.5918     -0.040     -0.057    22.0491 0.0000e+00
     -0.042      0.011     6.2411     68.353     43.203  40.659898     3.2453      6.691   259.7755 2.0173e+02     5.4442     -0.040     -0.058    22.0498 0.0000e+00
     -0.044      0.013     6.1710     67.880     43.209  40.666443     3.2477      6.690   253.5176 2.1338e+02     5.3934     -0.043     -0.062    22.0501 0.0000e+00
     -0.045      0.016     6.1015     67.530     43.223  40.679032     3.2732      6.686   242.0933 2.1258e+02     5.3870     -0.047     -0.067    22.0501 0.0000e+00
     -0.039      0.020     6.0214     67.262     43.230  40.685180     3.3291      6.680   234.7870 1.9682e+02     5.4361     -0.041     -0.058    22.0509 0.0000e+00
     -0.028      0.027     5.9629     67.175     43.221  40.677308     3.3586      6.670   231.7724 1.8474e+02     5.4745     -0.026     -0.037    22.0518 0.0000e+00
     -0.018      0.036     5.9247     67.365     43.189  40.647320     3.3634      6.659   230.3370 1.8440e+02     5.4412     -0.016     -0.022    22.0519 0.0000e+00
     -0.012      0.045     5.8968     67.747     43.181  40.639925     3.3535      6.650   236.2741 1.8177e+02     5.3756     -0.013     -0.018    22.0518 0.0000e+00
     -0.005      0.051     5.8698     68.232     43.194  40.651350     3.3211      6.644   244.8784 1.7196e+02     5.3646     -0.007     -0.010    22.0521 0.0000e+00
      0.010      0.055     5.8546     68.757     43.201  40.658527     3.3056      6.641   241.9651 1.6272e+02     5.4091      0.007      0.010    22.0528 0.0000e+00
      0.031      0.057     5.8789     69.277     43.205  40.663232     3.3158      6.641   233.4000 1.5686e+02     5.4365      0.030      0.042    22.0526 0.0000e+00
      0.053      0.056     5.9133     69.770     43.185  40.644783     3.3192      6.641   229.6811 1.5646e+02     5.4228      0.054      0.078    22.0525 0.0000e+00
      0.069      0.051     5.9574     70.140     43.164  40.625858     3.3056      6.643   228.8341 1.5942e+02     5.4134      0.069      0.101    22.0520 0.0000e+00
      0.079      0.043     6.0064     70.376     43.162  40.624808     3.3008      6.644   229.1830 1.5997e+02     5.4254      0.079      0.116    22.0518 0.0000e+00
      0.085      0.033     6.0490     70.559     43.169  40.632089     3.3119      6.644   235.9642 1.5577e+02     5.4316      0.085      0.123    22.0530 0.0000e+00
      0.090      0.023     6.0977     70.676     43.188  40.650423     3.3231      6.646   243.0256 1.5164e+02     5.3861      0.086      0.125    22.0539 0.0000e+00
      0.096      0.014     6.1315     70.811     43.193  40.656093     3.3273      6.649   238.0730 1.5208e+02     5.2508      0.093      0.134    22.0547 0.0000e+00
      0.102      0.007     6.1446     71.128     43.172  40.637168     3.3132      6.652   231.7503 1.5219e+02     5.1278      0.103      0.148    22.0558 0.0000e+00
      0.103      0.000     6.1653     71.628     43.145  40.612001     3.2942      6.654   233.6886 1.5111e+02     5.1283      0.103      0.149    22.0567 0.0000e+00
      0.100     -0.007     6.1734     72.281     43.138  40.605664     3.2392      6.658   238.0210 1.5067e+02     5.1895      0.098      0.142    22.0574 0.0000e+00
      0.096     -0.012     6.1741     72.996     43.158  40.624019     3.1141      6.662   237.7571 1.4777e+02     5.2187      0.094      0.138    22.0580 0.0000e+00
      0.091     -0.013     6.2075     73.585     43.179  40.643524     3.0053      6.663   234.0262 1.4430e+02     5.2087      0.090      0.131    22.0583 0.0000e+00
      0.084     -0.009     6.2492     73.903     43.187  40.651109     2.9633      6.660   231.8004 1.4171e+02     5.1705      0.082      0.119    22.0585 0.0000e+00
      0.079     -0.001     6.3085     73.908     43.188  40.652262     2.9561      6.656   230.7202 1.3818e+02     5.1666      0.076      0.111    22.0587 0.0000e+00
      0.079      0.013     6.3791     73.667     43.193  40.657465     2.9846      6.651   230.1708 1.3590e+02     5.2638      0.077      0.112    22.0590 0.0000e+00
      0.084      0.031     6.4340     73.334     43.186  40.650558     3.0425      6.644   230.3208 1.3790e+02     5.3888      0.081      0.118    22.0588 0.0000e+00
      0.092      0.048     6.4644     73.092     43.167  40.632210     3.0727      6.638   230.3829 1.3814e+02     5.4144      0.089      0.130    22.0588 0.0000e+00
      0.106      0.059     6.4613     73.035     43.160  40.626015     3.0675      6.633   230.1472 1.3503e+02     5.3686      0.100      0.146    22.0590 0.0000e+00
      0.130      0.063     6.4368     73.208     43.174  40.639123     3.1372      6.632   229.7947 1.3251e+02     5.3140      0.123      0.179    22.0589 0.0000e+00
      0.159      0.060     6.3989     73.537     43.201  40.663771     3.2915      6.633   229.5621 1.2853e+02     5.2661      0.160      0.234    22.0592 0.0000e+00
      0.179      0.054     6.3778     73.852     43.208  40.670164     3.3759      6.633   230.0872 1.2614e+02     5.2674      0.182      0.262    22.0593 0.0000e+00
      0.186      0.048     6.3699     74.079     43.190  40.652951     3.3752      6.632   231.4121 1.2586e+02     5.2278      0.184      0.267    22.0590 0.0000e+00
      0.187      0.048     6.3857     74.159     43.182  40.646041     3.3748      6.629   232.7610 1.2491e+02     5.1964      0.183      0.266    22.0585 0.0000e+00
      0.191      0.061     6.4250     74.151     43.186  40.650090     3.3973      6.628   233.4050 1.2538e+02     5.2970      0.185      0.268    22.0578 0.0000e+00
      0.200      0.082     6.4500     74.214     43.173  40.638438     3.4308      6.629   233.4337 1.2573e+02     5.4195      0.196      0.284    22.0572 0.0000e+00
      0.218      0.101     6.4748     74.377     43.165  40.632082     3.4467      6.633   233.4525 1.2276e+02     5.4826      0.206      0.298    22.0570 0.0000e+00
      0.257      0.111     6.4808     74.666     43.169  40.636702     3.4389      6.638   233.7181 1.1718e+02     5.4791      0.242      0.352    22.0577 0.0000e+00
      0.312      0.109     6.4698     75.111     43.161  40.630842     3.4288      6.642   234.1506 1.1280e+02     5.4111      0.314      0.456    22.0585 0.0000e+00
      0.355      0.096     6.4789     75.647     43.152  40.624694     3.4319      6.645   234.6377 1.1107e+02     5.3789      0.359      0.520    22.0591 0.0000e+00
      0.372      0.078     6.4911     76.207     43.151  40.625837     3.4443      6.648   235.1334 1.1046e+02     5.4313      0.370      0.536    22.0594 0.0000e+00
      0.375      0.061     6.5138     76.818     43.169  40.644667     3.4365      6.648   235.4118 1.1064e+02     5.4972      0.370      0.536    22.0603 0.0000e+00
      0.374      0.051     6.5558     77.497     43.187  40.661982     3.3963      6.646   235.4220 1.1341e+02     5.4927      0.366      0.530    22.0632 0.0000e+00
      0.377      0.051     6.6046     78.064     43.168  40.644792     3.3656      6.645   235.6010 1.1527e+02     5.3766      0.364      0.528    22.0666 0.0000e+00
      0.393      0.057     6.6531     78.319     43.148  40.627221     3.3734      6.644   235.9417 1.1209e+02     5.3230      0.379      0.549    22.0692 0.0000e+00
      0.421      0.064     6.7008     78.205     43.160  40.639922     3.3911      6.643   236.2717 1.0814e+02     5.3919      0.413      0.599    22.0711 0.0000e+00
      0.449      0.069     6.7699     77.923     43.193  40.671437     3.4044      6.645   236.0647 1.0625e+02     5.3903      0.445      0.646    22.0723 0.0000e+00
      0.466      0.070     6.8247     77.758     43.213  40.690936     3.4182      6.647   235.4167 1.0601e+02     5.2692      0.460      0.667    22.0730 0.0000e+00
      0.475      0.067     6.8506     77.747     43.207  40.685283     3.4158      6.648   235.4921 1.0636e+02     5.1577      0.465      0.674    22.0738 0.0000e+00
      0.486      0.063     6.8341     77.844     43.187  40.666558     3.4083      6.649   236.2878 1.0614e+02     5.1687      0.475      0.689    22.0748 0.0000e+00
      0.501      0.063     6.7944     78.028     43.175  40.654924     3.4198      6.649   237.2077 1.0521e+02     5.3338      0.491      0.713    22.0756 0.0000e+00
      0.521      0.067     6.7837     78.244     43.193  40.671552     3.4383      6.647   237.2368 1.0419e+02     5.5478      0.509      0.738    22.0760 0.0000e+00
      0.541      0.075     6.7841     78.513     43.200  40.677215     3.4411      6.643   236.2088 1.0373e+02     5.6051      0.532      0.772    22.0762 0.0000e+00
      0.560      0.081     6.7917     78.856     43.182  40.659921     3.4282      6.640   235.7050 1.0351e+02     5.5479      0.552      0.799    22.0762 0.0000e+00
      0.577      0.086     6.8110     79.058     43.175  40.652837     3.4483      6.638   236.3084 1.0322e+02     5.5743      0.563      0.816    22.0763 0.0000e+00
      0.599      0.091     6.8305     79.050     43.178  40.655030     3.5169      6.638   237.2235 1.0243e+02     5.6505      0.584      0.847    22.0760 0.0000e+00
      0.627      0.097     6.8468     79.049     43.212  40.686440     3.5593      6.638   237.3913 1.0167e+02     5.6836      0.617      0.894    22.0757 0.0000e+00
      0.654      0.102     6.8896     79.079     43.242  40.715281     3.5614      6.638   236.8741 1.0153e+02     5.7019      0.643      0.931    22.0755 0.0000e+00
      0.679      0.107     6.9132     79.055     43.211  40.686423     3.5672      6.637   236.5626 1.0075e+02     5.7003      0.664      0.962    22.0742 0.0000e+00
      0.707      0.108     6.8958     79.023     43.180  40.654843     3.5887      6.636   236.5510 9.9864e+01     5.6986      0.694      1.006    22.0729 0.0000e+00
      0.737      0.105     6.9000     79.007     43.185  40.650768     3.6127      6.637   236.7341 9.9866e+01     5.7150      0.724      1.050    22.0722 0.0000e+00
      0.767      0.101     6.9072     78.960     43.185  40.637140     3.6085      6.638   236.9700 9.8927e+01     5.6592      0.750      1.090    22.0727 0.0000e+00
      0.794      0.096     6.9009     78.924     43.179  40.616977     3.5630      6.637   237.4243 9.7402e+01     5.5024      0.781      1.133    22.0744 0.0000e+00
      0.816      0.089     6.8967     78.986     43.170  40.597351     3.5030      6.636   238.0111 9.6985e+01     5.3568      0.803      1.164    22.0731 0.0000e+00
      0.834      0.080     6.9012     79.147     43.170  40.590223     3.4820      6.637   237.9560 9.7065e+01     5.3329      0.815      1.183    22.0633 0.0000e+00
      0.854      0.071     6.8969     79.310     43.181  40.594253     3.4921      6.639   237.5316 9.7040e+01     5.3845      0.837      1.214    22.0443 0.0000e+00
      0.875      0.065     6.8922     79.417     43.175  40.582588     3.4911      6.642   237.4403 9.7252e+01     5.4000      0.860      1.248    22.0260 0.0000e+00
      0.890      0.065     6.8995     79.525     43.173  40.576107     3.4954      6.644   238.4004 9.7984e+01     5.3152      0.874      1.269    22.0141 0.0000e+00
      0.901      0.070     6.9178     79.581     43.182  40.579354     3.5191      6.644   239.9335 9.8862e+01     5.1795      0.884      1.282    22.0062 0.0000e+00
      0.912      0.077     6.9379     79.472     43.167  40.558380     3.5450      6.643   240.5765 9.9241e+01     5.1597      0.892      1.294    22.0000 0.0000e+00
      0.930      0.086     6.9412     79.222     43.131  40.512898     3.5678      6.641   240.1517 9.8806e+01     5.2118      0.908      1.317    21.9926 0.0000e+00
      0.958      0.096     6.9554     78.948     43.107  40.473668     3.6112      6.639   239.3580 9.8082e+01     5.2292      0.937      1.361    21.9864 0.0000e+00
      0.989      0.103     6.9660     78.716     43.120  40.464807     3.6698      6.638   240.1005 9.7207e+01     5.2672      0.971      1.409    21.9816 0.0000e+00
      1.020      0.106     6.9563     78.524     43.146  40.469192     3.7025      6.638   242.2460 9.5832e+01     5.3306      1.001      1.452    21.9749 0.0000e+00
      1.050      0.106     6.9309     78.423     43.156  40.463199     3.7236      6.638   243.2723 9.4386e+01     5.4149      1.030      1.495    21.9625 0.0000e+00
      1.076      0.104     6.9069     78.431     43.160  40.455794     3.7920      6.639   242.8736 9.3068e+01     5.5351      1.057      1.533    21.9426 0.0000e+00
      1.098      0.102     6.8931     78.486     43.153  40.443101     3.8882      6.641   242.0711 9.1217e+01     5.6220      1.077      1.561    21.9165 0.0000e+00
      1.121      0.100     6.8757     78.521     43.151  40.436650     3.9291      6.643   242.2586 8.8549e+01     5.6117      1.096      1.589    21.8912 0.0000e+00
      1.147      0.096     6.8684     78.493     43.164  40.441252     3.9285      6.644   243.6787 8.5907e+01     5.5813      1.125      1.632    21.8726 0.0000e+00
      1.175      0.091     6.8745     78.420     43.170  40.435271     3.9644      6.647   244.7012 8.3707e+01     5.5626      1.154      1.673    21.8598 0.0000e+00
      1.201      0.081     6.8807     78.382     43.177  40.427773     4.0385      6.649   244.6405 8.1821e+01     5.5211      1.179      1.709    21.8540 0.0000e+00
      1.225      0.066     6.8871     78.429     43.176  40.414040     4.0764      6.650   244.1490 8.0381e+01     5.4551      1.203      1.745    21.8504 0.0000e+00
      1.242      0.049     6.8848     78.499     43.164  40.396145     4.0649      6.652   243.9207 7.9641e+01     5.3799      1.221      1.771    21.8417 0.0000e+00
      1.250      0.037     6.8774     78.492     43.170  40.401784     4.0656      6.654   244.1175 7.9487e+01     5.2949      1.228      1.780    21.8278 0.0000e+00
      1.251      0.033     6.8736     78.382     43.184  40.418758     4.1006      6.655   244.6362 7.9468e+01     5.2132      1.229      1.781    21.8092 0.0000e+00
      1.249      0.041     6.8826     78.213     43.173  40.410984     4.1391      6.654   245.2019 7.9603e+01     5.2120      1.223      1.775    21.7925 0.0000e+00
      1.251      0.056     6.8945     78.050     43.136  40.371260     4.1402      6.652   245.5365 7.9070e+01     5.2119      1.223      1.773    21.7858 0.0000e+00
      1.265      0.072     6.8932     77.922     43.109  40.319244     4.1226      6.651   245.5840 7.7213e+01     5.1443      1.234      1.789    21.7869 0.0000e+00
      1.294      0.084     6.8822     77.817     43.139  40.289743     4.1507      6.652   244.9162 7.4822e+01     5.2138      1.266      1.835    21.7931 0.0000e+00
      1.333      0.087     6.8634     77.682     43.183  40.268328     4.2133      6.655   244.0010 7.2443e+01     5.4714      1.310      1.901    21.7969 0.0000e+00
      1.366      0.081     6.8492     77.554     43.198  40.250618     4.2473      6.657   244.1549 7.0861e+01     5.6638      1.345      1.952    21.7976 0.0000e+00
      1.386      0.071     6.8397     77.519     43.212  40.265954     4.2445      6.658   245.0569 7.0545e+01     5.6607      1.364      1.978    21.7775 0.0000e+00
      1.392      0.061     6.8450     77.490     43.195  40.263375     4.2042      6.660   245.8720 7.0730e+01     5.5360      1.366      1.982    21.6960 0.0000e+00
      1.395      0.054     6.8447     77.327     43.152  40.219451     4.1442      6.660   245.4927 7.0765e+01     5.4195      1.365      1.980    21.6015 0.0000e+00
      1.402      0.052     6.8312     77.018     43.142  40.179112     4.1264      6.660   244.0840 7.0478e+01     5.3803      1.371      1.988    21.5662 0.0000e+00
      1.420      0.054     6.8316     76.658     43.167  40.156374     4.1387      6.661   243.6395 6.9756e+01     5.4035      1.390      2.017    21.5817 0.0000e+00
      1.444      0.058     6.8309     76.351     43.187  40.134864     4.0937      6.664   244.2470 6.9349e+01     5.3583      1.418      2.058    21.6111 0.0000e+00
      1.462      0.060     6.8162     76.126     43.189  40.109363     3.9973      6.666   244.9760 6.9758e+01     5.2102      1.437      2.085    21.6120 0.0000e+00
      1.474      0.060     6.7914     75.942     43.199  40.101853     3.9475      6.668   244.7973 7.0066e+01     5.1497      1.445      2.096    21.5672 0.0000e+00
      1.485      0.056     6.7638     75.763     43.215  40.107503     3.9487      6.669   243.7207 6.9721e+01     5.2075      1.455      2.110    21.5040 0.0000e+00
      1.499      0.052     6.7421     75.576     43.227  40.114212     3.9450      6.669   243.3157 6.9150e+01     5.2263      1.470      2.132    21.4553 0.0000e+00
      1.514      0.056     6.7285     75.356     43.235  40.119499     3.9275      6.668   243.8591 6.8842e+01     5.1720      1.484      2.154    21.4247 0.0000e+00
      1.528      0.066     6.7160     75.091     43.224  40.107959     3.9039      6.665   244.5254 6.8327e+01     5.1318      1.499      2.175    21.4069 0.0000e+00
      1.539      0.078     6.7006     74.767     43.219  40.101602     3.8924      6.661   244.7468 6.7176e+01     5.1154      1.509      2.189    21.3985 0.0000e+00
      1.553      0.086     6.6861     74.352     43.228  40.106100     3.9564      6.660   244.5569 6.5005e+01     5.1787      1.516      2.200    21.3928 0.0000e+00
      1.582      0.086     6.6680     73.894     43.228  40.098880     4.0780      6.661   244.2950 6.1501e+01     5.3164      1.546      2.241    21.3905 0.0000e+00
      1.621      0.080     6.6432     73.504     43.211  40.077752     4.1393      6.664   244.1615 5.8301e+01     5.3450      1.594      2.313    21.3900 0.0000e+00
      1.652      0.070     6.6181     73.266     43.173  40.041027     4.1310      6.666   244.2332 5.6611e+01     5.2864      1.628      2.361    21.3890 0.0000e+00
      1.666      0.056     6.5795     73.191     43.168  40.035616     4.1108      6.667   244.8178 5.5936e+01     5.2904      1.637      2.374    21.3848 0.0000e+00
      1.667      0.042     6.5359     73.259     43.209  40.075786     4.0789      6.669   245.7235 5.5625e+01     5.3598      1.635      2.372    21.3749 0.0000e+00
      1.666      0.035     6.5002     73.493     43.212  40.082491     4.0364      6.670   246.1491 5.5220e+01     5.4423      1.632      2.367    21.3676 0.0000e+00
      1.668      0.040     6.4780     73.828     43.178  40.053220     4.0132      6.669   246.0057 5.4686e+01     5.4676      1.634      2.369    21.3667 0.0000e+00
      1.677      0.053     6.4747     74.122     43.166  40.039185     4.0151      6.668   245.6247 5.3970e+01     5.4271      1.643      2.382    21.3668 0.0000e+00
      1.694      0.066     6.4768     74.262     43.175  40.039725     4.1253      6.668   245.4146 5.2786e+01     5.4641      1.658      2.404    21.3689 0.0000e+00
      1.719      0.074     6.4987     74.177     43.205  40.059740     4.3380      6.668   246.0460 5.1402e+01     5.6078      1.684      2.442    21.3750 0.0000e+00
      1.748      0.075     6.5350     74.024     43.244  40.090781     4.4566      6.668   247.1501 5.0379e+01     5.6955      1.717      2.489    21.3791 0.0000e+00
      1.773      0.071     6.5626     74.044     43.252  40.097717     4.4611      6.669   247.4069 4.9677e+01     5.6708      1.743      2.528    21.3749 0.0000e+00
      1.788      0.063     6.5815     74.130     43.228  40.080134     4.4167      6.670   246.8289 4.9131e+01     5.5832      1.756      2.547    21.3649 0.0000e+00
      1.796      0.057     6.5711     74.110     43.206  40.068585     4.3614      6.672   246.2700 4.8559e+01     5.4898      1.762      2.554    21.3543 0.0000e+00
      1.805      0.057     6.5425     74.084     43.215  40.085012     4.3586      6.673   246.7584 4.7701e+01     5.4639      1.769      2.567    21.3465 0.0000e+00
      1.816      0.062     6.5529     74.059     43.214  40.088375     4.3912      6.673   248.0869 4.6615e+01     5.4746      1.779      2.582    21.3457 0.0000e+00
      1.831      0.069     6.5708     73.903     43.171  40.045781     4.5383      6.673   248.7385 4.5152e+01     5.4829      1.792      2.600    21.3524 0.0000e+00
      1.853      0.074     6.5568     73.648     43.146  40.014259     4.7975      6.675   248.5280 4.3152e+01     5.5639      1.813      2.631    21.3631 0.0000e+00
      1.881      0.072     6.5533     73.411     43.167  40.024549     4.9458      6.675   248.2099 4.1174e+01     5.6680      1.845      2.676    21.3744 0.0000e+00
      1.907      0.066     6.5594     73.220     43.193  40.043257     4.9744      6.675   248.4194 3.9752e+01     5.6834      1.875      2.719    21.3818 0.0000e+00
      1.923      0.057     6.5423     73.071     43.203  40.050052     4.9846      6.675   249.0826 3.8870e+01     5.6128      1.890      2.740    21.3789 0.0000e+00
      1.931      0.049     6.5159     72.979     43.195  40.043245     4.9778      6.675   249.6901 3.8284e+01     5.4978      1.893      2.746    21.3663 0.0000e+00
      1.935      0.046     6.4973     72.958     43.173  40.024424     4.9665      6.675   249.9993 3.7743e+01     5.4199      1.897      2.752    21.3536 0.0000e+00
      1.940      0.048     6.4813     72.982     43.162  40.012876     4.9645      6.673   250.0681 3.7161e+01     5.4234      1.902      2.759    21.3466 0.0000e+00
      1.950      0.056     6.4678     72.962     43.188  40.030544     4.8710      6.672   249.8337 3.6395e+01     5.4366      1.908      2.768    21.3446 0.0000e+00
      1.968      0.065     6.4589     72.832     43.217  40.047649     4.6683      6.672   249.4026 3.5384e+01     5.4096      1.928      2.796    21.3455 0.0000e+00
      1.993      0.070     6.4568     72.627     43.207  40.029283     4.5449      6.673   249.4153 3.4368e+01     5.3697      1.956      2.836    21.3495 0.0000e+00
      2.017      0.075     6.4628     72.464     43.182  39.998857     4.5190      6.673   249.9874 3.3637e+01     5.3303      1.978      2.869    21.3495 0.0000e+00
      2.037      0.080     6.4647     72.428     43.185  39.997078     4.5217      6.671   250.7264 3.3191e+01     5.3428      2.000      2.900    21.3411 0.0000e+00
      2.052      0.085     6.4534     72.458     43.200  40.007765     4.6360      6.669   251.2101 3.2753e+01     5.4530      2.016      2.923    21.3281 0.0000e+00
      2.066      0.090     6.4324     72.395     43.200  40.001143     4.8432      6.668   250.7590 3.2061e+01     5.5700      2.022      2.933    21.3163 0.0000e+00
      2.087      0.094     6.4150     72.169     43.186  39.980470     4.9633      6.669   249.8329 3.0971e+01     5.5951      2.041      2.960    21.3089 0.0000e+00
      2.120      0.096     6.4145     71.840     43.159  39.948177     4.9816      6.670   249.9071 2.9773e+01     5.5857      2.081      3.017    21.3046 0.0000e+00
      2.154      0.093     6.4247     71.475     43.142  39.927996     5.0642      6.671   250.6238 2.8753e+01     5.5590      2.116      3.069    21.3014 0.0000e+00
      2.181      0.086     6.4223     71.049     43.145  39.926841     5.2211      6.673   250.8414 2.7926e+01     5.4775      2.141      3.105    21.2938 0.0000e+00
      2.201      0.072     6.4006     70.504     43.155  39.934216     5.3052      6.675   250.2154 2.7298e+01     5.4203      2.162      3.135    21.2830 0.0000e+00
      2.216      0.057     6.3692     69.875     43.177  39.953704     5.3068      6.677   249.1631 2.6846e+01     5.4133      2.175      3.155    21.2744 0.0000e+00
      2.225      0.047     6.3391     69.294     43.197  39.972075     5.2581      6.678   248.7010 2.6537e+01     5.4267      2.183      3.166    21.2689 0.0000e+00
      2.230      0.044     6.3051     68.863     43.191  39.965947     5.1816      6.679   249.1878 2.6308e+01     5.4466      2.187      3.172    21.2654 0.0000e+00
      2.237      0.048     6.2557     68.578     43.167  39.943070     5.1486      6.679   250.1440 2.6035e+01     5.4487      2.192      3.180    21.2632 0.0000e+00
      2.248      0.056     6.1947     68.399     43.174  39.949322     5.1580      6.679   250.4540 2.5569e+01     5.4522      2.203      3.193    21.2619 0.0000e+00
      2.265      0.065     6.1393     68.315     43.204  39.978079     5.2696      6.678   249.9259 2.5020e+01     5.4537      2.220      3.219    21.2614 0.0000e+00
      2.285      0.071     6.1022     68.307     43.199  39.973459     5.4664      6.679   249.5224 2.4478e+01     5.4336      2.240      3.249    21.2612 0.0000e+00
      2.309      0.072     6.0790     68.339     43.180  39.956916     5.5816      6.679   249.5333 2.3908e+01     5.4145      2.266      3.285    21.2606 0.0000e+00
      2.333      0.069     6.0626     68.393     43.191  39.968454     5.6137      6.680   249.7138 2.3482e+01     5.3930      2.290      3.322    21.2604 0.0000e+00
      2.351      0.061     6.0557     68.478     43.209  39.986036     5.6300      6.682   250.2409 2.3267e+01     5.3442      2.308      3.346    21.2603 0.0000e+00
      2.362      0.052     6.0567     68.591     43.202  39.979109     5.6373      6.684   250.9174 2.3173e+01     5.3030      2.318      3.361    21.2610 0.0000e+00
      2.371      0.046     6.0597     68.710     43.168  39.948163     5.6351      6.685   251.0096 2.3066e+01     5.3391      2.325      3.372    21.2626 0.0000e+00
      2.380      0.047     6.0642     68.832     43.148  39.929180     5.6375      6.685   250.6680 2.2870e+01     5.4056      2.334      3.386    21.2642 0.0000e+00
      2.388      0.054     6.0708     68.948     43.162  39.939981     5.6489      6.685   250.4000 2.2685e+01     5.4234      2.343      3.399    21.2645 0.0000e+00
      2.398      0.064     6.0830     69.011     43.180  39.951822     5.5573      6.684   250.5223 2.2359e+01     5.4509      2.348      3.406    21.2647 0.0000e+00
      2.416      0.073     6.0925     68.987     43.181  39.945418     5.3622      6.682   251.5449 2.1665e+01     5.5341      2.364      3.428    21.2651 0.0000e+00
      2.443      0.080     6.1034     68.908     43.171  39.926013     5.2541      6.682   252.8705 2.0895e+01     5.6091      2.396      3.476    21.2653 0.0000e+00
      2.471      0.081     6.1158     68.840     43.166  39.907568     5.2572      6.682   252.8690 2.0329e+01     5.6396      2.426      3.519    21.2633 0.0000e+00
      2.493      0.077     6.1238     68.798     43.186  39.912764     5.3082      6.682   251.9562 1.9840e+01     5.5618      2.446      3.547    21.2573 0.0000e+00
      2.513      0.069     6.1213     68.754     43.211  39.925355     5.3793      6.683   251.5567 1.9387e+01     5.3862      2.465      3.576    21.2507 0.0000e+00
      2.529      0.062     6.1123     68.639     43.226  39.932867     5.4174      6.684   252.5129 1.9037e+01     5.2926      2.482      3.599    21.2388 0.0000e+00
      2.539      0.062     6.1091     68.384     43.244  39.940122     5.4359      6.682   254.3972 1.8760e+01     5.3183      2.490      3.611    21.2198 0.0000e+00
      2.548      0.069     6.1077     67.978     43.269  39.949588     5.5786      6.678   255.3260 1.8459e+01     5.4925      2.496      3.622    21.2029 0.0000e+00
      2.561      0.080     6.1073     67.437     43.326  39.983840     5.8359      6.675   255.3110 1.8039e+01     5.7247      2.509      3.638    21.1923 0.0000e+00
      2.581      0.091     6.1012     66.815     43.408  40.036921     5.9749      6.674   254.9894 1.7364e+01     5.8026      2.526      3.664    21.1861 0.0000e+00
      2.613      0.098     6.0789     66.168     43.489  40.083661     5.9948      6.673   254.8798 1.6469e+01     5.7859      2.560      3.712    21.1768 0.0000e+00
      2.651      0.098     6.0448     65.491     43.547  40.104685     6.0680      6.673   255.7066 1.5725e+01     5.7610      2.603      3.774    21.1617 0.0000e+00
      2.683      0.091     5.9976     64.823     43.576  40.100678     6.2018      6.673   256.3818 1.5294e+01     5.7401      2.635      3.821    21.1399 0.0000e+00
      2.703      0.078     5.9416     64.205     43.597  40.098641     6.2818      6.674   256.1609 1.5041e+01     5.7041      2.654      3.848    21.1138 0.0000e+00
      2.716      0.063     5.8902     63.549     43.664  40.143484     6.2859      6.675   255.7030 1.4893e+01     5.6345      2.666      3.866    21.0837 0.0000e+00
      2.726      0.051     5.8329     62.759     43.954  40.389001     6.2269      6.676   255.4913 1.4803e+01     5.5814      2.674      3.878    21.0431 0.0000e+00
      2.734      0.046     5.7741     61.824     44.716  41.036277     6.1424      6.679   255.6660 1.4697e+01     5.6093      2.681      3.888    21.0018 0.0000e+00
      2.742      0.050     5.7267     60.757     45.771  41.876828     6.1122      6.681   256.0941 1.4540e+01     5.6638      2.689      3.898    20.9811 0.0000e+00
      2.753      0.059     5.6735     59.613     46.647  42.491494     6.1121      6.682   256.5384 1.4263e+01     5.6254      2.696      3.911    20.9637 0.0000e+00
      2.769      0.069     5.6041     58.423     47.484  43.073012     6.0996      6.681   256.8221 1.3910e+01     5.5543      2.714      3.936    20.9468 0.0000e+00
      2.790      0.075     5.5240     56.909     48.208  43.575960     6.0110      6.681   256.3404 1.3536e+01     5.5556      2.735      3.967    20.9167 0.0000e+00
      2.815      0.077     5.4425     54.389     48.618  43.811881     5.8482      6.681   255.3601 1.3067e+01     5.6418      2.758      4.001    20.7758 0.0000e+00
      2.842      0.074     5.3615     50.268     49.173  44.211526     5.7618      6.681   255.2082 1.2652e+01     5.7425      2.790      4.046    20.5283 0.0000e+00
      2.862      0.066     5.2813     44.599     49.632  44.535872     5.7658      6.681   255.9663 1.2438e+01     5.7141      2.811      4.077    20.3398 0.0000e+00
      2.874      0.056     5.1854     37.962     49.685  44.496132     5.7057      6.682   256.7830 1.2284e+01     5.5038      2.818      4.087    20.1938 0.0000e+00
      2.884      0.046     4.9986     30.952     49.806  44.556118     5.5676      6.682   256.3070 1.2105e+01     5.2494      2.829      4.103    20.0286 0.0000e+00
      2.894      0.039     4.6285     24.185     50.403  45.070664     5.4852      6.683   254.8565 1.1971e+01     5.1317      2.840      4.119    19.9497 0.0000e+00
      2.900      0.037     4.0930     18.266     51.529  46.019987     5.4753      6.683   254.8188 1.1877e+01     5.1394      2.844      4.124    19.8712 0.0000e+00
      2.907      0.042     3.4803     13.466     52.816  47.019904     5.4737      6.680   256.0231 1.1729e+01     5.2054      2.848      4.131    19.7500 0.0000e+00
      2.918      0.052     2.8246      9.874     53.761  47.637850     5.4657      6.675   257.0282 1.1533e+01     5.2812      2.861      4.149    19.7112 0.0000e+00
      2.930      0.068     2.1789      7.481     54.190  47.777512     5.4609      6.669   257.3352 1.1359e+01     5.3046      2.874      4.168    19.7196 0.0000e+00
      2.943      0.087     1.6347      5.982     54.310  47.628955     5.4669      6.662   256.9817 1.1100e+01     5.3171      2.883      4.181    19.6868 0.0000e+00
      2.967      0.105     1.1984      4.977     54.344  47.365038     5.5797      6.655   257.2280 1.0621e+01     5.3646      2.903      4.210    19.5436 0.0000e+00
      3.002      0.120     0.8671      4.153     54.474  47.125605     5.8005      6.646   258.6784 1.0076e+01     5.4002      2.944      4.269    19.2962 0.0000e+00
      3.041      0.126     0.6643      3.274     54.784  47.019045     5.9305      6.637   260.0642 9.5927e+00     5.4057      2.983      4.326    19.0824 0.0000e+00
      3.080      0.123     0.5420      2.344     55.049  46.964954     5.9539      6.629   260.7330 9.1160e+00     5.3972      3.019      4.378    18.8589 0.0000e+00
      3.119      0.109     0.4588      1.560     55.180  46.915638     6.0418      6.622   261.5155 8.7387e+00     5.3316      3.062      4.442    18.5923 0.0000e+00
      3.148      0.089     0.3950      0.998     55.241  46.866973     6.2268      6.615   262.5569 8.5208e+00     5.2612      3.092      4.485    18.2745 0.0000e+00
      3.164      0.074     0.3156      0.656     55.189  46.757329     6.3517      6.609   263.5157 8.4278e+00     5.1949      3.106      4.504    17.8685 0.0000e+00
      3.171      0.066     0.2158      0.531     55.204  46.732594     6.3700      6.605   264.5043 8.4087e+00     5.1455      3.112      4.513    17.6039 0.0000e+00
      3.175      0.063     0.1418      0.583     55.443  46.885286     6.3894      6.602   265.3048 8.3272e+00     5.1756      3.111      4.512    17.4995 0.0000e+00
      3.187      0.063     0.0892      0.813     55.732  47.016330     6.6861      6.598   265.7939 8.1107e+00     5.2519      3.119      4.524    17.4039 0.0000e+00
      3.211      0.065     0.0541      1.177     55.992  47.047195     7.2366      6.594   266.4600 7.8162e+00     5.3846      3.147      4.565    17.3454 0.0000e+00
      3.239      0.065     0.0469      1.579     56.254  47.067762     7.5434      6.590   267.4227 7.5620e+00     5.4481      3.179      4.612    17.3265 0.0000e+00
      3.261      0.061     0.0491      1.975     56.524  47.137774     7.6407      6.586   269.2603 7.4159e+00     5.4050      3.201      4.642    17.2988 0.0000e+00
      3.273      0.055     0.0731      2.379     56.749  47.195164     8.4124      6.584   271.2974 7.3410e+00     5.3074      3.212      4.658    17.2104 0.0000e+00
      3.280      0.050     0.1134      2.762     56.858  47.190129     9.8240      6.583   270.9742 7.2804e+00     5.1556      3.217      4.667    17.0135 0.0000e+00
      3.285      0.051     0.1541      3.053     56.954  47.267223    10.6344      6.579   269.1386 7.2237e+00     5.1414      3.221      4.671    16.8034 0.0000e+00
      3.292      0.058     0.1912      3.228     57.299  47.619411    11.0702      6.575   269.2359 7.1142e+00     5.2714      3.225      4.678    16.6929 0.0000e+00
      3.307      0.068     0.2319      3.319     58.306  48.464568    14.9431      6.573   271.0323 6.8878e+00     5.7032      3.239      4.698    16.5764 0.0000e+00
      3.331      0.075     0.2736      3.360     60.354  49.930662    22.0206      6.570   271.9301 6.5851e+00     6.4352      3.266      4.736    16.4533 0.0000e+00
      3.361      0.078     0.3031      3.355     62.879  51.503882    25.8570      6.565   271.7458 6.3102e+00     6.8457      3.297      4.782    16.4662 0.0000e+00
      3.386      0.076     0.3174      3.321     64.717  52.436744    26.0630      6.561   271.3849 6.1177e+00     6.9430      3.323      4.820    16.5582 0.0000e+00
      3.404      0.068     0.3244      3.321     65.558  52.700084    24.5032      6.557   271.8685 5.9674e+00     7.3724      3.339      4.844    16.6364 0.0000e+00
      3.418      0.058     0.3299      3.417     65.583  52.464795    21.5548      6.554   273.2906 5.8472e+00     8.1094      3.353      4.863    16.4755 0.0000e+00
      3.429      0.053     0.3328      3.608     65.253  52.004699    19.9359      6.549   274.2101 5.7653e+00     8.4745      3.364      4.878    15.9734 0.0000e+00
      3.438      0.054     0.3306      3.814     65.652  52.090092    19.8440      6.544   274.2966 5.6970e+00     8.4405      3.371      4.889    15.4491 0.0000e+00
      3.447      0.059     0.3297      3.934     66.857  52.734942    20.5852      6.538   274.1639 5.5956e+00     8.4147      3.379      4.901    15.1426 0.0000e+00
      3.460      0.064     0.3406      3.934     67.777  53.133287    21.9906      6.532   274.2411 5.3658e+00     8.4697      3.388      4.915    14.9840 0.0000e+00
      3.483      0.067     0.3639      3.853     68.218  53.222866    22.7613      6.527   274.3700 5.0089e+00     8.5595      3.412      4.949    14.8511 0.0000e+00
      3.511      0.066     0.3912      3.741     68.550  53.309691    22.6795      6.523   274.0873 4.7040e+00     8.5438      3.447      4.998    14.7029 0.0000e+00
      3.531      0.061     0.4062      3.619     68.756  53.357296    20.9600      6.519   273.0597 4.5505e+00     8.3833      3.466      5.027    14.4439 0.0000e+00
      3.543      0.053     0.4067      3.474     68.826  53.353785    17.8261      6.513   271.5821 4.4483e+00     8.2584      3.474      5.040    14.1664 0.0000e+00
      3.552      0.047     0.3982      3.322     68.728  53.267165    16.1409      6.508   270.5905 4.3360e+00     8.2629      3.484      5.052    13.9856 0.0000e+00
      3.558      0.046     0.3863      3.202     68.262  52.881540    16.0156      6.502   270.2758 4.2526e+00     8.3004      3.490      5.062    13.8666 0.0000e+00
      3.564      0.051     0.3758      3.108     67.568  52.247470    16.1863      6.497   270.1868 4.1476e+00     8.2681      3.493      5.066    13.7868 0.0000e+00
      3.574      0.057     0.3609      3.003     67.213  51.823947    18.2887      6.492   268.4821 3.9196e+00     8.2147      3.500      5.076    13.7388 0.0000e+00
      3.595      0.061     0.3421      2.887     67.229  51.697783    22.1502      6.485   264.5494 3.6070e+00     8.2009      3.522      5.108    13.7504 0.0000e+00
      3.621      0.062     0.3305      2.789     67.154  51.547399    24.2400      6.479   260.6661 3.3325e+00     8.2375      3.554      5.155    13.7585 0.0000e+00
      3.643      0.060     0.3236      2.704     66.784  51.212081    24.3382      6.475   256.8918 3.1715e+00     8.3160      3.577      5.187    13.6744 0.0000e+00
      3.654      0.056     0.3134      2.615     66.237  50.754929    23.3960      6.472   251.7808 3.0954e+00     8.4330      3.585      5.200    13.5428 0.0000e+00
      3.660      0.049     0.3001      2.542     65.751  50.337905    21.6368      6.468   246.7079 3.0079e+00     8.5930      3.589      5.204    13.4329 0.0000e+00
      3.669      0.044     0.2902      2.488     65.433  50.043211    20.6543      6.465   243.1358 2.8872e+00     8.6784      3.596      5.215    13.3647 0.0000e+00
      3.682      0.045     0.2841      2.443     65.084  49.731631    20.3482      6.460   240.5111 2.7664e+00     8.7144      3.610      5.237    13.3350 0.0000e+00
      3.695      0.052     0.2722      2.418     64.389  49.173873    18.0851      6.453   238.2896 2.6699e+00     8.9944      3.625      5.257    13.3133 0.0000e+00
      3.705      0.058     0.2651      2.390     63.623  48.569359    13.9653      6.444   235.2040 2.5921e+00     9.4337      3.633      5.269    13.2790 0.0000e+00
      3.719      0.062     0.2612      2.352     63.269  48.263815    11.7105      6.439   231.0804 2.4831e+00     9.6191      3.643      5.283    13.2352 0.0000e+00
      3.740      0.063     0.2545      2.338     63.011  48.019220    11.3560      6.435   227.4934 2.3474e+00     9.6306      3.667      5.318    13.1965 0.0000e+00
      3.762      0.062     0.2542      2.360     62.575  47.643585     9.6715      6.432   224.8728 2.2513e+00     9.7434      3.694      5.357    13.1772 0.0000e+00
      3.779      0.060     0.2519      2.423     62.164  47.277395     6.6321      6.428   222.9694 2.2059e+00     9.8898      3.708      5.378    13.1748 0.0000e+00
      3.790      0.058     0.2455      2.577     61.673  46.829502     4.9788      6.426   221.3430 2.1577e+00     9.9318      3.715      5.389    13.1442 0.0000e+00
      3.801      0.058     0.2442      2.864     60.989  46.227698     4.8296      6.424   219.4907 2.0905e+00     9.9105      3.727      5.406    13.0941 0.0000e+00
      3.813      0.059     0.2477      3.289     60.507  45.778087     4.8116      6.421   217.4381 2.0282e+00     9.7345      3.740      5.425    13.0700 0.0000e+00
      3.827      0.061     0.2512      3.845     60.439  45.646630     4.8018      6.419   215.6252 1.9467e+00     9.4092      3.750      5.439    13.0330 0.0000e+00
      3.846      0.062     0.2668      4.595     60.445  45.590432     4.8031      6.417   214.7797 1.8380e+00     9.2218      3.769      5.467    12.9623 0.0000e+00
      3.870      0.059     0.2969      5.607     60.356  45.479423     4.8109      6.414   214.5282 1.7553e+00     9.2109      3.798      5.508    12.8950 0.0000e+00
      3.888      0.054     0.3438      6.820     60.281  45.383582     4.8039      6.412   213.6160 1.7163e+00     9.2090      3.817      5.535    12.8274 0.0000e+00
      3.899      0.048     0.4013      8.124     60.240  45.320323     4.7521      6.412   212.1833 1.6883e+00     9.0967      3.824      5.545    12.7513 0.0000e+00
      3.907      0.044     0.4747      9.384     60.217  45.285859     4.6834      6.411   210.9717 1.6605e+00     8.9805      3.831      5.556    12.7029 0.0000e+00
      3.913      0.045     0.5885     10.443     60.309  45.347755     4.6482      6.411   211.0985 1.6397e+00     8.9650      3.838      5.567    12.6753 0.0000e+00
      3.919      0.054     0.7203     11.181     60.517  45.497352     4.6342      6.412   212.4260 1.6151e+00     8.9780      3.843      5.573    12.6376 0.0000e+00
      3.929      0.065     0.8647     11.563     60.629  45.571053     4.5724      6.413   212.6529 1.5646e+00     8.9325      3.849      5.583    12.6072 0.0000e+00
      3.949      0.073     1.0057     11.652     60.611  45.540560     4.4498      6.414   211.8625 1.4795e+00     8.7907      3.867      5.610    12.5958 0.0000e+00
      3.979      0.078     1.1222     11.535     60.602  45.509530     4.3677      6.414   211.5597 1.3888e+00     8.6985      3.903      5.659    12.5944 0.0000e+00
      4.009      0.079     1.2038     11.343     60.556  45.449781     4.3540      6.414   212.0036 1.3220e+00     8.7058      3.936      5.709    12.5885 0.0000e+00
      4.030      0.076     1.2394     11.218     60.436  45.325967     4.4256      6.413   212.9280 1.2925e+00     8.7768      3.955      5.737    12.5804 0.0000e+00
      4.042      0.070     1.2484     11.253     60.368  45.218623     4.5671      6.413   213.6157 1.2840e+00     8.8738      3.963      5.748    12.5695 0.0000e+00
      4.053      0.067     1.2307     11.522     60.393  45.167530     4.6331      6.412   213.8656 1.2619e+00     8.8875      3.972      5.760    12.5418 0.0000e+00
      4.068      0.072     1.2041     12.052     60.468  45.152497     4.5668      6.411   214.3146 1.2334e+00     8.9087      3.989      5.786    12.5251 0.0000e+00
      4.085      0.083     1.1896     12.819     60.580  45.163741     3.8576      6.410   215.5176 1.2086e+00     9.5048      4.006      5.811    12.5067 0.0000e+00
      4.104      0.093     1.1907     13.764     60.688  45.176431     2.5662      6.409   217.0530 1.1656e+00    10.6641      4.020      5.832    12.4516 0.0000e+00
      4.131      0.094     1.2211     14.915     60.759  45.178899     1.8694      6.408   218.3380 1.0872e+00    11.3119      4.045      5.867    12.3912 0.0000e+00
      4.169      0.087     1.2790     16.381     60.818  45.193524     1.7924      6.408   219.2675 1.0037e+00    11.3249      4.088      5.930    12.3344 0.0000e+00
      4.203      0.075     1.3673     18.216     60.878  45.226263     1.6675      6.408   219.8600 9.6253e-01    11.5047      4.131      5.991    12.2718 0.0000e+00
      4.219      0.061     1.4701     20.381     60.914  45.257323     1.4754      6.408   220.4252 9.5324e-01    11.9482      4.144      6.010    12.2122 0.0000e+00
      4.222      0.047     1.5871     22.702     60.889  45.251660     1.3835      6.406   221.1112 9.4926e-01    12.2467      4.140      6.005    12.1684 0.0000e+00
      4.222      0.036     1.7461     24.961     60.836  45.221291     1.3882      6.404   221.8732 9.6401e-01    12.3474      4.140      6.004    12.1474 0.0000e+00
      4.225      0.031     1.9421     27.015     60.826  45.207557     1.3827      6.403   222.6699 9.7452e-01    12.3451      4.141      6.006    12.1375 0.0000e+00
      4.233      0.033     2.1831     28.758     60.851  45.212555     1.3507      6.403   222.8287 9.4995e-01    12.3215      4.149      6.017    12.1411 0.0000e+00
      4.248      0.038     2.4409     30.039     60.863  45.218222     1.3177      6.403   222.5882 9.2475e-01    12.4038      4.167      6.044    12.1583 0.0000e+00
      4.263      0.046     2.6873     30.740     60.847  45.212590     1.3077      6.402   223.1184 9.0426e-01    12.4868      4.185      6.069    12.1698 0.0000e+00
      4.272      0.054     2.9113     30.934     60.834  45.207953     1.3135      6.401   224.4213 8.8808e-01    12.5052      4.191      6.078    12.1618 0.0000e+00
      4.280      0.062     3.1050     30.809     60.854  45.225648     1.2719      6.399   225.8658 8.7860e-01    12.4215      4.194      6.083    12.1423 0.0000e+00
      4.295      0.069     3.2514     30.564     60.945  45.299576     1.1789      6.397   226.0426 8.4951e-01    12.2597      4.209      6.105    12.1402 0.0000e+00
      4.317      0.074     3.3195     30.279     61.057  45.403516     1.1292      6.395   225.1812 8.1690e-01    12.1886      4.232      6.139    12.1524 0.0000e+00
      4.342      0.075     3.3345     29.979     61.090  45.466690     1.1290      6.392   225.6040 7.8309e-01    12.2108      4.256      6.174    12.1551 0.0000e+00
      4.368      0.074     3.3104     29.731     61.060  45.492119     1.0514      6.390   227.1970 7.3577e-01    12.1183      4.286      6.215    12.1559 0.0000e+00
      4.391      0.075     3.2823     29.564     60.955  45.457099     0.8824      6.388   228.5249 6.9856e-01    11.8898      4.311      6.252    12.1570 0.0000e+00
      4.404      0.081     3.2525     29.458     60.801  45.360716     0.7830      6.384   229.0110 6.9268e-01    11.7704      4.323      6.268    12.1703 0.0000e+00
      4.409      0.093     3.2113     29.300     60.729  45.279007     0.7733      6.380   228.8590 6.9240e-01    11.8361      4.321      6.266    12.2089 0.0000e+00
      4.423      0.104     3.1833     28.953     60.754  45.230915     0.7236      6.377   229.0957 6.5733e-01    12.8906      4.328      6.277    12.2491 0.0000e+00
      4.459      0.111     3.1607     28.378     60.837  45.223531     0.6153      6.376   230.0665 6.0258e-01    14.8531      4.367      6.334    12.2898 0.0000e+00
      4.509      0.115     3.1531     27.660     60.937  45.253127     0.5454      6.375   231.0462 5.5855e-01    15.9226      4.424      6.417    12.3172 0.0000e+00
      4.552      0.113     3.1446     26.966     60.984  45.271302     0.5278      6.374   231.5629 5.2528e-01    16.0513      4.472      6.486    12.2897 0.0000e+00
      4.578      0.108     3.1135     26.494     60.958  45.252824     0.5101      6.371   231.9256 5.0925e-01    16.4091      4.495      6.519    12.2212 0.0000e+00
      4.592      0.102     3.0532     26.354     60.913  45.220157     0.5061      6.369   232.4202 5.0841e-01    17.0723      4.503      6.532    12.1570 0.0000e+00
      4.604      0.097     2.9715     26.539     60.894  45.193738     0.5293      6.367   233.0693 5.0063e-01    17.4436      4.513      6.546    12.1192 0.0000e+00
      4.624      0.093     2.8900     27.033     60.912  45.187299     0.5502      6.365   234.0097 4.8200e-01    17.4819      4.528      6.568    12.1089 0.0000e+00
      4.658      0.088     2.8322     27.755     60.953  45.205762     0.5418      6.364   234.9276 4.5388e-01    17.5690      4.565      6.621    12.1161 0.0000e+00
      4.698      0.080     2.8215     28.549     60.978  45.226521     0.5193      6.363   235.3060 4.2575e-01    17.7461      4.613      6.691    12.1207 0.0000e+00
      4.723      0.066     2.8399     29.298     60.990  45.247853     0.5194      6.361   235.3159 4.0969e-01    17.8815      4.639      6.727    12.1083 0.0000e+00
      4.732      0.048     2.8971     29.906     60.999  45.273251     0.5352      6.361   235.4779 4.1302e-01    17.9420      4.642      6.733    12.0867 0.0000e+00
      4.733      0.033     2.9846     30.339     60.981  45.279702     0.5352      6.360   236.5755 4.1904e-01    17.9313      4.642      6.733    12.0747 0.0000e+00
      4.732      0.026     3.0716     30.620     60.937  45.262394     0.5199      6.357   238.0896 3.9951e-01    17.8553      4.640      6.729    12.0785 0.0000e+00
      4.732      0.029     3.1570     30.800     60.918  45.254442     0.5077      6.355   238.7288 3.8007e-01    17.8079      4.638      6.727    12.0899 0.0000e+00
      4.737      0.036     3.2213     30.902     60.910  45.247044     0.5132      6.353   238.6249 3.7767e-01    17.8365      4.641      6.731    12.1063 0.0000e+00
      4.752      0.044     3.2659     30.927     60.897  45.236418     0.5360      6.351   238.3822 3.7338e-01    17.8938      4.656      6.754    12.1239 0.0000e+00
      4.773      0.050     3.2925     30.906     60.922  45.252926     0.5755      6.349   239.2367 3.6070e-01    17.7148      4.683      6.793    12.1397 0.0000e+00
      4.790      0.054     3.3098     30.846     60.938  45.256194     0.6160      6.348   240.9548 3.4729e-01    17.2777      4.700      6.817    12.1438 0.0000e+00
      4.800      0.057     3.3236     30.734     60.899  45.212440     0.6268      6.346   241.7756 3.3951e-01    17.0157      4.707      6.828    12.1381 0.0000e+00
      4.810      0.060     3.3228     30.579     60.864  45.168257     0.6388      6.343   241.7607 3.3827e-01    16.9719      4.717      6.841    12.1384 0.0000e+00
      4.821      0.064     3.3208     30.417     60.889  45.166323     0.7283      6.340   241.5494 3.4246e-01    16.5091      4.725      6.852    12.1399 0.0000e+00
      4.837      0.071     3.3162     30.262     60.940  45.189035     0.8597      6.338   242.1455 3.3574e-01    15.6218      4.740      6.875    12.1315 0.0000e+00
      4.861      0.082     3.3046     30.130     60.950  45.188915     0.9130      6.337   243.7205 3.2022e-01    15.1583      4.767      6.914    12.1186 0.0000e+00
      4.886      0.097     3.2874     30.071     60.930  45.164875     0.8985      6.335   244.7611 2.9815e-01    15.1410      4.793      6.952    12.1047 0.0000e+00
      4.908      0.107     3.2703     30.077     60.930  45.152285     0.8495      6.331   245.0043 2.7208e-01    15.4806      4.813      6.981    12.0835 0.0000e+00
      4.933      0.109     3.2562     30.093     60.959  45.163630     0.7709      6.329   245.1988 2.5888e-01    16.1566      4.832      7.008    12.0707 0.0000e+00
      4.968      0.102     3.2376     30.135     60.982  45.175069     0.7300      6.328   245.6498 2.4271e-01    16.5163      4.867      7.059    12.0686 0.0000e+00
      5.008      0.092     3.2321     30.192     60.966  45.163629     0.7140      6.327   246.1554 2.2249e-01    16.5164      4.918      7.132    12.0611 0.0000e+00
      5.036      0.081     3.2391     30.232     60.946  45.152276     0.6760      6.326   246.5794 2.1734e-01    16.5337      4.946      7.174    12.0492 0.0000e+00
      5.045      0.069     3.2376     30.275     60.959  45.164762     0.6459      6.325   246.9047 2.2300e-01    16.6573      4.949      7.177    12.0394 0.0000e+00
      5.049      0.056     3.2435     30.343     60.984  45.187647     0.6495      6.323   246.7342 2.2275e-01    16.7805      4.948      7.176    12.0348 0.0000e+00
      5.059      0.049     3.2524     30.418     60.962  45.175046     0.6605      6.321   246.4111 2.1255e-01    16.7944      4.959      7.193    12.0359 0.0000e+00
      5.073      0.051     3.2545     30.496     60.912  45.139370     0.6455      6.320   246.6973 2.0445e-01    16.7569      4.976      7.216    12.0402 0.0000e+00
      5.087      0.061     3.2573     30.572     60.912  45.137175     0.6109      6.318   247.4412 1.9684e-01    16.7713      4.989      7.234    12.0428 0.0000e+00
      5.100      0.073     3.2659     30.588     60.932  45.148508     0.5918      6.317   248.2635 1.8459e-01    16.8659      5.001      7.254    12.0456 0.0000e+00
      5.117      0.086     3.2747     30.579     60.940  45.149436     0.5973      6.315   248.2085 1.7357e-01    16.9777      5.013      7.272    12.0501 0.0000e+00
      5.142      0.101     3.2798     30.597     60.944  45.148386     0.6021      6.312   247.3780 1.6795e-01    17.0303      5.040      7.309    12.0506 0.0000e+00
      5.172      0.111     3.2955     30.610     60.931  45.135805     0.5918      6.309   247.6004 1.6384e-01    17.0920      5.075      7.360    12.0487 0.0000e+00
      5.203      0.114     3.2932     30.609     60.918  45.124273     0.5724      6.307   248.6604 1.5353e-01    17.2455      5.098      7.394    12.0458 0.0000e+00
      5.239      0.108     3.2887     30.594     60.935  45.135909     0.5682      6.305   249.2674 1.4019e-01    17.3834      5.135      7.447    12.0407 0.0000e+00
      5.278      0.096     3.2959     30.593     60.955  45.149531     0.5739      6.304   248.9170 1.3200e-01    17.4616      5.184      7.519    12.0372 0.0000e+00
      5.302      0.081     3.2952     30.611     60.973  45.162018     0.5494      6.302   248.1235 1.2844e-01    17.6442      5.207      7.551    12.0355 0.0000e+00
      5.312      0.068     3.2970     30.601     60.970  45.159928     0.4969      6.300   248.1052 1.2578e-01    17.9167      5.208      7.554    12.0337 0.0000e+00
      5.319      0.058     3.2934     30.560     60.920  45.124262     0.4634      6.299   248.7821 1.2588e-01    18.0242      5.215      7.564    12.0326 0.0000e+00
      5.329      0.054     3.2921     30.514     60.898  45.111672     0.4684      6.298   249.5974 1.2740e-01    18.0213      5.226      7.580    12.0322 0.0000e+00
      5.341      0.057     3.2981     30.446     60.925  45.134660     0.4989      6.296   249.7888 1.2690e-01    18.0867      5.235      7.594    12.0314 0.0000e+00
      5.357      0.064     3.2967     30.360     60.944  45.148291     0.5331      6.295   249.2018 1.2621e-01    18.1654      5.249      7.614    12.0308 0.0000e+00
      5.379      0.071     3.2899     30.325     60.949  45.149521     0.5410      6.294   248.8679 1.2505e-01    18.1537      5.275      7.651    12.0323 0.0000e+00
      5.400      0.075     3.2860     30.357     60.953  45.149530     0.5279      6.293   249.1932 1.2394e-01    18.0469      5.298      7.685    12.0364 0.0000e+00
      5.417      0.074     3.2800     30.386     60.955  45.148397     0.5320      6.291   249.8652 1.2385e-01    17.9329      5.310      7.703    12.0387 0.0000e+00
      5.437      0.069     3.2658     30.404     60.940  45.135808     0.5660      6.289   250.2829 1.2379e-01    17.9030      5.330      7.731    12.0376 0.0000e+00
      5.460      0.061     3.2604     30.414     60.925  45.124275     0.5976      6.287   250.2852 1.2370e-01    17.9585      5.357      7.769    12.0360 0.0000e+00
      5.475      0.051     3.2707     30.400     60.940  45.135920     0.5981      6.286   250.2374 1.2368e-01    17.9560      5.373      7.792    12.0332 0.0000e+00
      5.484      0.041     3.2721     30.401     60.958  45.149646     0.5810      6.285   250.2211 1.2374e-01    17.8723      5.379      7.801    12.0310 0.0000e+00
      5.492      0.033     3.2729     30.397     60.975  45.163267     0.5651      6.285   250.8621 1.2379e-01    17.7670      5.386      7.812    12.0298 0.0000e+00
      5.498      0.029     3.2783     30.339     60.986  45.173655     0.5637      6.285   252.1372 1.2378e-01    17.6739      5.394      7.824    12.0296 0.0000e+00
      5.500      0.034     3.2710     30.277     60.951  45.148292     0.5808      6.283   252.8177 1.2379e-01    17.6679      5.393      7.823    12.0305 0.0000e+00
      5.503      0.045     3.2732     30.263     60.903  45.110528     0.5890      6.279   252.7234 1.2383e-01    17.6601      5.394      7.823    12.0304 0.0000e+00
      5.513      0.059     3.2771     30.277     60.893  45.097937     0.5805      6.277   252.3738 1.2384e-01    17.6142      5.404      7.838    12.0305 0.0000e+00
      5.531      0.071     3.2661     30.281     60.933  45.123006     0.5766      6.276   252.9784 1.2384e-01    17.6252      5.421      7.863    12.0333 0.0000e+00
      5.557      0.076     3.2572     30.288     60.987  45.159704     0.5836      6.274   254.5283 1.2382e-01    17.6909      5.447      7.901    12.0354 0.0000e+00
      5.588      0.074     3.2570     30.305     60.991  45.160762     0.5904      6.272   255.1093 1.2379e-01    17.7598      5.483      7.952    12.0328 0.0000e+00
      5.614      0.066     3.2620     30.327     60.957  45.135787     0.5835      6.271   254.6693 1.2379e-01    17.7408      5.511      7.993    12.0275 0.0000e+00
      5.627      0.056     3.2604     30.345     60.923  45.111663     0.5668      6.270   254.4568 1.2380e-01    17.6657      5.521      8.008    12.0230 0.0000e+00
      5.631      0.048     3.2616     30.334     60.938  45.123006     0.5556      6.269   255.0341 1.2380e-01    17.6373      5.523      8.010    12.0204 0.0000e+00
      5.635      0.048     3.2644     30.316     60.971  45.145968     0.5566      6.267   256.1433 1.2381e-01    17.6706      5.524      8.012    12.0190 0.0000e+00
      5.642      0.058     3.2653     30.297     60.958  45.135369     0.5699      6.265   256.9418 1.2376e-01    17.7954      5.532      8.022    12.0195 0.0000e+00
      5.654      0.073     3.2705     30.238     60.940  45.121823     0.5747      6.264   257.0300 1.2371e-01    17.9167      5.542      8.038    12.0211 0.0000e+00
      5.676      0.087     3.2672     30.188     60.923  45.109137     0.5642      6.262   256.7804 1.2376e-01    17.9070      5.560      8.065    12.0208 0.0000e+00
      5.710      0.096     3.2631     30.189     60.924  45.108939     0.5595      6.261   256.6769 1.2383e-01    17.8489      5.599      8.120    12.0196 0.0000e+00
      5.746      0.099     3.2676     30.224     60.939  45.119432     0.5762      6.258   256.8975 1.2382e-01    17.8633      5.639      8.179    12.0187 0.0000e+00
      5.775      0.096     3.2551     30.253     60.925  45.109042     0.6172      6.257   257.3828 1.2380e-01    17.9443      5.666      8.218    12.0185 0.0000e+00
      5.795      0.090     3.2493     30.273     60.927  45.110282     0.6469      6.256   257.8985 1.2385e-01    17.9747      5.684      8.243    12.0185 0.0000e+00
      5.810      0.080     3.2501     30.302     60.959  45.134424     0.6448      6.254   258.3143 1.2390e-01    17.9227      5.698      8.264    12.0181 0.0000e+00
      5.827      0.070     3.2556     30.317     60.975  45.147017     0.6080      6.253   258.1084 1.2386e-01    17.8970      5.713      8.287    12.0177 0.0000e+00
      5.847      0.064     3.2607     30.352     60.959  45.135581     0.5603      6.251   257.4743 1.2378e-01    17.9714      5.734      8.316    12.0169 0.0000e+00
      5.867      0.062     3.2575     30.387     60.942  45.123113     0.5424      6.248   257.7027 1.2374e-01    18.0703      5.758      8.351    12.0167 0.0000e+00
      5.879      0.060     3.2680     30.392     60.939  45.123238     0.5326      6.246   258.4600 1.2379e-01    18.0680      5.768      8.365    12.0174 0.0000e+00
      5.889      0.055     3.2620     30.404     60.954  45.137089     0.5175      6.245   258.1995 1.2379e-01    18.0121      5.770      8.369    12.0185 0.0000e+00
      5.905      0.052     3.2695     30.430     60.983  45.163617     0.5087      6.244   257.2190 1.2375e-01    18.0093      5.790      8.399    12.0183 0.0000e+00
      5.923      0.052     3.2758     30.471     61.005  45.190066     0.5090      6.244   256.9302 1.2372e-01    18.0684      5.814      8.431    12.0180 0.0000e+00
      5.933      0.055     3.2711     30.485     61.002  45.202969     0.5218      6.243   257.4607 1.2374e-01    18.1116      5.819      8.440    12.0195 0.0000e+00
      5.941      0.056     3.2753     30.464     60.965  45.192683     0.5298      6.242   258.2130 1.2376e-01    18.0533      5.824      8.447    12.0225 0.0000e+00
      5.956      0.055     3.2745     30.444     60.947  45.192681     0.5230      6.241   258.2821 1.2373e-01    17.9783      5.839      8.468    12.0258 0.0000e+00
      5.976      0.056     3.2827     30.419     60.956  45.202965     0.5149      6.240   257.6951 1.2373e-01    17.9918      5.861      8.500    12.0334 0.0000e+00
      5.994      0.060     3.2838     30.409     60.942  45.190060     0.5144      6.239   257.4826 1.2373e-01    18.0447      5.882      8.531    12.0466 0.0000e+00
      6.006      0.065     3.2760     30.419     60.917  45.163610     0.5252      6.238   257.6910 1.2376e-01    18.1056      5.890      8.543    12.0629 0.0000e+00
      6.016      0.069     3.2766     30.412     60.900  45.137074     0.5455      6.237   258.0636 1.2381e-01    18.1808      5.897      8.551    12.0765 0.0000e+00
      6.034      0.071     3.2706     30.384     60.903  45.123121     0.5695      6.236   258.3751 1.2380e-01    18.2372      5.915      8.579    12.0778 0.0000e+00
      6.057      0.071     3.2695     30.375     60.920  45.121846     0.5821      6.233   258.3592 1.2375e-01    18.2407      5.939      8.614    12.0738 0.0000e+00
      6.081      0.071     3.2742     30.408     60.933  45.121636     0.5730      6.231   258.3009 1.2371e-01    18.2572      5.964      8.651    12.0687 0.0000e+00
      6.102      0.067     3.2736     30.420     60.939  45.120577     0.5589      6.231   258.3585 1.2375e-01    18.3004      5.986      8.683    12.0566 0.0000e+00
      6.118      0.061     3.2706     30.378     60.928  45.109034     0.5453      6.230   258.5395 1.2379e-01    18.2854      6.000      8.703    12.0414 0.0000e+00
      6.130      0.056     3.2674     30.361     60.930  45.109033     0.5328      6.228   259.1999 1.2379e-01    18.2461      6.014      8.721    12.0292 0.0000e+00
      6.139      0.055     3.2762     30.400     60.946  45.120567     0.5248      6.226   259.9756 1.2379e-01    18.2349      6.022      8.734    12.0216 0.0000e+00
      6.148      0.056     3.2801     30.402     60.948  45.121521     0.5062      6.225   260.0894 1.2374e-01    18.2872      6.027      8.742    12.0173 0.0000e+00
      6.162      0.058     3.2713     30.363     60.948  45.120576     0.4836      6.223   259.8012 1.2370e-01    18.3654      6.040      8.760    12.0151 0.0000e+00
      6.182      0.058     3.2653     30.336     60.934  45.109138     0.4671      6.223   259.6744 1.2375e-01    18.3265      6.060      8.790    12.0142 0.0000e+00
      6.204      0.055     3.2787     30.307     60.936  45.110178     0.4646      6.223   260.4494 1.2385e-01    18.2273      6.087      8.828    12.0140 0.0000e+00
      6.222      0.049     3.2772     30.279     60.966  45.133158     0.4702      6.223   261.7718 1.2389e-01    18.1910      6.105      8.855    12.0136 0.0000e+00
      6.231      0.041     3.2682     30.264     60.966  45.133053     0.4770      6.221   262.0689 1.2384e-01    18.1259      6.112      8.865    12.0130 0.0000e+00
      6.236      0.035     3.2692     30.231     60.932  45.108910     0.5046      6.220   261.6337 1.2379e-01    18.0206      6.116      8.871    12.0123 0.0000e+00
      6.239      0.033     3.2645     30.176     60.913  45.095184     0.5292      6.220   261.9299 1.2383e-01    17.9771      6.118      8.873    12.0117 0.0000e+00
      6.244      0.035     3.2610     30.160     60.911  45.094050     0.5341      6.218   262.8959 1.2384e-01    17.9766      6.121      8.877    12.0117 0.0000e+00
      6.254      0.042     3.2604     30.179     60.913  45.095195     0.5306      6.217   263.5055 1.2379e-01    17.9793      6.132      8.894    12.0121 0.0000e+00
      6.267      0.048     3.2594     30.190     60.932  45.109026     0.5191      6.216   263.5365 1.2373e-01    18.0100      6.146      8.915    12.0126 0.0000e+00
      6.282      0.051     3.2473     30.203     60.967  45.134312     0.5205      6.215   263.2708 1.2369e-01    18.0747      6.159      8.933    12.0133 0.0000e+00
      6.299      0.052     3.2471     30.223     60.983  45.147007     0.5309      6.214   263.2176 1.2369e-01    18.1128      6.177      8.958    12.0138 0.0000e+00
      6.316      0.053     3.2522     30.233     60.967  45.135561     0.5361      6.213   263.6680 1.2368e-01    18.0953      6.197      8.988    12.0134 0.0000e+00
      6.327      0.056     3.2516     30.225     60.950  45.122875     0.5418      6.210   264.2424 1.2371e-01    18.0681      6.207      9.002    12.0129 0.0000e+00
      6.334      0.061     3.2529     30.223     60.948  45.120586     0.5422      6.208   264.6562 1.2382e-01    18.0905      6.209      9.006    12.0123 0.0000e+00
      6.345      0.070     3.2561     30.271     60.932  45.107891     0.5397      6.207   264.8850 1.2384e-01    18.1613      6.219      9.020    12.0123 0.0000e+00
      6.365      0.085     3.2576     30.325     60.918  45.096332     0.5369      6.206   264.6855 1.2377e-01    18.3090      6.242      9.052    12.0139 0.0000e+00
      6.390      0.100     3.2563     30.315     60.935  45.107778     0.5337      6.205   264.3094 1.2373e-01    18.4760      6.268      9.090    12.0139 0.0000e+00
      6.418      0.110     3.2529     30.315     60.951  45.119329     0.5258      6.204   264.3823 1.2374e-01    18.5075      6.290      9.123    12.0125 0.0000e+00
      6.453      0.114     3.2590     30.360     60.937  45.109026     0.5087      6.202   264.7925 1.2373e-01    18.4845      6.326      9.175    12.0118 0.0000e+00
      6.491      0.110     3.2728     30.356     60.939  45.110170     0.5101      6.202   265.1394 1.2369e-01    18.4717      6.369      9.238    12.0107 0.0000e+00
      6.521      0.100     3.2643     30.297     60.970  45.133169     0.5258      6.201   264.8759 1.2369e-01    18.4205      6.398      9.281    12.0101 0.0000e+00
      6.544      0.088     3.2616     30.260     60.971  45.133171     0.5323      6.200   264.2736 1.2374e-01    18.3435      6.418      9.309    12.0096 0.0000e+00
      6.563      0.075     3.2743     30.244     60.940  45.110193     0.5299      6.198   264.1382 1.2377e-01    18.2584      6.437      9.336    12.0094 0.0000e+00
      6.577      0.065     3.2735     30.225     60.939  45.109265     0.5219      6.196   264.5302 1.2377e-01    18.2113      6.451      9.356    12.0097 0.0000e+00
      6.587      0.060     3.2613     30.220     60.954  45.121952     0.5278      6.195   265.1414 1.2378e-01    18.1836      6.459      9.367    12.0097 0.0000e+00
      6.600      0.060     3.2587     30.198     60.971  45.136623     0.5418      6.194   265.0745 1.2379e-01    18.1284      6.470      9.384    12.0093 0.0000e+00
      6.616      0.065     3.2599     30.167     60.996  45.159697     0.5419      6.192   264.3235 1.2375e-01    18.0909      6.488      9.411    12.0090 0.0000e+00
      6.634      0.074     3.2539     30.200     60.975  45.147019     0.5292      6.192   264.1498 1.2375e-01    18.0715      6.507      9.438    12.0086 0.0000e+00
      6.651      0.081     3.2569     30.275     60.925  45.110294     0.5213      6.191   264.6945 1.2382e-01    18.1325      6.520      9.457    12.0092 0.0000e+00
      6.671      0.083     3.2548     30.294     60.908  45.096549     0.5289      6.190   265.1453 1.2385e-01    18.2821      6.538      9.483    12.0117 0.0000e+00
      6.700      0.083     3.2455     30.269     60.925  45.107787     0.5383      6.188   265.1254 1.2384e-01    18.3428      6.570      9.530    12.0159 0.0000e+00
      6.728      0.082     3.2497     30.261     60.944  45.119207     0.5439      6.187   264.8848 1.2382e-01    18.3202      6.602      9.576    12.0194 0.0000e+00
      6.748      0.080     3.2650     30.264     60.932  45.107664     0.5381      6.186   264.9030 1.2382e-01    18.2822      6.620      9.602    12.0184 0.0000e+00
      6.763      0.080     3.2653     30.270     60.917  45.095176     0.5177      6.185   265.2587 1.2380e-01    18.2587      6.631      9.617    12.0171 0.0000e+00
      6.777      0.080     3.2580     30.263     60.918  45.095176     0.5052      6.184   265.6592 1.2373e-01    18.2414      6.645      9.638    12.0162 0.0000e+00
      6.795      0.082     3.2603     30.229     60.935  45.107664     0.5124      6.182   265.7870 1.2367e-01    18.2101      6.661      9.660    12.0136 0.0000e+00
      6.819      0.085     3.2594     30.199     60.952  45.119207     0.5302      6.182   265.6860 1.2368e-01    18.2897      6.684      9.694    12.0117 0.0000e+00
      6.849      0.085     3.2614     30.198     60.937  45.107769     0.5367      6.182   265.6421 1.2374e-01    18.4182      6.720      9.746    12.0107 0.0000e+00
      6.874      0.081     3.2619     30.206     60.922  45.096332     0.5239      6.180   265.6863 1.2378e-01    18.4653      6.744      9.782    12.0105 0.0000e+00
      6.893      0.075     3.2560     30.206     60.938  45.107883     0.5093      6.178   266.0482 1.2375e-01    18.4834      6.759      9.802    12.0101 0.0000e+00
      6.911      0.070     3.2516     30.199     60.956  45.120475     0.5108      6.177   266.6627 1.2365e-01    18.4670      6.779      9.832    12.0092 0.0000e+00
      6.925      0.072     3.2530     30.193     60.959  45.121620     0.5247      6.176   267.0075 1.2357e-01    18.4035      6.796      9.856    12.0085 0.0000e+00
      6.934      0.084     3.2548     30.194     60.959  45.121715     0.5275      6.175   267.0334 1.2368e-01    18.3300      6.799      9.862    12.0085 0.0000e+00
      6.947      0.106     3.2543     30.201     60.959  45.121630     0.5117      6.173   266.9764 1.2383e-01    18.2958      6.805      9.870    12.0082 0.0000e+00
      6.975      0.130     3.2536     30.196     60.957  45.120581     0.4916      6.171   267.3502 1.2386e-01    18.4347      6.837      9.915    12.0076 0.0000e+00
      7.016      0.150     3.2524     30.178     60.942  45.109040     0.4758      6.170   268.0255 1.2382e-01    18.7108      6.878      9.975    12.0073 0.0000e+00
      7.067      0.162     3.2526     30.163     60.942  45.109050     0.4702      6.169   268.2578 1.2381e-01    18.8328      6.925     10.043    12.0072 0.0000e+00
      7.126      0.163     3.2542     30.138     60.957  45.120697     0.4647      6.167   268.0942 1.2381e-01    18.7827      6.992     10.141    12.0071 0.0000e+00
      7.175      0.151     3.2543     30.089     60.959  45.122900     0.4518      6.167   267.8539 1.2382e-01    18.7199      7.046     10.220    12.0067 0.0000e+00
      7.206      0.127     3.2502     30.037     60.976  45.135682     0.4478      6.166   268.0203 1.2385e-01    18.5860      7.067     10.249    12.0066 0.0000e+00
      7.231      0.097     3.2498     29.985     60.992  45.148283     0.4572      6.166   268.6438 1.2389e-01    18.4279      7.088     10.282    12.0067 0.0000e+00
      7.255      0.072     3.2487     29.945     60.986  45.148292     0.4742      6.166   268.9384 1.2389e-01    18.3795      7.121     10.329    12.0074 0.0000e+00
      7.269      0.062     3.2408     29.928     60.958  45.135795     0.4782      6.165   268.8297 1.2379e-01    18.3768      7.134     10.346    12.0080 0.0000e+00
      7.269      0.066     3.2364     29.925     60.936  45.124157     0.4640      6.164   268.8779 1.2370e-01    18.3606      7.128     10.339    12.0079 0.0000e+00
      7.270      0.077     3.2303     29.936     60.955  45.134546     0.4527      6.163   269.1778 1.2371e-01    18.3546      7.122     10.329    12.0072 0.0000e+00
      7.290      0.098     3.2245     29.963     60.964  45.134442     0.4495      6.161   269.5298 1.2373e-01    18.3725      7.140     10.355    12.0101 0.0000e+00
      7.326      0.129     3.2233     30.007     60.954  45.122892     0.4595      6.159   269.8648 1.2374e-01    18.4061      7.186     10.423    12.0210 0.0000e+00
      7.366      0.163     3.2215     30.054     60.957  45.121843     0.4655      6.158   270.0440 1.2374e-01    18.4540      7.226     10.480    12.0261 0.0000e+00
      7.406      0.189     3.2239     30.078     60.959  45.121748     0.4549      6.158   269.9766 1.2372e-01    18.5065      7.254     10.522    12.0202 0.0000e+00
      7.463      0.201     3.2266     30.085     60.960  45.121741     0.4480      6.158   269.9099 1.2376e-01    18.4954      7.312     10.606    12.0141 0.0000e+00
      7.531      0.198     3.2321     30.094     60.961  45.121759     0.4490      6.157   270.0117 1.2380e-01    18.4901      7.392     10.720    12.0104 0.0000e+00
      7.592      0.183     3.2393     30.103     60.961  45.121967     0.4579      6.155   270.1754 1.2375e-01    18.4766      7.447     10.802    12.0082 0.0000e+00
      7.643      0.160     3.2413     30.105     60.964  45.124255     0.4640      6.154   270.3400 1.2371e-01    18.3330      7.499     10.876    12.0070 0.0000e+00
      7.680      0.130     3.2408     30.100     60.998  45.149429     0.4565      6.153   270.1947 1.2372e-01    18.2221      7.541     10.937    12.0062 0.0000e+00
      7.698      0.099     3.2424     30.094     61.028  45.172409     0.4509      6.153   269.7963 1.2377e-01    18.2284      7.551     10.952    12.0057 0.0000e+00
      7.711      0.073     3.2435     30.107     60.994  45.148180     0.4540      6.152   269.8252 1.2383e-01    18.2724      7.558     10.963    12.0056 0.0000e+00
      7.727      0.055     3.2436     30.134     60.940  45.110406     0.4605      6.151   270.2849 1.2382e-01    18.3108      7.578     10.991    12.0058 0.0000e+00
      7.742      0.048     3.2434     30.153     60.919  45.096574     0.4634      6.150   270.7091 1.2377e-01    18.3170      7.594     11.016    12.0058 0.0000e+00
      7.749      0.051     3.2411     30.163     60.931  45.107908     0.4552      6.149   270.5660 1.2365e-01    18.3133      7.601     11.025    12.0064 0.0000e+00
      7.754      0.057     3.2426     30.183     60.947  45.120481     0.4449      6.149   270.0170 1.2359e-01    18.3340      7.602     11.026    12.0082 0.0000e+00
      7.764      0.059     3.2470     30.205     60.952  45.121633     0.4465      6.148   269.8367 1.2368e-01    18.4304      7.607     11.033    12.0091 0.0000e+00
      7.787      0.059     3.2490     30.220     60.954  45.121832     0.4583      6.147   270.1928 1.2371e-01    18.5559      7.634     11.072    12.0106 0.0000e+00
      7.816      0.062     3.2480     30.226     60.953  45.122892     0.4625      6.147   270.7088 1.2367e-01    18.5874      7.671     11.124    12.0139 0.0000e+00
      7.835      0.069     3.2514     30.226     60.966  45.134444     0.4550      6.146   270.5688 1.2366e-01    18.5046      7.689     11.151    12.0141 0.0000e+00
      7.841      0.077     3.2543     30.223     60.965  45.134549     0.4519      6.145   269.9623 1.2370e-01    18.3753      7.688     11.151    12.0109 0.0000e+00
      7.848      0.082     3.2557     30.213     60.954  45.124161     0.4667      6.144   270.0018 1.2378e-01    18.3215      7.690     11.153    12.0095 0.0000e+00
      7.869      0.088     3.2565     30.207     60.975  45.135799     0.4835      6.143   270.4434 1.2378e-01    18.3665      7.711     11.183    12.0114 0.0000e+00
      7.904      0.097     3.2553     30.187     60.997  45.148286     0.4725      6.143   270.6554 1.2373e-01    18.3735      7.751     11.241    12.0138 0.0000e+00
      7.939      0.103     3.2567     30.146     61.000  45.148183     0.4498      6.143   270.6714 1.2372e-01    18.3720      7.790     11.297    12.0145 0.0000e+00
      7.966      0.103     3.2535     30.098     60.983  45.134552     0.4421      6.141   270.4649 1.2376e-01    18.4161      7.813     11.332    12.0125 0.0000e+00
      7.990      0.093     3.2550     30.044     60.952  45.110428     0.4545      6.141   270.2244 1.2378e-01    18.4629      7.834     11.363    12.0088 0.0000e+00
      8.015      0.078     3.2536     29.978     60.952  45.110419     0.4741      6.141   270.3442 1.2377e-01    18.5273      7.860     11.400    12.0058 0.0000e+00
      8.036      0.065     3.2475     29.908     60.982  45.134447     0.4799      6.140   270.7949 1.2379e-01    18.5123      7.884     11.434    12.0039 0.0000e+00
      8.049      0.056     3.2434     29.857     60.996  45.147028     0.4755      6.139   271.0271 1.2380e-01    18.3834      7.895     11.452    12.0025 0.0000e+00
      8.055      0.050     3.2374     29.825     60.980  45.135581     0.4622      6.138   270.9151 1.2381e-01    18.2674      7.898     11.456    12.0015 0.0000e+00
      8.063      0.050     3.2309     29.807     60.963  45.122999     0.4517      6.137   270.9045 1.2384e-01    18.2364      7.905     11.464    12.0013 0.0000e+00
      8.074      0.059     3.2209     29.811     60.961  45.121855     0.4739      6.136   271.1564 1.2382e-01    18.3154      7.918     11.483    12.0040 0.0000e+00
      8.088      0.080     3.2161     29.831     60.962  45.121760     0.5144      6.135   271.8098 1.2378e-01    18.4378      7.930     11.503    12.0061 0.0000e+00
      8.106      0.109     3.2129     29.851     60.964  45.121847     0.5254      6.134   272.5236 1.2374e-01    18.4865      7.947     11.526    12.0052 0.0000e+00
      8.130      0.134     3.2103     29.872     60.968  45.122907     0.5065      6.133   272.6460 1.2368e-01    18.4605      7.969     11.557    12.0057 0.0000e+00
      8.170      0.149     3.2107     29.901     60.986  45.134562     0.5015      6.132   272.3435 1.2368e-01    18.3970      8.003     11.608    12.0058 0.0000e+00
      8.228      0.153     3.2145     29.937     60.988  45.135812     0.5157      6.131   272.0495 1.2373e-01    18.3670      8.069     11.703    12.0053 0.0000e+00
      8.287      0.146     3.2163     29.975     60.989  45.138016     0.5284      6.131   272.3606 1.2380e-01    18.3716      8.137     11.801    12.0045 0.0000e+00
      8.327      0.127     3.2179     29.990     61.018  45.161206     0.5300      6.131   273.1798 1.2381e-01    18.3158      8.171     11.852    12.0026 0.0000e+00
      8.349      0.100     3.2218     29.973     61.018  45.162274     0.5181      6.130   273.6084 1.2374e-01    18.2392      8.189     11.877    12.0009 0.0000e+00
      8.363      0.074     3.2252     29.937     61.001  45.150932     0.5176      6.129   273.4994 1.2369e-01    18.2315      8.204     11.899    12.0004 0.0000e+00
      8.373      0.058     3.2309     29.890     60.999  45.151036     0.5326      6.129   273.2381 1.2367e-01    18.2901      8.213     11.911    12.0023 0.0000e+00
      8.379      0.054     3.2326     29.815     61.013  45.163533     0.5334      6.128   273.3737 1.2368e-01    18.3326      8.217     11.917    12.0042 0.0000e+00
      8.387      0.058     3.2302     29.725     61.026  45.175077     0.5190      6.126   273.9348 1.2372e-01    18.3017      8.223     11.926    12.0044 0.0000e+00
      8.401      0.063     3.2252     29.646     61.007  45.163647     0.4916      6.126   274.2580 1.2374e-01    18.2930      8.235     11.944    12.0047 0.0000e+00
      8.426      0.067     3.2220     29.587     60.987  45.152305     0.4685      6.125   274.1839 1.2374e-01    18.3980      8.260     11.981    12.0067 0.0000e+00
      8.453      0.068     3.2125     29.570     60.999  45.164905     0.4725      6.124   274.0707 1.2374e-01    18.5124      8.294     12.029    12.0093 0.0000e+00
      8.473      0.068     3.2012     29.591     61.028  45.189039     0.4814      6.123   274.0938 1.2374e-01    18.5483      8.313     12.057    12.0099 0.0000e+00
      8.484      0.067     3.1934     29.631     61.026  45.190175     0.4766      6.123   274.2054 1.2372e-01    18.5244      8.318     12.065    12.0118 0.0000e+00
      8.494      0.067     3.1847     29.680     61.007  45.178641     0.4643      6.122   274.3022 1.2371e-01    18.4960      8.328     12.079    12.0156 0.0000e+00
      8.508      0.069     3.1833     29.746     61.007  45.176551     0.4664      6.122   274.3171 1.2374e-01    18.5134      8.343     12.100    12.0188 0.0000e+00
      8.525      0.074     3.1863     29.821     60.999  45.164906     0.4766      6.122   274.3001 1.2374e-01    18.5636      8.357     12.120    12.0208 0.0000e+00
      8.550      0.078     3.1913     29.870     61.007  45.164795     0.4789      6.122   274.2686 1.2372e-01    18.6588      8.382     12.157    12.0229 0.0000e+00
      8.578      0.080     3.1953     29.878     61.027  45.175192     0.4783      6.121   274.2805 1.2370e-01    18.7428      8.416     12.205    12.0256 0.0000e+00
      8.601      0.078     3.2025     29.856     61.016  45.163649     0.4691      6.120   274.3585 1.2369e-01    18.7249      8.436     12.236    12.0241 0.0000e+00
      8.617      0.073     3.2135     29.812     61.006  45.152194     0.4675      6.119   274.4373 1.2374e-01    18.7155      8.449     12.255    12.0180 0.0000e+00
      8.632      0.066     3.2194     29.761     61.025  45.163640     0.4759      6.119   274.4584 1.2373e-01    18.8677      8.464     12.276    12.0126 0.0000e+00
      8.649      0.061     3.2196     29.705     61.040  45.175079     0.4792      6.118   274.2689 1.2365e-01    19.0962      8.484     12.305    12.0094 0.0000e+00
      8.664      0.063     3.2179     29.634     61.023  45.163537     0.4738      6.116   274.0396 1.2369e-01    19.1902      8.498     12.325    12.0065 0.0000e+00
      8.675      0.072     3.2120     29.545     61.004  45.151047     0.4528      6.116   274.1801 1.2376e-01    19.1509      8.506     12.338    12.0033 0.0000e+00
      8.688      0.082     3.2068     29.456     61.005  45.151039     0.4409      6.115   274.5061 1.2375e-01    19.1337      8.519     12.355    12.0008 0.0000e+00
      8.708      0.089     3.2014     29.401     61.025  45.163432     0.4549      6.114   274.6265 1.2375e-01    19.2549      8.535     12.379    12.0009 0.0000e+00
      8.738      0.091     3.1935     29.375     61.042  45.173926     0.4722      6.113   274.6880 1.2376e-01    19.4546      8.565     12.422    12.0029 0.0000e+00
      8.774      0.090     3.1838     29.370     61.013  45.150946     0.4751      6.113   274.7340 1.2377e-01    19.4985      8.608     12.484    12.0047 0.0000e+00
      8.804      0.083     3.1712     29.375     60.998  45.139508     0.4652      6.113   274.7517 1.2377e-01    19.4106      8.641     12.531    12.0038 0.0000e+00
      8.821      0.073     3.1674     29.379     61.027  45.162592     0.4611      6.112   274.9030 1.2377e-01    19.3818      8.653     12.549    12.0017 0.0000e+00
      8.830      0.062     3.1642     29.406     61.039  45.176129     0.4673      6.112   275.0145 1.2377e-01    19.3549      8.658     12.558    11.9994 0.0000e+00
      8.839      0.054     3.1644     29.461     61.032  45.176225     0.4728      6.112   274.9812 1.2378e-01    19.2912      8.667     12.572    11.9977 0.0000e+00
      8.851      0.054     3.1664     29.510     61.010  45.163755     0.4776      6.112   274.9303 1.2379e-01    19.2604      8.679     12.588    11.9975 0.0000e+00
      8.864      0.058     3.1645     29.536     60.993  45.152328     0.4835      6.111   275.0015 1.2381e-01    19.2900      8.693     12.608    11.9985 0.0000e+00
      8.879      0.063     3.1668     29.549     61.013  45.165024     0.5022      6.109   275.2394 1.2388e-01    19.4100      8.708     12.628    12.0022 0.0000e+00
      8.898      0.064     3.1744     29.547     61.050  45.190303     0.5292      6.109   275.3980 1.2388e-01    19.5163      8.724     12.654    12.0076 0.0000e+00
      8.921      0.063     3.1803     29.540     61.069  45.204039     0.5352      6.109   275.2846 1.2382e-01    19.5156      8.750     12.690    12.0119 0.0000e+00
      8.940      0.061     3.1816     29.553     61.068  45.204154     0.5172      6.108   275.1584 1.2382e-01    19.4700      8.772     12.722    12.0129 0.0000e+00
      8.952      0.059     3.1842     29.558     61.049  45.191687     0.5036      6.106   275.2486 1.2382e-01    19.4085      8.779     12.733    12.0100 0.0000e+00
      8.961      0.058     3.1841     29.529     61.032  45.180271     0.5111      6.106   275.3434 1.2377e-01    19.3879      8.787     12.743    12.0070 0.0000e+00
      8.973      0.061     3.1806     29.505     61.050  45.193078     0.5246      6.105   275.3572 1.2373e-01    19.4249      8.801     12.765    12.0072 0.0000e+00
      8.988      0.068     3.1839     29.490     61.090  45.219571     0.5265      6.105   275.3297 1.2376e-01    19.3775      8.813     12.783    12.0086 0.0000e+00
      9.005      0.076     3.1872     29.463     61.131  45.246665     0.5170      6.105   275.2693 1.2381e-01    19.2598      8.828     12.804    12.0100 0.0000e+00
      9.029      0.083     3.1794     29.440     61.162  45.266740     0.5092      6.103   275.2295 1.2381e-01    19.1969      8.854     12.841    12.0116 0.0000e+00
      9.055      0.088     3.1780     29.430     61.258  45.335333     0.5076      6.102   275.2780 1.2376e-01    19.1634      8.882     12.881    12.0109 0.0000e+00
      9.079      0.092     3.1783     29.429     61.490  45.504677     0.5141      6.102   275.4258 1.2369e-01    19.2309      8.903     12.914    12.0078 0.0000e+00
      9.102      0.094     3.1739     29.442     61.879  45.790690     0.5298      6.102   275.4686 1.2360e-01    19.3974      8.925     12.945    12.0048 0.0000e+00
      9.125      0.098     3.1713     29.466     62.336  46.127210     0.5305      6.101   275.2781 1.2357e-01    19.4353      8.948     12.978    12.0027 0.0000e+00
      9.148      0.104     3.1711     29.484     63.565  47.034175     0.5150      6.099   275.0154 1.2363e-01    19.3818      8.971     13.012    12.0005 0.0000e+00
      9.173      0.110     3.1706     29.489     66.243  49.011086     0.5089      6.097   275.0462 1.2368e-01    19.3652      8.994     13.045    11.9983 0.0000e+00
      9.202      0.110     3.1716     29.459     69.948  51.744493     0.5139      6.096   275.2200 1.2371e-01    19.3374      9.020     13.082    11.9977 0.0000e+00
      9.237      0.104     3.1763     29.360     74.112  54.811189     0.5264      6.096   275.1378 1.2375e-01    19.2845      9.055     13.134    11.9966 0.0000e+00
      9.273      0.092     3.1772     29.161     77.009  56.940441     0.5350      6.095   274.9127 1.2374e-01    19.2371      9.099     13.197    11.9942 0.0000e+00
      9.299      0.076     3.1794     28.768     77.412  57.228800     0.5351      6.095   274.9080 1.2369e-01    19.2086      9.125     13.235    11.9922 0.0000e+00
      9.313      0.056     3.1783     28.020     76.630  56.646343     0.5278      6.094   275.1669 1.2368e-01    19.1449      9.135     13.249    11.9863 0.0000e+00
      9.318      0.036     3.1680     26.724     76.952  56.884994     0.5127      6.093   275.3755 1.2372e-01    19.0480      9.139     13.255    11.9759 0.0000e+00
      9.320      0.021     3.1513     24.767     78.482  58.018018     0.5184      6.093   275.3653 1.2375e-01    19.0283      9.140     13.256    11.9663 0.0000e+00
      9.321      0.013     3.1154     22.264     82.865  61.262399     0.5388      6.093   275.3025 1.2378e-01    19.0767      9.141     13.258    11.9593 0.0000e+00
      9.323      0.011     3.0426     19.581     98.033  72.477465     0.5267      6.092   275.3900 1.2377e-01    19.1206      9.142     13.261    11.9568 0.0000e+00
      9.325      0.011     2.9097     17.188    134.323  99.289285     0.4799      6.091   275.4766 1.2373e-01    19.1496      9.145     13.263    11.9578 0.0000e+00
      9.328      0.013     2.6933     15.372    193.922 143.297574     0.4479      6.090   275.5752 1.2373e-01    19.1536      9.147     13.267    11.9593 0.0000e+00
      9.332      0.016     2.4096     14.195    265.883 196.396536     0.4556      6.090   275.6359 1.2372e-01    19.1690      9.152     13.273    11.9624 0.0000e+00
      9.336      0.021     2.0981     13.671    330.286 243.827601     0.4731      6.089   275.4355 1.2371e-01    19.2340      9.155     13.279    11.9660 0.0000e+00
      9.341      0.026     1.8284     13.626    370.181 273.055386     0.4764      6.087   275.2175 1.2370e-01    19.2901      9.160     13.285    11.9617 0.0000e+00
      9.347      0.029     1.6357     13.668    388.878 286.602921     0.4704      6.087   275.1507 1.2374e-01    19.2665      9.166     13.292    11.9477 0.0000e+00
      9.357      0.031     1.5042     13.511    395.049 290.966930     0.4597      6.086   275.1448 1.2379e-01    19.1878      9.175     13.307    11.9353 0.0000e+00
      9.370      0.031     1.4531     13.048    381.201 280.661095     0.4632      6.085   275.2328 1.2377e-01    19.0908      9.189     13.328    11.9172 0.0000e+00
      9.380      0.030     1.4704     12.288    348.779 256.743322     0.4957      6.084   275.5258 1.2372e-01    19.0154      9.200     13.343    11.8803 0.0000e+00
      9.385      0.029     1.4856     11.351    340.298 250.491301     0.5278      6.083   275.9333 1.2369e-01    19.0271      9.203     13.348    11.8438 0.0000e+00
      9.389      0.026     1.4722     10.344    367.398 270.454693     0.5352      6.083   276.2028 1.2369e-01    19.0618      9.206     13.353    11.8208 0.0000e+00
      9.395      0.023     1.4239      9.347    384.587 283.135673     0.5100      6.084   276.2036 1.2375e-01    19.0934      9.212     13.361    11.8067 0.0000e+00
      9.402      0.021     1.3344      8.385    383.492 282.355928     0.4726      6.084   276.0296 1.2377e-01    19.1360      9.220     13.371    11.8010 0.0000e+00
      9.409      0.021     1.2305      7.413    380.424 280.102552     0.4586      6.083   275.9043 1.2378e-01    19.1321      9.227     13.383    11.8009 0.0000e+00
      9.414      0.020     1.1181      6.424    369.359 271.945637     0.4645      6.083   275.8933 1.2379e-01    19.1499      9.233     13.392    11.8029 0.0000e+00
      9.417      0.018     1.0074      5.420    329.759 242.781460     0.4860      6.083   276.0689 1.2374e-01    19.1801      9.235     13.394    11.8074 0.0000e+00
      9.421      0.015     0.9084      4.400    282.124 207.711028     0.5107      6.081   276.3928 1.2369e-01    19.0873      9.238     13.399    11.8124 0.0000e+00
      9.426      0.013     0.8018      3.401    298.203 219.555902     0.5224      6.079   276.6253 1.2369e-01    18.9848      9.244     13.408    11.8125 0.0000e+00
      9.429      0.013     0.6944      2.483    363.733 267.812113     0.5265      6.079   276.8153 1.2371e-01    18.9986      9.248     13.414    11.8098 0.0000e+00
      9.431      0.013     0.5880      1.713    399.886 294.436703     0.5108      6.079   277.0562 1.2373e-01    19.0153      9.248     13.413    11.8085 0.0000e+00
      9.433      0.013     0.4744      1.135    404.845 298.093697     0.4742      6.079   277.0423 1.2373e-01    18.9815      9.249     13.415    11.8087 0.0000e+00
      9.436      0.013     0.3657      0.763    406.742 299.495972     0.4493      6.079   276.7343 1.2373e-01    18.9325      9.252     13.420    11.8100 0.0000e+00
      9.440      0.013     0.2621      0.578    408.490 300.786059     0.4521      6.079   276.3423 1.2375e-01    18.9002      9.258     13.426    11.8116 0.0000e+00
      9.445      0.013     0.1778      0.532    409.777 301.736202     0.4826      6.078   275.6585 1.2381e-01    18.9668      9.265     13.437    11.8122 0.0000e+00
      9.449      0.012     0.1148      0.601    410.375 302.177526     0.5189      6.077   275.0054 1.2381e-01    19.1230      9.268     13.442    11.8129 0.0000e+00
      9.451      0.011     0.0748      0.765    410.674 302.393636     0.5324      6.076   274.7265 1.2371e-01    19.2178      9.268     13.441    11.8139 0.0000e+00
      9.453      0.011     0.0583      0.977    411.068 302.677745     0.5379      6.075   274.4380 1.2370e-01    19.2257      9.270     13.445    11.8141 0.0000e+00
      9.456      0.010     0.0528      1.152    411.566 303.041190     0.5359      6.074   274.0984 1.2372e-01    19.1155      9.273     13.450    11.8143 0.0000e+00
      9.458      0.010     0.0618      1.262    411.853 303.252221     0.5161      6.072   273.7171 1.2368e-01    18.8755      9.275     13.452    11.8147 0.0000e+00
      9.461      0.011     0.0796      1.339    411.832 303.236401     0.5066      6.069   273.1832 1.2366e-01    18.7158      9.278     13.456    11.8141 0.0000e+00
      9.465      0.011     0.1080      1.389    411.746 303.171353     0.5207      6.067   272.7194 1.2367e-01    18.7215      9.283     13.463    11.8130 0.0000e+00
      9.467      0.010     0.1281      1.413    411.751 303.172903     0.5372      6.065   272.4115 1.2370e-01    18.8070      9.284     13.466    11.8126 0.0000e+00
      9.470      0.008     0.1365      1.416    411.954 303.319428     0.5398      6.063   272.1277 1.2370e-01    18.8625      9.286     13.469    11.8128 0.0000e+00
      9.472      0.006     0.1463      1.406    412.246 303.528616     0.5270      6.061   271.9552 1.2368e-01    18.8452      9.290     13.473    11.8129 0.0000e+00
      9.474      0.004     0.1510      1.407    412.327 303.580646     0.5163      6.060   271.8744 1.2371e-01    18.8030      9.291     13.475    11.8125 0.0000e+00
      9.474      0.003     0.1535      1.432    412.228 303.498480     0.5266      6.057   271.7527 1.2372e-01    18.7616      9.291     13.475    11.8122 0.0000e+00
      9.473      0.002     0.1539      1.437    412.244 303.499486     0.5348      6.054   271.7747 1.2371e-01    18.7208      9.290     13.474    11.8121 0.0000e+00
      9.473      0.002     0.1516      1.397    412.303 303.528507     0.5234      6.051   271.8827 1.2370e-01    18.6860      9.290     13.474    11.8114 0.0000e+00
      9.474      0.002     0.1501      1.345    412.153 303.399330     0.5228      6.048   271.5957 1.2368e-01    18.7156      9.291     13.475    11.8103 0.0000e+00
      9.475      0.002     0.1560      1.295    412.029 303.287669     0.5353      6.047   270.7996 1.2370e-01    18.9081      9.291     13.476    11.8093 0.0000e+00
      9.476      0.003     0.1584      1.261    412.207 303.399889     0.5323      6.047   269.9147 1.2376e-01    19.1682      9.293     13.478    11.8080 0.0000e+00
      9.477      0.003     0.1501      1.234    412.582 303.663242     0.5126      6.047   269.2421 1.2377e-01    19.2650      9.293     13.478    11.8062 0.0000e+00
      9.478      0.002     0.1463      1.192    413.004 303.964551     0.5047      6.048   268.8619 1.2373e-01    19.2247      9.294     13.479    11.8040 0.0000e+00
      9.478      0.002     0.1390      1.173    413.352 304.214206     0.5202      6.048   268.6730 1.2371e-01    19.1591      9.294     13.480    11.8012 0.0000e+00
      9.478      0.002     0.1351      1.185    413.562 304.367328     0.5253      6.048   268.3353 1.2371e-01    19.0528      9.295     13.481    11.7988 0.0000e+00
      9.479      0.001     0.1359      1.206    413.780 304.530105     0.5166      6.049   267.8756 1.2372e-01    18.9642      9.296     13.482    11.7972 0.0000e+00
      9.479      0.001     0.1267      1.235    414.099 304.767906     0.5222      6.051   267.5898 1.2373e-01    18.9759      9.295     13.482    11.7962 0.0000e+00
      9.479      0.001     0.1254      1.264    414.314 304.928022     0.5357      6.053   267.4606 1.2374e-01    18.9557      9.296     13.482    11.7954 0.0000e+00
      9.479      0.001     0.1287      1.275    414.306 304.923031     0.5385      6.054   267.4322 1.2375e-01    18.8560      9.296     13.482    11.7953 0.0000e+00
      9.480      0.001     0.1294      1.267    414.186 304.836144     0.5309      6.054   267.5041 1.2373e-01    18.7955      9.296     13.483    11.7958 0.0000e+00
      9.480      0.001     0.1339      1.265    414.099 304.777579     0.5182      6.055   267.3828 1.2373e-01    18.7713      9.297     13.484    11.7961 0.0000e+00
      9.480      0.001     0.1371      1.264    414.106 304.793581     0.5100      6.056   267.0847 1.2378e-01    18.8361      9.297     13.484    11.7963 0.0000e+00
      9.480      0.000     0.1392      1.236    414.145 304.836758     0.5067      6.056   266.9967 1.2380e-01    18.9303      9.297     13.484    11.7964 0.0000e+00
      9.480 1.8628e-08     0.1366      1.210    414.138 304.849587     0.5034      6.055   267.0082 1.2375e-01    18.9192      9.297     13.484    11.7963 0.0000e+00
      9.480 2.0491e-07     0.1357      1.208    414.156 304.884425     0.5117      6.054   266.8795 1.2372e-01    18.9072      9.297     13.484    11.7971 0.0000e+00
      9.480 2.0491e-07     0.1392      1.193    414.282 305.000832     0.5237      6.052   266.6445 1.2375e-01    18.9554      9.297     13.484    11.7984 0.0000e+00
      9.480 1.8630e-08     0.1334      1.176    414.383 305.099797     0.5325      6.052   266.3189 1.2374e-01    18.9901      9.297     13.484    11.8002 0.0000e+00
      9.480 1.7214e-09     0.1285      1.186    414.458 305.180903     0.5349      6.051   265.9535 1.2371e-01    18.9842      9.297     13.485    11.8024 0.0000e+00
      9.480 4.6184e-10     0.1324      1.192    414.639 305.338570     0.5194      6.049   265.7537 1.2369e-01    18.9869      9.297     13.484    11.8050 0.0000e+00
      9.481 3.4008e-09     0.1294      1.185    415.214 305.784575     0.5105      6.048   265.6247 1.2366e-01    19.0229      9.297     13.485    11.8079 0.0000e+00
      9.481 3.7257e-08     0.1246      1.185    417.063 307.165828     0.5115      6.048   265.3399 1.2366e-01    19.0101      9.297     13.485    11.8110 0.0000e+00
      9.481 4.0981e-07     0.1292      1.180    420.472 309.693494     0.5150      6.048   264.9770 1.2372e-01    18.9340      9.297     13.485    11.8141 0.0000e+00
      9.481      0.000     0.1300      1.169    423.813 312.167436     0.5276      6.048   264.5063 1.2379e-01    18.9227      9.297     13.485    11.8171 0.0000e+00
      9.481      0.000     0.1269      1.167    425.401 313.347373     0.5472      6.048   263.8652 1.2376e-01    18.8737      9.298     13.486    11.8198 0.0000e+00
      9.481      0.001     0.1286      1.161    425.565 313.476669     0.5692      6.047   263.0757 1.2372e-01    18.6835      9.298     13.485    11.8222 0.0000e+00
      9.481      0.001     0.1281      1.147    425.377 313.344846     0.5772      6.046   262.1027 1.2373e-01    18.5701      9.298     13.485    11.8243 0.0000e+00
      9.481      0.001     0.1254      1.137    425.216 313.232882     0.5764      6.046   260.9626 1.2374e-01    18.5611      9.298     13.486    11.8258 0.0000e+00
      9.482      0.001     0.1263      1.122    425.007 313.087723     0.5682      6.046   259.8739 1.2375e-01    18.6436      9.298     13.486    11.8268 0.0000e+00
      9.482      0.001     0.1264      1.094    424.447 312.683168     0.5534      6.046   259.0913 1.2373e-01    18.8158      9.298     13.486    11.8278 0.0000e+00
      9.482      0.001     0.1229      1.073    422.819 311.493017     0.5551      6.046   258.4697 1.2373e-01    18.9001      9.299     13.486    11.8285 0.0000e+00
      9.482      0.000     0.1234      1.070    420.015 309.438127     0.5636      6.046   257.6923 1.2373e-01    18.9118      9.298     13.486    11.8292 0.0000e+00
      9.482      0.000     0.1221      1.078    417.126 307.323623     0.5477      6.047   256.9190 1.2369e-01    18.9235      9.299     13.486    11.8305 0.0000e+00
      9.482      0.000     0.1175      1.079    415.207 305.925581     0.5296      6.047   256.4333 1.2366e-01    18.9393      9.299     13.487    11.8313 0.0000e+00
      9.482      0.001     0.1155      1.075    414.550 305.458821     0.5367      6.046   256.0356 1.2368e-01    18.9663      9.299     13.487    11.8322 0.0000e+00
      9.482      0.001     0.1147      1.061    415.681 306.309482     0.5339      6.045   255.4659 1.2376e-01    18.9763      9.299     13.487    11.8336 0.0000e+00
      9.482      0.001     0.1173      1.020    419.060 308.816312     0.5121      6.046   254.8793 1.2380e-01    19.0596      9.299     13.487    11.8353 0.0000e+00
      9.483     -0.001     0.1165      0.972    422.370 311.268926     0.5061      6.048   254.7079 1.2378e-01    19.2573      9.299     13.487    11.8372 0.0000e+00
      9.483     -0.006     0.1160      0.944    423.319 311.977256     0.5193      6.049   254.9428 1.2378e-01    19.4188      9.300     13.488    11.8395 0.0000e+00
      9.484     -0.013     0.1165      0.914    423.051 311.785825     0.5307      6.051   255.2241 1.2378e-01    19.5098      9.301     13.490    11.8415 0.0000e+00
      9.484     -0.019     0.1105      0.874    422.864 311.655606     0.5598      6.053   255.5277 1.2373e-01    19.7764      9.303     13.494    11.8435 0.0000e+00
      9.477     -0.024     0.1034      0.858    422.719 311.560469     0.6223      6.055   255.9467 1.2371e-01    20.2856      9.297     13.484    11.8454 0.0000e+00
      9.463     -0.028     0.1021      0.867    422.492 311.407322     0.6536      6.056   256.3322 1.2370e-01    20.6103      9.279     13.456    11.8462 0.0000e+00
      9.451     -0.031     0.1001      0.887    422.217 311.218837     0.6376      6.058   256.5751 1.2370e-01    20.5947      9.265     13.438    11.8468 0.0000e+00
      9.446     -0.031     0.0928      0.938    421.666 310.825038     0.5871      6.060   257.0768 1.2375e-01    20.1306      9.262     13.434    11.8476 0.0000e+00
      9.442     -0.029     0.0913      0.992    420.082 309.668608     0.5019      6.061   257.8380 1.2380e-01    19.3021      9.262     13.433    11.8490 0.0000e+00
      9.435     -0.028     0.0945      1.001    417.337 307.654493     0.4478      6.060   258.3795 1.2379e-01    18.8100      9.254     13.421    11.8509 0.0000e+00
      9.426     -0.032     0.0937      1.010    414.757 305.763837     0.4408      6.060   258.6336 1.2376e-01    18.6897      9.242     13.403    11.8526 0.0000e+00
      9.420     -0.037     0.1003      1.038    413.453 304.812929     0.4510      6.060   258.6727 1.2376e-01    18.7021      9.238     13.399    11.8541 0.0000e+00
      9.413     -0.042     0.1111      1.046    412.953 304.451404     0.4708      6.060   258.7668 1.2371e-01    18.8911      9.234     13.393    11.8552 0.0000e+00
      9.400     -0.046     0.1073      1.051    412.462 304.092970     0.4799      6.061   259.1693 1.2368e-01    19.0289      9.219     13.371    11.8563 0.0000e+00
      9.383     -0.050     0.1072      1.069    411.917 303.693696     0.4698      6.061   259.8393 1.2370e-01    19.0015      9.200     13.344    11.8578 0.0000e+00
      9.368     -0.056     0.1144      1.084    411.452 303.352667     0.4568      6.061   260.5007 1.2370e-01    19.0036      9.186     13.322    11.8592 0.0000e+00
      9.358     -0.068     0.1126      1.082    411.048 303.055516     0.4479      6.061   260.9714 1.2367e-01    19.0881      9.177     13.311    11.8600 0.0000e+00
      9.346     -0.088     0.1126      1.070    410.795 302.865263     0.4370      6.062   261.4013 1.2373e-01    19.1361      9.166     13.295    11.8603 0.0000e+00
      9.330     -0.115     0.1161      1.059    410.790 302.852398     0.4417      6.064   261.9127 1.2386e-01    19.2074      9.153     13.276    11.8606 0.0000e+00
      9.301     -0.143     0.1176      1.033    410.962 302.964263     0.5136      6.064   262.4224 1.2386e-01    20.0188      9.127     13.238    11.8609 0.0000e+00
      9.257     -0.160     0.1177      1.003    411.123 303.060639     0.6313      6.063   262.5734 1.2376e-01    21.5002      9.082     13.172    11.8611 0.0000e+00
      9.198     -0.157     0.1146      1.002    411.236 303.117628     0.6909      6.060   262.2760 1.2370e-01    22.2937      9.023     13.088    11.8607 0.0000e+00
      9.133     -0.133     0.1154      1.018    411.382 303.203261     0.6932      6.056   261.2351 1.2374e-01    22.4397      8.952     12.984    11.8596 0.0000e+00
      9.083     -0.093     0.1124      1.030    411.395 303.195955     0.7929      6.052   259.1941 1.2381e-01    23.7425      8.892     12.897    11.8578 0.0000e+00
      9.067     -0.044     0.1063      1.047    411.188 303.029274     0.9975      6.046   256.9576 1.2379e-01    26.1926      8.881     12.880    11.8550 0.0000e+00
      9.082      0.001     0.1076      1.066    410.884 302.795105     1.1112      6.039   255.2744 1.2377e-01    27.5381      8.904     12.914    11.8514 0.0000e+00
      9.108      0.036     0.1108      1.066    410.564 302.550390     1.1190      6.034   254.3286 1.2377e-01    27.5761      8.932     12.955    11.8487 0.0000e+00
      9.133      0.052     0.1107      1.053    410.263 302.320467     1.0164      6.029   253.9536 1.2377e-01    26.7203      8.959     12.994    11.8468 0.0000e+00
      9.149      0.050     0.1125      1.038    410.024 302.136543     0.8109      6.028   253.8379 1.2381e-01    25.1841      8.976     13.018    11.8450 0.0000e+00
      9.156      0.037     0.1166      1.027    410.023 302.126562     0.6991      6.028   253.6182 1.2386e-01    24.3396      8.980     13.024    11.8438 0.0000e+00
      9.160      0.022     0.1155      1.029    410.313 302.328346     0.6886      6.028   253.0178 1.2386e-01    24.1276      8.983     13.029    11.8429 0.0000e+00
      9.164      0.009     0.1134      1.046    410.768 302.647717     0.6581      6.030   252.0849 1.2381e-01    23.2350      8.988     13.035    11.8419 0.0000e+00
      9.165     -0.000     0.1125      1.064    411.310 303.030882     0.6055      6.032   251.1152 1.2375e-01    21.7114      8.989     13.038    11.8409 0.0000e+00
      9.163     -0.005     0.1103      1.071    411.777 303.361072     0.5777      6.034   250.2411 1.2372e-01    20.9065      8.987     13.035    11.8401 0.0000e+00
      9.159     -0.007     0.1104      1.080    411.971 303.489887     0.5798      6.034   249.3456 1.2373e-01    20.9507      8.982     13.027    11.8385 0.0000e+00
      9.154     -0.007     0.1132      1.105    411.740 303.302587     0.6384      6.035   248.7204 1.2371e-01    22.2799      8.977     13.019    11.8365 0.0000e+00
      9.151     -0.003     0.1156      1.110    410.163 302.125042     0.7455      6.038   248.2746 1.2365e-01    24.7142      8.974     13.015    11.8345 0.0000e+00
      9.150      0.005     0.1163      1.074    396.710 292.209523     0.7932      6.039   247.6545 1.2364e-01    26.0282      8.973     13.014    11.8327 0.0000e+00
      9.151      0.014     0.1146      1.044    362.802 267.239080     0.7815      6.039   247.4177 1.2371e-01    26.1431      8.973     13.014    11.8312 0.0000e+00
      9.156      0.018     0.1207      1.052    322.473 237.549030     0.8041      6.038   248.2510 1.2378e-01    26.1038      8.978     13.022    11.8290 0.0000e+00
      9.163      0.007     0.1226      1.060    278.530 205.199599     0.8586      6.039   249.8137 1.2380e-01    26.0303      8.984     13.030    11.8266 0.0000e+00
      9.176     -0.024     0.1155      1.037    233.972 172.394733     0.8913      6.041   250.9975 1.2376e-01    26.0063      8.997     13.048    11.8257 0.0000e+00
      9.190     -0.069     0.1106      1.015    194.264 143.164637     0.9077      6.043   251.3792 1.2370e-01    26.2229      9.021     13.084    11.8267 0.0000e+00
      9.180     -0.118     0.1133      1.023    146.029 107.670612     0.9997      6.046   251.5040 1.2370e-01    28.8884      9.019     13.080    11.8292 0.0000e+00
      9.132     -0.154     0.1174      1.060    113.100  83.484720     1.1704      6.048   251.7320 1.2375e-01    33.8111      8.966     13.003    11.8338 0.0000e+00
      9.056     -0.172     0.1113      1.116    106.002  78.326849     1.2657      6.048   251.2964 1.2375e-01    36.4848      8.883     12.884    11.8385 0.0000e+00
      8.975     -0.176     0.1086      1.226    100.942  74.630122     1.2609      6.049   250.1944 1.2376e-01    36.4844      8.793     12.753    11.8425 0.0000e+00
      8.920     -0.171     0.1094      1.551    102.139  75.540352     1.1626      6.050   249.7659 1.2380e-01    33.9089      8.730     12.662    11.8633 0.0000e+00
      8.903     -0.166     0.1136      2.271    112.697  83.365861     0.9925      6.051   249.2979 1.2377e-01    29.1539      8.724     12.653    11.9098 0.0000e+00
      8.902     -0.169     0.1204      3.390    119.343  88.293608     0.9019      6.054   248.0629 1.2373e-01    26.5422      8.740     12.677    11.9501 0.0000e+00
      8.877     -0.182     0.1246      4.784    115.662  85.571426     0.8994      6.056   247.5684 1.2375e-01    26.3797      8.721     12.648    11.9680 0.0000e+00
      8.815     -0.200     0.1500      6.320    104.659  77.427706     0.9123      6.058   247.7073 1.2379e-01    27.3927      8.650     12.546    11.9762 0.0000e+00
      8.733     -0.214     0.2288      7.821     88.964  65.816772     0.9252      6.059   247.4189 1.2380e-01    29.2943      8.563     12.420    11.9841 0.0000e+00
      8.652     -0.214     0.3557      9.046     76.509  56.605389     0.9217      6.061   247.1794 1.2380e-01    30.3113      8.480     12.298    11.9908 0.0000e+00
      8.588     -0.199     0.5096      9.833     72.812  53.873376     0.9040      6.062   247.4776 1.2377e-01    30.3295      8.411     12.199    11.9897 0.0000e+00
      8.550     -0.179     0.6811     10.188     73.410  54.318018     0.8945      6.064   248.0998 1.2378e-01    30.1640      8.376     12.148    11.9864 0.0000e+00
      8.530     -0.165     0.8545     10.295     75.266  55.694148     0.8569      6.066   248.4209 1.2379e-01    28.7882      8.367     12.135    11.9873 0.0000e+00
      8.509     -0.164     0.9929     10.495     79.408  58.762266     0.7815      6.067   248.2627 1.2371e-01    26.2643      8.353     12.115    11.9900 0.0000e+00
      8.470     -0.179     1.0769     11.087     84.467  62.510647     0.7406      6.068   248.1662 1.2364e-01    24.8575      8.312     12.056    11.9922 0.0000e+00
      8.415     -0.202     1.1100     12.215     85.070  62.961718     0.7366      6.070   248.6309 1.2365e-01    24.6916      8.253     11.970    11.9936 0.0000e+00
      8.351     -0.221     1.1046     13.842     81.095  60.023836     0.7260      6.071   249.4071 1.2367e-01    24.3948      8.192     11.882    11.9952 0.0000e+00
      8.282     -0.229     1.1150     15.743     77.058  57.039261     0.7035      6.072   249.7223 1.2366e-01    23.8648      8.123     11.781    11.9972 0.0000e+00
      8.214     -0.224     1.1731     17.586     74.753  55.335034     0.6977      6.074   249.5162 1.2369e-01    23.6132      8.050     11.675    11.9999 0.0000e+00
      8.157     -0.213     1.2952     19.047     74.442  55.106912     0.7134      6.074   249.2377 1.2378e-01    23.6410      7.995     11.596    12.0031 0.0000e+00
      8.111     -0.201     1.4804     19.960     76.241  56.440313     0.7274      6.074   249.8829 1.2385e-01    24.0645      7.954     11.536    12.0056 0.0000e+00
      8.068     -0.192     1.6977     20.350     77.135  57.102504     0.7336      6.074   251.2089 1.2382e-01    24.8731      7.913     11.477    12.0076 0.0000e+00
      8.024     -0.188     1.9107     20.367     75.302  55.745531     0.7298      6.075   251.4182 1.2377e-01    25.2879      7.869     11.413    12.0094 0.0000e+00
      7.978     -0.189     2.0739     20.199     72.610  53.752752     0.7229      6.075   250.9497 1.2378e-01    25.2539      7.825     11.349    12.0106 0.0000e+00
      7.929     -0.189     2.1711     20.045     69.896  51.744059     0.6928      6.074   251.5668 1.2380e-01    24.3601      7.778     11.281    12.0115 0.0000e+00
      7.876     -0.184     2.2056     20.030     67.456  49.938420     0.6323      6.074   252.8569 1.2378e-01    22.6452      7.724     11.203    12.0117 0.0000e+00
      7.821     -0.175     2.2013     20.139     66.276  49.065868     0.5895      6.074   253.2121 1.2376e-01    21.7009      7.667     11.120    12.0116 0.0000e+00
      7.773     -0.163     2.1748     20.332     66.450  49.194614     0.5665      6.074   252.8504 1.2376e-01    21.5858      7.618     11.049    12.0119 0.0000e+00
      7.738     -0.148     2.1520     20.632     66.812  49.463320     0.5543      6.074   253.0445 1.2372e-01    21.4917      7.587     11.002    12.0127 0.0000e+00
      7.709     -0.131     2.1530     21.062     67.319  49.838537     0.5592      6.074   253.7524 1.2368e-01    21.4168      7.561     10.967    12.0131 0.0000e+00
      7.678     -0.119     2.1673     21.588     70.776  52.397896     0.5670      6.074   254.0955 1.2369e-01    21.3983      7.530     10.923    12.0133 0.0000e+00
      7.648     -0.119     2.1863     22.166     77.042  57.037406     0.5650      6.074   253.9227 1.2371e-01    21.3363      7.496     10.872    12.0135 0.0000e+00
      7.623     -0.130     2.2164     22.760     79.262  58.681312     0.5437      6.074   253.8148 1.2372e-01    20.9071      7.473     10.838    12.0140 0.0000e+00
      7.603     -0.144     2.2654     23.322     75.574  55.951130     0.5176      6.072   254.1673 1.2374e-01    20.2042      7.462     10.823    12.0144 0.0000e+00
      7.568     -0.151     2.3232     23.781     71.318  52.801021     0.5158      6.070   254.6576 1.2375e-01    19.8750      7.431     10.779    12.0144 0.0000e+00
      7.513     -0.152     2.3873     24.092     68.735  50.889672     0.5299      6.069   254.8382 1.2379e-01    19.9323      7.369     10.688    12.0144 0.0000e+00
      7.453     -0.154     2.4517     24.167     68.800  50.939380     0.5297      6.067   254.8026 1.2376e-01    19.9403      7.302     10.590    12.0144 0.0000e+00
      7.411     -0.155     2.5169     23.915     69.724  51.623811     0.5057      6.067   254.7441 1.2371e-01    19.6310      7.259     10.528    12.0147 0.0000e+00
      7.388     -0.152     2.5669     23.465     68.501  50.719206     0.4718      6.067   254.8183 1.2373e-01    19.1648      7.246     10.509    12.0150 0.0000e+00
      7.366     -0.143     2.6017     23.026     68.176  50.479600     0.4536      6.067   255.1829 1.2373e-01    18.9824      7.232     10.487    12.0157 0.0000e+00
      7.328     -0.138     2.6198     22.718     68.894  51.013011     0.4596      6.067   255.6255 1.2368e-01    19.0317      7.191     10.429    12.0167 0.0000e+00
      7.279     -0.143     2.5831     22.591     67.942  50.310553     0.4867      6.067   255.6096 1.2369e-01    19.0092      7.135     10.348    12.0173 0.0000e+00
      7.237     -0.153     2.5251     22.568     66.817  49.479263     0.5151      6.068   255.3353 1.2379e-01    18.8809      7.092     10.286    12.0177 0.0000e+00
      7.207     -0.160     2.4758     22.534     65.945  48.835924     0.5193      6.069   255.4928 1.2382e-01    18.7785      7.069     10.252    12.0187 0.0000e+00
      7.173     -0.161     2.4375     22.441     65.061  48.182866     0.5129      6.069   255.9647 1.2377e-01    18.7620      7.040     10.211    12.0203 0.0000e+00
      7.127     -0.162     2.4290     22.296     64.891  48.059425     0.5039      6.069   256.3945 1.2375e-01    18.7845      6.991     10.139    12.0219 0.0000e+00
      7.077     -0.165     2.4320     22.121     65.036  48.168812     0.4851      6.070   256.4739 1.2376e-01    18.7775      6.936     10.059    12.0232 0.0000e+00
      7.035     -0.166     2.4290     21.941     64.868  48.045183     0.4695      6.070   256.3217 1.2379e-01    18.7450      6.898     10.005    12.0247 0.0000e+00
      6.996     -0.161     2.4191     21.802     64.410  47.707462     0.4561      6.070   256.5327 1.2384e-01    18.7327      6.864      9.956    12.0264 0.0000e+00
      6.952     -0.156     2.4015     21.740     63.890  47.323427     0.4485      6.070   256.8743 1.2384e-01    18.7312      6.816      9.886    12.0280 0.0000e+00
      6.910     -0.156     2.3827     21.792     63.223  46.830230     0.4521      6.070   256.8387 1.2381e-01    18.7272      6.770      9.819    12.0293 0.0000e+00
      6.878     -0.161     2.3609     21.997     62.527  46.315307     0.4497      6.070   256.7042 1.2378e-01    18.7535      6.743      9.781    12.0303 0.0000e+00
      6.848     -0.164     2.3440     22.287     62.255  46.112912     0.4448      6.070   256.9693 1.2376e-01    18.7753      6.723      9.750    12.0313 0.0000e+00
      6.803     -0.159     2.3381     22.596     62.320  46.160689     0.4438      6.070   257.3771 1.2374e-01    18.7167      6.676      9.684    12.0323 0.0000e+00
      6.746     -0.150     2.3381     22.906     62.280  46.131164     0.4455      6.069   257.6767 1.2375e-01    18.6938      6.612      9.591    12.0331 0.0000e+00
      6.696     -0.139     2.3659     23.190     62.117  46.009858     0.4482      6.069   257.9251 1.2376e-01    18.7727      6.558      9.511    12.0337 0.0000e+00
      6.664     -0.121     2.4000     23.484     61.970  45.900191     0.4510      6.069   257.9716 1.2373e-01    18.8161      6.529      9.471    12.0334 0.0000e+00
      6.646     -0.096     2.4313     23.813     61.865  45.820928     0.4546      6.069   258.0663 1.2374e-01    18.8085      6.518      9.453    12.0327 0.0000e+00
      6.629     -0.071     2.4696     24.178     61.771  45.749806     0.4591      6.068   258.3813 1.2373e-01    19.2964      6.501      9.428    12.0321 0.0000e+00
      6.612     -0.058     2.4953     24.562     61.672  45.675090     0.4796      6.066   258.6830 1.2372e-01    20.3770      6.481      9.401    12.0318 0.0000e+00
      6.601     -0.061     2.5275     24.890     61.680  45.679343     0.5027      6.065   258.7894 1.2379e-01    21.0450      6.471      9.386    12.0310 0.0000e+00
      6.596     -0.080     2.5629     25.093     61.846  45.801222     0.5133      6.065   258.7208 1.2385e-01    21.1568      6.468      9.382    12.0301 0.0000e+00
      6.588     -0.107     2.6014     25.125     62.038  45.942538     0.5248      6.066   258.7142 1.2384e-01    21.5572      6.465      9.378    12.0289 0.0000e+00
      6.563     -0.136     2.6479     25.010     62.105  45.991357     0.5428      6.066   258.8819 1.2382e-01    22.2657      6.446      9.348    12.0276 0.0000e+00
      6.516     -0.163     2.6847     24.840     62.045  45.947104     0.5555      6.065   259.1134 1.2374e-01    22.6521      6.396      9.278    12.0268 0.0000e+00
      6.452     -0.184     2.7093     24.721     62.001  45.915344     0.5531      6.064   259.2769 1.2363e-01    22.6422      6.326      9.176    12.0256 0.0000e+00
      6.390     -0.197     2.7123     24.737     62.013  45.924779     0.5394      6.065   259.3953 1.2360e-01    21.9074      6.260      9.080    12.0245 0.0000e+00
      6.341     -0.197     2.6953     24.919     61.938  45.870729     0.5229      6.065   259.5132 1.2366e-01    20.5313      6.215      9.014    12.0237 0.0000e+00
      6.299     -0.183     2.6733     25.272     61.800  45.769698     0.5116      6.065   259.6699 1.2371e-01    19.7356      6.181      8.964    12.0241 0.0000e+00
      6.252     -0.163     2.6564     25.778     61.815  45.782438     0.5031      6.064   259.9130 1.2374e-01    19.5975      6.132      8.894    12.0251 0.0000e+00
      6.203     -0.148     2.6575     26.350     61.885  45.834327     0.4863      6.063   260.1290 1.2378e-01    19.3737      6.076      8.813    12.0258 0.0000e+00
      6.168     -0.143     2.6773     26.888     61.789  45.762246     0.4667      6.063   260.2166 1.2376e-01    19.0111      6.043      8.765    12.0265 0.0000e+00
      6.148     -0.141     2.7144     27.346     61.669  45.672711     0.4664      6.063   260.2837 1.2374e-01    18.7996      6.030      8.747    12.0276 0.0000e+00
      6.123     -0.139     2.7730     27.702     61.626  45.640531     0.4658      6.063   260.3389 1.2374e-01    18.7288      6.012      8.720    12.0292 0.0000e+00
      6.082     -0.142     2.8398     27.963     61.609  45.627093     0.4516      6.063   260.4534 1.2373e-01    18.6003      5.969      8.657    12.0296 0.0000e+00
      6.034     -0.153     2.8983     28.168     61.623  45.637204     0.4438      6.064   260.8078 1.2375e-01    18.4755      5.914      8.576    12.0289 0.0000e+00
      5.994     -0.165     2.9485     28.298     61.622  45.635814     0.4464      6.064   261.1823 1.2377e-01    18.4835      5.875      8.521    12.0279 0.0000e+00
      5.960     -0.172     2.9880     28.369     61.588  45.610285     0.4580      6.063   261.3674 1.2372e-01    18.5264      5.849      8.485    12.0271 0.0000e+00
      5.916     -0.175     3.0114     28.446     61.550  45.582476     0.4679      6.063   261.4111 1.2366e-01    18.5158      5.808      8.424    12.0266 0.0000e+00
      5.862     -0.181     3.0369     28.526     61.511  45.553510     0.4669      6.063   261.5396 1.2365e-01    18.4569      5.745      8.331    12.0261 0.0000e+00
      5.813     -0.191     3.0509     28.594     61.457  45.513987     0.4617      6.064   261.8025 1.2366e-01    18.4297      5.695      8.261    12.0257 0.0000e+00
      5.773     -0.196     3.0527     28.663     61.418  45.485499     0.4636      6.064   262.0083 1.2369e-01    18.4945      5.667      8.218    12.0255 0.0000e+00
      5.724     -0.194     3.0637     28.729     61.388  45.462998     0.4731      6.064   262.0497 1.2374e-01    18.5572      5.619      8.150    12.0259 0.0000e+00
      5.664     -0.187     3.0725     28.753     61.347  45.432377     0.4681      6.064   261.8725 1.2378e-01    18.5389      5.552      8.053    12.0262 0.0000e+00
      5.607     -0.177     3.0793     28.728     61.347  45.432672     0.4449      6.065   262.0163 1.2378e-01    18.4780      5.492      7.965    12.0264 0.0000e+00
      5.564     -0.165     3.0858     28.681     61.307  45.403081     0.4347      6.065   262.6695 1.2377e-01    18.4696      5.452      7.908    12.0266 0.0000e+00
      5.530     -0.152     3.0961     28.626     61.207  45.328529     0.4439      6.064   263.0600 1.2380e-01    18.5054      5.424      7.867    12.0265 0.0000e+00
      5.498     -0.144     3.0985     28.591     61.160  45.293052     0.4569      6.062   263.0381 1.2383e-01    18.5016      5.390      7.817    12.0263 0.0000e+00
      5.468     -0.146     3.0937     28.573     61.159  45.291549     0.4581      6.062   263.0067 1.2380e-01    18.4574      5.360      7.773    12.0263 0.0000e+00
      5.438     -0.157     3.0896     28.578     61.185  45.310349     0.4501      6.062   263.0245 1.2373e-01    18.4499      5.337      7.740    12.0262 0.0000e+00
      5.399     -0.172     3.0812     28.621     61.213  45.329929     0.4516      6.063   263.0809 1.2385e-01    18.4452      5.300      7.688    12.0259 0.0000e+00
      5.348     -0.185     3.0785     28.661     61.224  45.337838     0.4592      6.063   263.2587 1.2539e-01    18.4001      5.246      7.608    12.0254 0.0000e+00
      5.290     -0.191     3.0772     28.699     61.230  45.342491     0.4673      6.063   263.4527 1.3229e-01    18.3488      5.188      7.524    12.0249 0.0000e+00
      5.233     -0.190     3.0743     28.774     61.203  45.322706     0.4751      6.063   263.5347 1.4379e-01    18.3374      5.131      7.442    12.0243 0.0000e+00
      5.180     -0.176     3.0834     28.839     61.158  45.289070     0.4705      6.063   263.7342 1.5818e-01    18.3299      5.075      7.362    12.0238 0.0000e+00
      5.136     -0.151     3.0879     28.859     61.110  45.253205     0.4532      6.060   264.1428 1.6739e-01    18.3271      5.033      7.300    12.0235 0.0000e+00
      5.100     -0.120     3.0867     28.859     61.047  45.206479     0.4491      6.055   264.5175 1.7703e-01    18.4398      5.001      7.252    12.0234 0.0000e+00
      5.070     -0.092     3.1003     28.858     60.997  45.168476     0.4631      6.052   264.7379 1.9748e-01    18.5318      4.967      7.204    12.0235 0.0000e+00
      5.053     -0.074     3.1083     28.869     61.007  45.174596     0.4723      6.051   264.7429 2.0768e-01    18.5518      4.949      7.178    12.0236 0.0000e+00
      5.050     -0.069     3.1080     28.876     61.066  45.216991     0.4605      6.052   264.6629 2.0815e-01    18.5778      4.952      7.181    12.0234 0.0000e+00
      5.050     -0.073     3.1086     28.869     61.094  45.236710     0.4363      6.053   264.7175 2.1764e-01    18.5733      4.958      7.190    12.0232 0.0000e+00
      5.036     -0.083     3.1067     28.864     61.075  45.222578     0.4379      6.053   264.8861 2.3417e-01    18.5995      4.947      7.175    12.0225 0.0000e+00
      5.001     -0.101     3.1096     28.875     61.095  45.236561     0.4634      6.053   265.0669 2.4967e-01    18.6216      4.906      7.116    12.0213 0.0000e+00
      4.961     -0.123     3.1111     28.926     61.152  45.278823     0.4696      6.054   265.0970 2.6197e-01    18.5674      4.861      7.049    12.0202 0.0000e+00
      4.929     -0.142     3.1084     28.989     61.166  45.289189     0.4542      6.054   264.9924 2.8090e-01    18.4227      4.833      7.009    12.0192 0.0000e+00
      4.899     -0.152     3.1093     29.009     61.178  45.298417     0.4452      6.053   265.0927 3.1760e-01    18.2722      4.811      6.977    12.0186 0.0000e+00
      4.857     -0.161     3.1073     29.002     61.215  45.326921     0.4519      6.052   265.4484 3.5487e-01    18.2507      4.766      6.912    12.0184 0.0000e+00
      4.808     -0.175     3.1147     29.024     61.199  45.316430     0.4686      6.054   265.7663 3.7462e-01    18.3000      4.709      6.829    12.0184 0.0000e+00
      4.767     -0.192     3.1253     29.081     61.174  45.298534     0.4805      6.056   265.8389 3.9763e-01    18.3896      4.675      6.781    12.0186 0.0000e+00
      4.724     -0.206     3.1253     29.111     61.177  45.300980     0.4709      6.057   265.7237 4.5167e-01    18.4801      4.640      6.730    12.0192 0.0000e+00
      4.665     -0.214     3.1226     29.113     61.152  45.282537     0.4514      6.058   265.7504 5.1962e-01    18.4712      4.577      6.638    12.0199 0.0000e+00
      4.600     -0.218     3.1227     29.121     61.129  45.265982     0.4535      6.059   265.9897 5.6584e-01    18.4542      4.508      6.538    12.0206 0.0000e+00
      4.537     -0.217     3.1349     29.108     61.163  45.291257     0.4795      6.060   266.2933 6.0300e-01    18.4789      4.448      6.453    12.0213 0.0000e+00
      4.480     -0.211     3.1364     29.068     61.220  45.334216     0.5084      6.058   266.4101 6.4869e-01    18.4954      4.392      6.371    12.0217 0.0000e+00
      4.427     -0.205     3.1338     29.030     61.229  45.341027     0.5199      6.057   266.1975 6.9531e-01    18.5181      4.339      6.292    12.0218 0.0000e+00
      4.381     -0.201     3.1378     28.990     61.186  45.310134     0.5102      6.058   266.0464 7.3828e-01    18.4800      4.293      6.227    12.0217 0.0000e+00
      4.341     -0.199     3.1364     28.956     61.142  45.278100     0.4911      6.059   266.2175 7.8132e-01    18.1368      4.259      6.177    12.0221 0.0000e+00
      4.294     -0.199     3.1294     28.960     61.132  45.271119     0.4720      6.058   266.4600 8.4416e-01    17.5798      4.219      6.119    12.0226 0.0000e+00
      4.234     -0.199     3.1269     28.979     61.157  45.289202     0.4622      6.058   266.4828 9.3790e-01    17.2788      4.153      6.024    12.0231 0.0000e+00
      4.173     -0.199     3.1227     28.986     61.180  45.306304     0.4559      6.058   266.4936 1.0432e+00    17.1967      4.086      5.925    12.0237 0.0000e+00
      4.124     -0.198     3.1155     29.000     61.155  45.287458     0.4622      6.058   266.6764 1.1329e+00    17.0655      4.041      5.861    12.0242 0.0000e+00
      4.081     -0.192     3.1184     29.013     61.106  45.251780     0.4963      6.058   266.8864 1.2254e+00    16.9215      4.005      5.808    12.0242 0.0000e+00
      4.034     -0.183     3.1221     29.005     61.111  45.255819     0.5277      6.057   267.1393 1.3409e+00    16.8569      3.957      5.738    12.0237 0.0000e+00
      3.986     -0.179     3.1209     28.988     61.133  45.272814     0.5335      6.056   267.4117 1.4429e+00    16.8307      3.906      5.665    12.0236 0.0000e+00
      3.941     -0.182     3.1226     28.965     61.124  45.266821     0.5254      6.052   267.5122 1.5288e+00    16.7420      3.864      5.606    12.0239 0.0000e+00
      3.899     -0.189     3.1267     28.954     61.096  45.246842     0.5458      6.048   267.3227 1.6313e+00    16.5359      3.824      5.547    12.0244 0.0000e+00
      3.854     -0.197     3.1225     28.967     61.061  45.221696     0.6052      6.046   267.0985 1.7725e+00    16.3199      3.783      5.486    12.0248 0.0000e+00
      3.803     -0.205     3.1230     29.004     61.053  45.216711     0.6441      6.048   267.2962 1.9675e+00    16.2819      3.732      5.413    12.0253 0.0000e+00
      3.746     -0.211     3.1182     29.054     61.095  45.250055     0.6499      6.049   267.6484 2.2007e+00    16.2809      3.674      5.328    12.0258 0.0000e+00
      3.686     -0.214     3.1170     29.090     61.166  45.307447     0.6842      6.049   267.4849 2.4541e+00    15.8301      3.615      5.242    12.0264 0.0000e+00
      3.627     -0.211     3.1187     29.122     61.199  45.339317     0.7586      6.050   266.7820 2.7277e+00    15.0330      3.556      5.157    12.0268 0.0000e+00
      3.572     -0.202     3.1220     29.144     61.158  45.317984     0.8176      6.051   266.0332 3.0357e+00    14.6364      3.502      5.079    12.0273 0.0000e+00
      3.521     -0.189     3.1303     29.131     61.124  45.303451     0.8482      6.051   265.9167 3.3939e+00    14.6551      3.452      5.008    12.0293 0.0000e+00
      3.475     -0.177     3.1315     29.063     61.179  45.354052     0.8708      6.050   265.9753 3.7939e+00    14.7469      3.406      4.940    12.0331 0.0000e+00
      3.434     -0.172     3.1358     28.930     61.259  45.421960     0.8824      6.049   265.1072 4.2280e+00    14.8242      3.367      4.883    12.0386 0.0000e+00
      3.398     -0.173     3.1378     28.683     61.512  45.616679     0.8965      6.048   263.5948 4.7147e+00    14.8043      3.333      4.835    12.0468 0.0000e+00
      3.361     -0.177     3.1379     28.304     62.096  46.057824     1.0995      6.048   262.0571 5.3265e+00    14.7796      3.301      4.787    12.0562 0.0000e+00
      3.316     -0.182     3.1281     27.845     62.590  46.438952     3.2370      6.048   260.7981 6.0961e+00    14.2178      3.255      4.723    12.0643 0.0000e+00
      3.261     -0.187     3.1171     27.366     62.781  46.606296     7.1243      6.047   259.7294 6.8885e+00    13.0330      3.198      4.640    12.0708 0.0000e+00
      3.205     -0.187     3.0913     26.916     63.013  46.811498     9.2474      6.045   258.5130 7.5480e+00    12.3418      3.141      4.555    12.0765 0.0000e+00
      3.154     -0.184     3.0465     26.507     63.238  47.015479     9.5977      6.044   257.1044 8.0494e+00    12.1799      3.089      4.481    12.0813 0.0000e+00
      3.110     -0.177     2.9955     26.140     63.131  46.977601    11.5263      6.043   255.8614 8.4699e+00    11.6565      3.049      4.422    12.0912 0.0000e+00
      3.071     -0.169     2.9391     25.802     62.831  46.797975    15.0545      6.041   255.3584 8.8858e+00    10.8301      3.011      4.367    12.1130 0.0000e+00
      3.032     -0.163     2.8898     25.465     62.626  46.684790    16.9835      6.039   254.9800 9.3134e+00    10.4543      2.972      4.311    12.1404 0.0000e+00
      2.992     -0.161     2.8432     25.066     62.501  46.624925    17.1462      6.037   253.6951 9.7653e+00    10.4268      2.936      4.258    12.1688 0.0000e+00
      2.950     -0.163     2.8029     24.527     62.323  46.518590    17.0299      6.037   251.6957 1.0246e+01    10.3266      2.894      4.197    12.2022 0.0000e+00
      2.907     -0.164     2.7645     23.811     62.154  46.414894    15.7020      6.038   250.1655 1.0733e+01     9.9944      2.849      4.133    12.2387 0.0000e+00
      2.865     -0.164     2.7291     22.933     62.175  46.450423    13.2934      6.040   249.6483 1.1226e+01     9.4836      2.809      4.075    12.2723 0.0000e+00
      2.822     -0.161     2.6886     21.970     62.392  46.630771    11.9858      6.041   249.4855 1.1755e+01     9.2404      2.769      4.015    12.2977 0.0000e+00
      2.778     -0.155     2.6306     21.049     62.614  46.817890    11.8107      6.039   249.0572 1.2279e+01     9.1377      2.723      3.949    12.3180 0.0000e+00
      2.737     -0.149     2.5530     20.280     62.639  46.871798    11.1011      6.034   248.3419 1.2728e+01     8.3445      2.682      3.890    12.3368 0.0000e+00
      2.702     -0.144     2.4548     19.704     62.575  46.901681     9.8069      6.028   247.2036 1.3129e+01     6.9940      2.648      3.840    12.3524 0.0000e+00
      2.670     -0.140     2.3462     19.322     62.581  47.052312     9.0962      6.019   245.2749 1.3548e+01     6.3369      2.619      3.798    12.3652 0.0000e+00
      2.637     -0.139     2.2418     19.166     62.491  47.169558     9.0257      6.011   243.6062 1.3994e+01     6.3772      2.586      3.751    12.3815 0.0000e+00
      2.602     -0.141     2.1581     19.245     62.281  47.176742     8.9204      6.006   242.7728 1.4451e+01     6.3196      2.551      3.699    12.4015 0.0000e+00
      2.567     -0.146     2.0951     19.423     62.148  47.202851     8.7226      6.006   240.3607 1.4988e+01     6.1191      2.518      3.651    12.4480 0.0000e+00
      2.529     -0.153     2.0468     19.478     62.134  47.294916     8.6066      6.006   236.2961 1.5627e+01     6.0361      2.481      3.598    12.5765 0.0000e+00
      2.488     -0.161     2.0200     19.281     61.974  47.274210     8.5585      6.008   233.7221 1.6272e+01     6.0676      2.440      3.539    12.7491 0.0000e+00
      2.447     -0.171     2.0280     18.833     61.392  46.952602     8.1571      6.012   233.2436 1.6905e+01     5.9884      2.400      3.481    12.8843 0.0000e+00
      2.404     -0.178     2.0532     18.212     60.598  46.517362     7.4158      6.018   233.7803 1.7594e+01     5.7956      2.360      3.423    12.9793 0.0000e+00
      2.356     -0.181     2.0597     17.474     60.047  46.329002     7.0029      6.025   233.9306 1.8320e+01     5.6486      2.313      3.355    13.0566 0.0000e+00
      2.304     -0.181     2.0352     16.620     59.763  46.389524     6.9608      6.032   233.4262 1.9011e+01     5.5781      2.259      3.276    13.1313 0.0000e+00
      2.252     -0.177     1.9804     15.748     59.359  46.360679     6.9482      6.038   233.4463 1.9663e+01     5.5239      2.207      3.201    13.2230 0.0000e+00
      2.206     -0.172     1.9059     15.037     58.783  46.171025     6.9330      6.041   233.7423 2.0205e+01     5.4707      2.162      3.136    13.3602 0.0000e+00
      2.166     -0.167     1.8237     14.572     58.191  45.937778     6.9272      6.045   232.8761 2.0587e+01     5.4136      2.123      3.079    13.5589 0.0000e+00
      2.130     -0.165     1.7223     14.381     57.460  45.572247     6.9273      6.050   229.8562 2.0925e+01     5.3797      2.089      3.030    13.8079 0.0000e+00
      2.093     -0.167     1.6126     14.475     56.621  45.116221     6.9187      6.058   226.4821 2.1384e+01     5.4026      2.054      2.979    14.0594 0.0000e+00
      2.051     -0.170     1.5313     14.795     55.561  44.487059     6.9062      6.067   225.4638 2.2032e+01     5.4516      2.014      2.922    14.2784 0.0000e+00
      2.004     -0.172     1.4769     15.285     54.422  43.805370     6.9097      6.072   226.4921 2.2836e+01     5.4940      1.967      2.853    14.4748 0.0000e+00
      1.954     -0.172     1.4494     15.929     53.856  43.602855     6.9182      6.075   227.5584 2.3702e+01     5.4708      1.915      2.777    14.6532 0.0000e+00
      1.906     -0.171     1.4570     16.720     53.711  43.752700     6.9089      6.076   226.9987 2.4545e+01     5.4103      1.867      2.708    14.8341 0.0000e+00
      1.865     -0.169     1.4852     17.712     53.430  43.776660     6.8811      6.080   225.2308 2.5380e+01     5.4462      1.826      2.650    15.0312 0.0000e+00
      1.829     -0.165     1.5278     18.979     52.916  43.575475     6.8576      6.085   224.2523 2.6416e+01     5.5623      1.794      2.603    15.2346 0.0000e+00
      1.790     -0.159     1.5853     20.532     52.565  43.478629     6.8581      6.088   224.5456 2.7872e+01     5.6538      1.759      2.551    15.4714 0.0000e+00
      1.746     -0.154     1.6533     22.420     52.525  43.621552     6.8528      6.087   224.7321 2.9659e+01     5.6639      1.712      2.484    15.7319 0.0000e+00
      1.701     -0.150     1.7380     24.683     52.368  43.653402     6.7349      6.084   223.4965 3.1630e+01     5.6164      1.665      2.415    15.9751 0.0000e+00
      1.661     -0.148     1.8566     27.135     51.838  43.356126     6.5239      6.084   221.8240 3.3418e+01     5.5909      1.625      2.356    16.1832 0.0000e+00
      1.631     -0.146     2.0009     29.497     51.262  43.010692     6.3987      6.086   221.5457 3.4769e+01     5.5952      1.599      2.320    16.3558 0.0000e+00
      1.601     -0.145     2.1719     31.614     50.895  42.841087     6.3689      6.090   222.3696 3.5870e+01     5.6347      1.574      2.283    16.5242 0.0000e+00
      1.565     -0.148     2.3938     33.402     50.336  42.511616     6.2726      6.094   222.8371 3.6699e+01     5.5905      1.536      2.228    16.6839 0.0000e+00
      1.523     -0.155     2.6374     34.804     49.499  41.946958     6.0991      6.099   222.7237 3.7258e+01     5.4021      1.493      2.166    16.8193 0.0000e+00
      1.481     -0.164     2.8617     35.794     48.685  41.409055     6.0026      6.104   222.2887 3.7663e+01     5.3035      1.452      2.106    16.9452 0.0000e+00
      1.439     -0.168     3.0609     36.419     48.034  41.022133     5.9803      6.109   221.7079 3.8317e+01     5.3549      1.412      2.049    17.0829 0.0000e+00
      1.394     -0.167     3.2258     36.884     47.665  40.886585     5.8796      6.110   221.3799 3.9437e+01     5.4774      1.369      1.986    17.2270 0.0000e+00
      1.346     -0.165     3.3511     37.409     47.410  40.849334     5.6997      6.113   221.1619 4.0871e+01     5.5889      1.319      1.913    17.3643 0.0000e+00
      1.302     -0.163     3.4369     38.142     47.106  40.762370     5.6034      6.120   221.0512 4.2708e+01     5.6102      1.271      1.844    17.5173 0.0000e+00
      1.267     -0.162     3.4738     39.218     46.798  40.660400     5.5891      6.127   221.0742 4.5193e+01     5.5979      1.241      1.800    17.6933 0.0000e+00
      1.232     -0.161     3.4968     40.769     46.443  40.505148     5.4603      6.135   221.2669 4.8658e+01     5.6099      1.212      1.759    17.8835 0.0000e+00
      1.191     -0.160     3.5286     42.877     46.092  40.345134     5.2286      6.143   221.5748 5.3063e+01     5.6534      1.169      1.696    18.0804 0.0000e+00
      1.146     -0.161     3.5792     45.509     45.818  40.249034     5.1002      6.149   221.6995 5.7194e+01     5.6463      1.124      1.630    18.2669 0.0000e+00
      1.101     -0.164     3.6636     48.500     45.636  40.231896     5.0818      6.153   221.9997 6.0343e+01     5.5921      1.079      1.565    18.4430 0.0000e+00
      1.060     -0.164     3.7915     51.476     45.511  40.265032     5.0807      6.156   222.6247 6.2973e+01     5.5791      1.038      1.505    18.6070 0.0000e+00
      1.020     -0.162     3.9794     54.129     45.364  40.269086     5.1368      6.157   222.8024 6.5645e+01     5.5914      1.002      1.452    18.7627 0.0000e+00
      0.979     -0.162     4.2129     56.479     45.244  40.281094     5.2535      6.158   222.0830 6.7987e+01     5.6374      0.962      1.393    18.9186 0.0000e+00
      0.938     -0.165     4.4921     58.559     45.208  40.346913     5.3180      6.160   221.2407 6.9559e+01     5.6575      0.918      1.332    19.0738 0.0000e+00
      0.898     -0.170     4.7673     60.295     45.138  40.366928     5.3005      6.163   221.5667 7.1682e+01     5.6296      0.880      1.277    19.2358 0.0000e+00
      0.858     -0.175     4.9895     61.701     45.019  40.332799     5.1076      6.168   222.9267 7.6483e+01     5.5738      0.846      1.227    19.3884 0.0000e+00
      0.812     -0.179     5.1907     62.844     44.925  40.315148     4.7674      6.170   223.5738 8.0900e+01     5.4610      0.799      1.159    19.5177 0.0000e+00
      0.759     -0.182     5.3763     63.773     44.815  40.280519     4.5909      6.170   222.9376 8.0696e+01     5.3931      0.741      1.075    19.6260 0.0000e+00
      0.709     -0.183     5.5233     64.513     44.684  40.231516     4.5721      6.173   222.2036 8.0311e+01     5.3673      0.691      1.002    19.7150 0.0000e+00
      0.666     -0.177     5.6400     64.988     44.594  40.230462     4.4816      6.177   222.6148 8.4816e+01     5.3206      0.653      0.948    19.7918 0.0000e+00
      0.621     -0.164     5.7364     65.213     44.539  40.267886     4.3206      6.176   223.6936 9.7334e+01     5.3061      0.612      0.888    19.8645 0.0000e+00
      0.572     -0.153     5.8086     65.336     44.484  40.303339     4.2317      6.171   223.7185 1.0786e+02     5.3630      0.557      0.809    19.9352 0.0000e+00
      0.533     -0.149     5.8733     65.436     44.439  40.341923     4.2311      6.167   222.8291 1.1032e+02     5.4274      0.515      0.747    20.0082 0.0000e+00
      0.508     -0.152     5.9071     65.586     44.373  40.353727     4.2553      6.167   222.7483 1.1398e+02     5.3329      0.498      0.723    20.0979 0.0000e+00
      0.482     -0.159     5.9053     65.909     44.262  40.319223     4.2828      6.171   230.1410 1.1837e+02     5.1431      0.480      0.696    20.2019 0.0000e+00
      0.441     -0.174     5.9062     66.512     44.179  40.305623     4.2883      6.177   239.4244 1.2758e+02     5.0802      0.438      0.635    20.2997 0.0000e+00
      0.389     -0.195     5.9018     67.346     44.196  40.379757     4.2640      6.184   234.9294 1.4010e+02     5.1191      0.381      0.552    20.3869 0.0000e+00
      0.334     -0.213     5.9029     68.272     44.287  40.517537     4.0807      6.191   226.2115 1.4756e+02     5.1683      0.326      0.472    20.4683 0.0000e+00
      0.279     -0.215     5.9166     69.144     44.361  40.638842     3.7444      6.199   233.5642 1.6282e+02     5.1632      0.281      0.407    20.5428 0.0000e+00
      0.210     -0.206     5.9663     69.933     44.371  40.704150     3.5529      6.210   245.8788 1.9405e+02     5.0915      0.211      0.306    20.6130 0.0000e+00
      0.139     -0.197     6.0382     70.764     44.341  40.736069     3.5289      6.221   249.7473 2.1444e+02     5.0529      0.122      0.176    20.6788 0.0000e+00
      0.096     -0.193     6.1177     71.583     44.315  40.770985     3.4879      6.225   257.9675 2.0023e+02     5.0728      0.082      0.119    20.7396 0.0000e+00
      0.076     -0.190     6.1945     72.244     44.296  40.809070     3.4159      6.226   266.1989 1.7461e+02     5.1264      0.082      0.120    20.7989 0.0000e+00
      0.044     -0.188     6.2441     72.714     44.317  40.879305     3.3821      6.232   267.6208 1.7159e+02     5.1551      0.056      0.083    20.8625 0.0000e+00
     -0.015     -0.189     6.3173     73.030     44.381  40.985607     3.3792      6.244   268.2763 1.8868e+02     5.1117     -0.014     -0.020    20.9294 0.0000e+00
     -0.082     -0.192     6.3862     73.018     44.433  41.078969     3.3725      6.255   267.3273 2.1286e+02     5.0796     -0.086     -0.125    20.9973 0.0000e+00
     -0.139     -0.184     6.4391     72.652     44.362  41.056209     3.3755      6.260   265.6970 2.3555e+02     5.1091     -0.139     -0.200    21.0618 0.0000e+00
     -0.187     -0.160     6.4694     72.504     44.151  40.900872     3.3824      6.263   266.5472 2.4183e+02     5.1611     -0.183     -0.265    21.1171 0.0000e+00
     -0.232     -0.136     6.4942     72.562     43.991  40.787508     3.3809      6.270   269.4336 2.3579e+02     5.2296     -0.232     -0.337    21.1698 0.0000e+00
     -0.261     -0.128     6.5062     72.454     43.931  40.764501     3.3743      6.277   271.2565 2.3234e+02     5.9032     -0.270     -0.392    21.2209 0.0000e+00
     -0.264     -0.133     6.4239     72.500     43.879  40.749679     3.3855      6.279   271.9823 2.3666e+02    13.8179     -0.261     -0.378    21.2698 0.0000e+00
     -0.268     -0.142     6.4092     72.792     43.828  40.735264     3.4250      6.277   270.6372 2.4250e+02    28.4054     -0.242     -0.351    21.3158 0.0000e+00
     -0.315     -0.156     6.4454     73.092     43.777  40.717197     3.4526      6.275   258.8656 2.4360e+02    36.3508     -0.293     -0.425    21.3552 0.0000e+00
     -0.392     -0.178     6.3945     73.232     43.755  40.721665     3.3864      6.272   231.8668 2.4282e+02    36.4419     -0.399     -0.578    21.3895 0.0000e+00
     -0.451     -0.200     6.3998     73.050     44.208  41.170113     2.4077      6.265   215.3929 2.3941e+02    29.6099     -0.455     -0.659    21.4271 0.0000e+00
     -0.486     -0.205     6.4323     72.545     46.641  43.473771     0.5837      6.251   223.4133 2.2997e+02    17.0771     -0.468     -0.678    21.4681 0.0000e+00
     -0.533     -0.186     6.4533     71.914     49.565  46.231147    -0.4064      6.229   230.6707 2.1500e+02    10.2731     -0.515     -0.747    21.5027 0.0000e+00
     -0.597     -0.155     6.4751     71.472     49.864  46.515852    -0.4756      6.204   234.9120 2.0130e+02     9.5140     -0.590     -0.857    21.5274 0.0000e+00
     -0.651     -0.125     6.4499     71.249     49.168  45.838486    -0.4192      6.185   243.0330 1.9009e+02     7.2836     -0.650     -0.942    21.5526 0.0000e+00
     -0.677     -0.095     6.4003     71.068     48.970  45.596056    -0.3160      6.172   246.9510 1.6759e+02     3.2546     -0.671     -0.974    21.5978 0.0000e+00
     -0.684     -0.062     6.3188     70.703     48.792  45.362016    -0.2594      6.165   247.6105 1.3456e+02     1.0741     -0.672     -0.973    21.6401 0.0000e+00
     -0.684     -0.031     6.2839     69.654     48.788  45.293927    -0.2598      6.163   248.9412 1.0921e+02     0.9366     -0.671     -0.973    21.6505 0.0000e+00
     -0.684     -0.011     6.2726     67.641     48.833  45.280552    -0.2372      6.163   250.8234 9.2789e+01     1.2508     -0.672     -0.974    21.6200 0.0000e+00
     -0.684     -0.005     6.2722     66.406     48.842  45.263698    -0.2105      6.164   251.6978 8.0021e+01     1.5254     -0.671     -0.973    21.5550 0.0000e+00
     -0.685 -9.990e-29     6.2567 -9.990e-29 -9.990e-29 -9.990e-29 -9.990e-29 -9.990e-29 -9.990e-29 7.1943e+01 -9.990e-29     -0.671     -0.974    21.4761 0.0000e+00
     -0.686 -9.990e-29     6.2127 -9.990e-29 -9.990e-29 -9.990e-29 -9.990e-29 -9.990e-29 -9.990e-29 6.9201e+01 -9.990e-29     -0.673     -0.975    21.4128 0.0000e+00
     -0.686 -9.990e-29     5.9793 -9.990e-29 -9.990e-29 -9.990e-29 -9.990e-29 -9.990e-29 -9.990e-29 7.0410e+01 -9.990e-29     -0.673     -0.976    21.3490 0.0000e+00
     -0.686 -9.990e-29     5.7485 -9.990e-29 -9.990e-29 -9.990e-29 -9.990e-29 -9.990e-29 -9.990e-29 7.1484e+01 -9.990e-29     -0.673     -0.975    21.3070 0.0000e+00
