* Sea-Bird SBE19plus  Data File:
* FileName = C:\DATA\092418_fcr_0003.hex
* Software version 2.6.3.104
* Temperature SN = 7809
* Conductivity SN = 7809
* System UpLoad Time = Sep 24 2018 16:48:20
* <ApplicationData>
* <Seaterm232>
* <SoftwareVersion>2.6.3.104</SoftwareVersion>
* <BuildDate>30-Jun-2017</BuildDate>
* </Seaterm232>
* </ApplicationData>
* <InstrumentState>
* <HardwareData DeviceType='SBE19plus' SerialNumber='01907809'>
*
*    <Manufacturer>Sea-Bird Electronics, Inc.</Manufacturer>
*
*    <FirmwareVersion>3.1.8</FirmwareVersion>
*
*    <FirmwareDate>Mar  9 2016 16:22:29</FirmwareDate>
*
*    <CommandSetVersion>1.4</CommandSetVersion>
*
*    <PCBAssembly PCBSerialNum='120721' AssemblyNum='41054J'/>
*
*    <PCBAssembly PCBSerialNum='120715' AssemblyNum='41967A'/>
*
*    <PCBAssembly PCBSerialNum='116699' AssemblyNum='41606'/>
*
*    <PCBAssembly PCBSerialNum='120719' AssemblyNum='41059D'/>
*
*    <MfgDate>28-Apr-2017</MfgDate>
*
*    <InternalSensors>
*
*       <Sensor id='Main Temperature'>
*
*          <type>temperature0</type>
*
*          <SerialNumber>01907809</SerialNumber>
*
*       </Sensor>
*
*       <Sensor id='Main Conductivity'>
*
*          <type>conductivity-0</type>
*
*          <SerialNumber>01907809</SerialNumber>
*
*       </Sensor>
*
*       <Sensor id='Main Pressure'>
*
*          <type>strain-0</type>
*
*          <SerialNumber>10586018</SerialNumber>
*
*       </Sensor>
*
*    </InternalSensors>
*
*    <ExternalSensors>
*
*       <Sensor id='volt 0'>
*
*          <type>pH</type>
*
*          <SerialNumber>27-0363</SerialNumber>
*
*       </Sensor>
*
*       <Sensor id='volt 1'>
*
*          <type>ORP</type>
*
*          <SerialNumber>27-0363</SerialNumber>
*
*       </Sensor>
*
*       <Sensor id='volt 2'>
*
*          <type>OXY</type>
*
*          <SerialNumber>43-0434</SerialNumber>
*
*       </Sensor>
*
*       <Sensor id='volt 3'>
*
*          <type>PAR</type>
*
*          <SerialNumber>1122</SerialNumber>
*
*       </Sensor>
*
*       <Sensor id='volt 4'>
*
*          <type>ECO AFL/FL</type>
*
*          <SerialNumber>FLNTURT-2496</SerialNumber>
*
*       </Sensor>
*
*       <Sensor id='volt 5'>
*
*          <type>ECO-NTU</type>
*
*          <SerialNumber>FLNTURT-2496</SerialNumber>
*
*       </Sensor>
*
*       <Sensor id='serial'>
*
*          <type>not assigned</type>
*
*          <SerialNumber>not assigned</SerialNumber>
*
*       </Sensor>
*
*    </ExternalSensors>
*
* </HardwareData>
* <StatusData DeviceType='SBE19plus' SerialNumber='01907809'>
*
*    <DateTime>2018-09-24T20:47:01</DateTime>
*
*    <LoggingState>not logging</LoggingState>
*
*    <EventSummary numEvents='0'/>
*
*    <Power>
*
*       <vMain>12.8</vMain>
*
*       <vLith>8.5</vLith>
*
*       <iMain>63.2</iMain>
*
*       <iPump>43.8</iPump>
*
*       <iExt01>14.3</iExt01>
*
*       <iExt2345>44.7</iExt2345>
*
*    </Power>
*
*    <MemorySummary>
*
*       <Bytes>110745</Bytes>
*
*       <Samples>4815</Samples>
*
*       <SamplesFree>2855973</SamplesFree>
*
*       <SampleLength>23</SampleLength>
*
*       <Profiles>5</Profiles>
*
*    </MemorySummary>
*
* </StatusData>
* <ConfigurationData DeviceType='SBE19plus' SerialNumber='01907809'>
*
*    <ProfileMode>
*
*       <ScansToAverage>1</ScansToAverage>
*
*       <MinimumCondFreq>5</MinimumCondFreq>
*
*       <PumpDelay>45</PumpDelay>
*
*       <AutoRun>no</AutoRun>
*
*       <IgnoreSwitch>no</IgnoreSwitch>
*
*    </ProfileMode>
*
*    <Battery>
*
*       <Type>alkaline</Type>
*
*       <CutOff>7.5</CutOff>
*
*    </Battery>
*
*    <DataChannels>
*
*       <ExtVolt0>yes</ExtVolt0>
*
*       <ExtVolt1>yes</ExtVolt1>
*
*       <ExtVolt2>yes</ExtVolt2>
*
*       <ExtVolt3>yes</ExtVolt3>
*
*       <ExtVolt4>yes</ExtVolt4>
*
*       <ExtVolt5>yes</ExtVolt5>
*
*       <SBE38>no</SBE38>
*
*       <WETLABS>no</WETLABS>
*
*       <OPTODE>no</OPTODE>
*
*       <SBE63>no</SBE63>
*
*       <SeaFET>no</SeaFET>
*
*       <GTD>no</GTD>
*
*    </DataChannels>
*
*    <EchoCharacters>yes</EchoCharacters>
*
*    <OutputExecutedTag>yes</OutputExecutedTag>
*
*    <OutputFormat>raw HEX</OutputFormat>
*
* </ConfigurationData>
* <CalibrationCoefficients DeviceType='SBE19plus' SerialNumber='01907809'>
*
*    <Calibration format='TEMP1' id='Main Temperature'>
*
*       <SerialNum>01907809</SerialNum>
*
*       <CalDate>09-Mar-18</CalDate>
*
*       <TA0>1.210932e-03</TA0>
*
*       <TA1>2.843566e-04</TA1>
*
*       <TA2>-1.945074e-06</TA2>
*
*       <TA3>2.128067e-07</TA3>
*
*       <TOFFSET>0.000000e+00</TOFFSET>
*
*    </Calibration>
*
*    <Calibration format='WBCOND0' id='Main Conductivity'>
*
*       <SerialNum>01907809</SerialNum>
*
*       <CalDate>09-Mar-18</CalDate>
*
*       <G>-1.006721e+00</G>
*
*       <H>1.269065e-01</H>
*
*       <I>-1.405844e-04</I>
*
*       <J>2.478371e-05</J>
*
*       <CPCOR>-9.570000e-08</CPCOR>
*
*       <CTCOR>3.250000e-06</CTCOR>
*
*       <CSLOPE>1.000000e+00</CSLOPE>
*
*    </Calibration>
*
*    <Calibration format='STRAIN0' id='Main Pressure'>
*
*       <SerialNum>10586018</SerialNum>
*
*       <CalDate>07-Mar-18</CalDate>
*
*       <PA0>-4.081764e-02</PA0>
*
*       <PA1>4.851884e-04</PA1>
*
*       <PA2>-3.511682e-12</PA2>
*
*       <PTCA0>5.252134e+05</PTCA0>
*
*       <PTCA1>1.795324e+00</PTCA1>
*
*       <PTCA2>-2.843535e-01</PTCA2>
*
*       <PTCB0>2.516687e+01</PTCB0>
*
*       <PTCB1>3.750000e-04</PTCB1>
*
*       <PTCB2>0.000000e+00</PTCB2>
*
*       <PTEMPA0>-5.378069e+01</PTEMPA0>
*
*       <PTEMPA1>5.366207e+01</PTEMPA1>
*
*       <PTEMPA2>4.872143e-02</PTEMPA2>
*
*       <POFFSET>5.000000e-01</POFFSET>
*
*       <PRANGE>1.600000e+02</PRANGE>
*
*    </Calibration>
*
*    <Calibration format='VOLT0' id='Volt 0'>
*
*       <OFFSET>-4.920000e-02</OFFSET>
*
*       <SLOPE>1.248122e+00</SLOPE>
*
*    </Calibration>
*
*    <Calibration format='VOLT0' id='Volt 1'>
*
*       <OFFSET>-4.784000e-02</OFFSET>
*
*       <SLOPE>1.248871e+00</SLOPE>
*
*    </Calibration>
*
*    <Calibration format='VOLT0' id='Volt 2'>
*
*       <OFFSET>-4.864632e-02</OFFSET>
*
*       <SLOPE>1.248714e+00</SLOPE>
*
*    </Calibration>
*
*    <Calibration format='VOLT0' id='Volt 3'>
*
*       <OFFSET>-4.743790e-02</OFFSET>
*
*       <SLOPE>1.248571e+00</SLOPE>
*
*    </Calibration>
*
*    <Calibration format='VOLT0' id='Volt 4'>
*
*       <OFFSET>-4.671263e-02</OFFSET>
*
*       <SLOPE>1.248951e+00</SLOPE>
*
*    </Calibration>
*
*    <Calibration format='VOLT0' id='Volt 5'>
*
*       <OFFSET>-4.871053e-02</OFFSET>
*
*       <SLOPE>1.249136e+00</SLOPE>
*
*    </Calibration>
*
*    <Calibration format='FREQ0' id='external frequency channel'>
*
*       <EXTFREQSF>1.000014e+00</EXTFREQSF>
*
*    </Calibration>
*
* </CalibrationCoefficients>
* <EventCounters DeviceType='SBE19plus' SerialNumber='01907809'>
*
*    <EventSummary numEvents='0'/>
*
* </EventCounters></InstrumentState>
* <Headers>
*
* cast   3 24 Sep 2018 14:42:29 samples 1828 to 2545, avg = 1, stop = mag switch
*
# nquan = 17
# nvalues = 636                         
# units = specified
# name 0 = depFM: Depth [fresh water, m]
# name 1 = tv290C: Temperature [ITS-90, deg C]
# name 2 = sbeox0Mg/L: Oxygen, SBE 43 [mg/l]
# name 3 = sbeox0PS: Oxygen, SBE 43 [% saturation]
# name 4 = c0uS/cm: Conductivity [uS/cm]
# name 5 = specc: Specific Conductance [uS/cm]
# name 6 = ph: pH
# name 7 = orp: Oxidation Reduction Potential [mV]
# name 8 = flECO-AFL: Fluorescence, WET Labs ECO-AFL/FL [mg/m^3]
# name 9 = turbWETntu0: Turbidity, WET Labs ECO [NTU]
# name 10 = sal00: Salinity, Practical [PSU]
# name 11 = dz/dtM: Descent Rate [m/s]
# name 12 = prdM: Pressure, Strain Gauge [db]
# name 13 = prdE: Pressure, Strain Gauge [psi]
# name 14 = scan: Scan Count
# name 15 = par/sat/log: PAR/Logarithmic, Satlantic
# name 16 = flag:  0.000e+00
# span 0 =     -0.490,      5.633       
# span 1 =    17.2547,    22.0608       
# span 2 =    -0.7277,     9.1058       
# span 3 =     -7.997,     99.899       
# span 4 =   0.624054,  66.498425       
# span 5 =      0.711,     78.665       
# span 6 =      6.330,      7.834       
# span 7 =   166.1435,   495.8423       
# span 8 =    -0.2224,     5.2770       
# span 9 =    -0.4660,   105.7759       
# span 10 =     0.0094,     0.0403      
# span 11 =     -0.261,      0.240      
# span 12 =     -0.479,      5.523      
# span 13 =     -0.695,      8.011      
# span 14 =          1,        636      
# span 15 = 2.0524e-01, 4.0581e+02      
# span 16 = 0.0000e+00, 0.0000e+00      
# interval = seconds: 0.25
# start_time = Sep 24 2018 14:42:29 [Instrument's time stamp, header]
# bad_flag = -9.990e-29
# <Sensors count="9" >
#   <sensor Channel="1" >
#     <!-- Count, Temperature -->
#     <TemperatureSensor SensorID="58" >
#       <SerialNumber>7809</SerialNumber>
#       <CalibrationDate>09-Mar-18</CalibrationDate>
#       <A0>1.21093245e-003</A0>
#       <A1>2.84356597e-004</A1>
#       <A2>-1.94507398e-006</A2>
#       <A3>2.12806664e-007</A3>
#       <Slope>1.00000000</Slope>
#       <Offset>0.0000</Offset>
#     </TemperatureSensor>
#   </sensor>
#   <sensor Channel="2" >
#     <!-- Frequency 0, Conductivity -->
#     <ConductivitySensor SensorID="3" >
#       <SerialNumber>7809</SerialNumber>
#       <CalibrationDate>09-Mar-18</CalibrationDate>
#       <UseG_J>1</UseG_J>
#       <!-- Cell const and series R are applicable only for wide range sensors. -->
#       <SeriesR>0.0000</SeriesR>
#       <CellConst>2000.0000</CellConst>
#       <ConductivityType>0</ConductivityType>
#       <Coefficients equation="0" >
#         <A>0.00000000e+000</A>
#         <B>0.00000000e+000</B>
#         <C>0.00000000e+000</C>
#         <D>0.00000000e+000</D>
#         <M>0.0</M>
#         <CPcor>-9.57000000e-008</CPcor>
#       </Coefficients>
#       <Coefficients equation="1" >
#         <G>-1.00672082e+000</G>
#         <H>1.26906489e-001</H>
#         <I>-1.40584351e-004</I>
#         <J>2.47837121e-005</J>
#         <CPcor>-9.57000000e-008</CPcor>
#         <CTcor>3.2500e-006</CTcor>
#         <!-- WBOTC not applicable unless ConductivityType = 1. -->
#         <WBOTC>0.00000000e+000</WBOTC>
#       </Coefficients>
#       <Slope>1.00000000</Slope>
#       <Offset>0.00000</Offset>
#     </ConductivitySensor>
#   </sensor>
#   <sensor Channel="3" >
#     <!-- Count, Pressure, Strain Gauge -->
#     <PressureSensor SensorID="46" >
#       <SerialNumber>7809</SerialNumber>
#       <CalibrationDate>07-Mar-18</CalibrationDate>
#       <PA0>-4.08176359e-002</PA0>
#       <PA1>4.85188419e-004</PA1>
#       <PA2>-3.51168169e-012</PA2>
#       <PTEMPA0>-5.37806900e+001</PTEMPA0>
#       <PTEMPA1>5.36620721e+001</PTEMPA1>
#       <PTEMPA2>4.87214332e-002</PTEMPA2>
#       <PTCA0>5.25213435e+005</PTCA0>
#       <PTCA1>1.79532409e+000</PTCA1>
#       <PTCA2>-2.84353509e-001</PTCA2>
#       <PTCB0>2.51668750e+001</PTCB0>
#       <PTCB1>3.75000000e-004</PTCB1>
#       <PTCB2>0.00000000e+000</PTCB2>
#       <Offset>0.000000</Offset>
#     </PressureSensor>
#   </sensor>
#   <sensor Channel="4" >
#     <!-- A/D voltage 0, pH -->
#     <pH_Sensor SensorID="43" >
#       <SerialNumber>0363</SerialNumber>
#       <CalibrationDate>16-Mar-18</CalibrationDate>
#       <Slope>4.6194</Slope>
#       <Offset>2.5947</Offset>
#     </pH_Sensor>
#   </sensor>
#   <sensor Channel="5" >
#     <!-- A/D voltage 1, Oxidation Reduction Potential -->
#     <OxidationReductionPotentialSensor SensorID="41" >
#       <SerialNumber>0363</SerialNumber>
#       <CalibrationDate>16-Mar-18</CalibrationDate>
#       <B>2.499480</B>
#       <M>-0.496195</M>
#       <Offset>0.0</Offset>
#     </OxidationReductionPotentialSensor>
#   </sensor>
#   <sensor Channel="6" >
#     <!-- A/D voltage 2, Oxygen, SBE 43 -->
#     <OxygenSensor SensorID="38" >
#       <SerialNumber>0434</SerialNumber>
#       <CalibrationDate>13-Mar-18</CalibrationDate>
#       <Use2007Equation>1</Use2007Equation>
#       <CalibrationCoefficients equation="0" >
#         <!-- Coefficients for Owens-Millard equation. -->
#         <Boc>0.0000</Boc>
#         <Soc>0.0000e+000</Soc>
#         <offset>0.0000</offset>
#         <Pcor>0.00e+000</Pcor>
#         <Tcor>0.0000</Tcor>
#         <Tau>0.0</Tau>
#       </CalibrationCoefficients>
#       <CalibrationCoefficients equation="1" >
#         <!-- Coefficients for Sea-Bird equation - SBE calibration in 2007 and later. -->
#         <Soc>4.5718e-001</Soc>
#         <offset>-0.6113</offset>
#         <A>-4.0649e-003</A>
#         <B> 2.0945e-004</B>
#         <C>-3.3182e-006</C>
#         <D0> 2.5826e+000</D0>
#         <D1> 1.92634e-004</D1>
#         <D2>-4.64803e-002</D2>
#         <E> 3.6000e-002</E>
#         <Tau20> 1.2200</Tau20>
#         <H1>-3.3000e-002</H1>
#         <H2> 5.0000e+003</H2>
#         <H3> 1.4500e+003</H3>
#       </CalibrationCoefficients>
#     </OxygenSensor>
#   </sensor>
#   <sensor Channel="7" >
#     <!-- A/D voltage 3, PAR/Logarithmic, Satlantic -->
#     <PARLog_SatlanticSensor SensorID="76" >
#       <SerialNumber>1122</SerialNumber>
#       <CalibrationDate>22-Jun-2017</CalibrationDate>
#       <a0>9.6090e-001</a0>
#       <a1>8.0780e-001</a1>
#       <Im>1.3589e+000</Im>
#       <Multiplier>1.0000e+000</Multiplier>
#     </PARLog_SatlanticSensor>
#   </sensor>
#   <sensor Channel="8" >
#     <!-- A/D voltage 4, Fluorometer, WET Labs ECO-AFL/FL -->
#     <FluoroWetlabECO_AFL_FL_Sensor SensorID="20" >
#       <SerialNumber>FLNTURT-2496</SerialNumber>
#       <CalibrationDate>25-Jan-2017</CalibrationDate>
#       <ScaleFactor>5.30000000e+001</ScaleFactor>
#       <!-- Dark output -->
#       <Vblank>0.0560</Vblank>
#     </FluoroWetlabECO_AFL_FL_Sensor>
#   </sensor>
#   <sensor Channel="9" >
#     <!-- A/D voltage 5, Turbidity Meter, WET Labs, ECO-NTU -->
#     <TurbidityMeter SensorID="67" >
#       <SerialNumber>FLNTURT-2496</SerialNumber>
#       <CalibrationDate>25-Jan-2017</CalibrationDate>
#       <ScaleFactor>176.000000</ScaleFactor>
#       <!-- Dark output -->
#       <DarkVoltage>0.072000</DarkVoltage>
#     </TurbidityMeter>
#   </sensor>
# </Sensors>
# datcnv_date = Sep 24 2018 16:53:16, 7.26.7.114 [datcnv_vars = 16]
# datcnv_in = C:\DATA\092418_fcr30.hex C:\DATA\SBE19plusV2_7809.xmlcon
# datcnv_skipover = 0
# datcnv_ox_hysteresis_correction = yes
# datcnv_ox_tau_correction = yes
# filter_date = Sep 24 2018 16:53:35, 7.26.7.114
# filter_in = C:\DATA\092418_fcr30.cnv
# filter_low_pass_tc_A = 0.030
# filter_low_pass_tc_B = 0.150
# filter_low_pass_A_vars = tv290C c0uS/cm par/sat/log
# filter_low_pass_B_vars = prdM prdE
# alignctd_date = Sep 24 2018 16:53:51, 7.26.7.114
# alignctd_in = C:\DATA\092418_fcr30.cnv
# alignctd_adv = tv290C 0.500, sbeox0Mg/L 3.000, sbeox0PS 3.000                                                                                                                                                                      
# file_type = ascii
*END*
     -0.489    18.7024     9.0933     97.439   0.624054      0.711      6.370   465.4430    -0.1779     0.0577     0.0094 -2.105e-16     -0.479     -0.695          1 1.5936e+02 0.0000e+00
     -0.489    18.7037     9.0939     97.446   0.675543      0.774      6.374   439.6622    -0.1860    -0.0497     0.0094 -4.211e-16     -0.479     -0.695          2 1.5181e+02 0.0000e+00
     -0.489    18.7051     9.0945     97.450   0.673671      0.774      6.420   281.8731    -0.2021    -0.0497     0.0094     -0.000     -0.479     -0.695          3 1.3280e+02 0.0000e+00
     -0.489    18.7052     9.0936     97.438   0.685599      0.774      6.416   352.8555    -0.1981    -0.1706     0.0094     -0.000     -0.479     -0.695          4 1.1952e+02 0.0000e+00
     -0.488    18.7025     9.0970     97.472   0.749520      0.870      6.330   495.8423    -0.1698    -0.1974     0.0094     -0.000     -0.479     -0.695          5 1.1544e+02 0.0000e+00
     -0.488    18.7004     9.0972     97.472   0.742157      0.838      6.364   382.8384    -0.1941    -0.1706     0.0094      0.000     -0.479     -0.695          6 1.3478e+02 0.0000e+00
     -0.490    18.7006     9.0986     97.485   0.931619      1.062      6.389   377.0841    -0.1738    -0.2243     0.0094     -0.000     -0.479     -0.695          7 1.3762e+02 0.0000e+00
     -0.489    18.7012     9.1024     97.524   1.194706      1.381      6.386   375.4563    -0.1577    -0.2377     0.0094     -0.000     -0.479     -0.695          8 1.3748e+02 0.0000e+00
     -0.488    18.7008     9.1058     97.559   1.214151      1.381      6.377   413.0107    -0.1779    -0.1974     0.0094      0.000     -0.479     -0.694          9 1.5299e+02 0.0000e+00
     -0.488    18.7005     9.1014     97.510   1.144281      1.317      6.375   399.7985    -0.2021    -0.2914     0.0094      0.000     -0.479     -0.694         10 1.7019e+02 0.0000e+00
     -0.489    18.7002     9.0998     97.491   1.104013      1.253      6.374   415.2821    -0.2183    -0.3452     0.0094      0.000     -0.479     -0.695         11 1.7539e+02 0.0000e+00
     -0.488    18.6999     9.0600     97.494   1.145832      1.317      6.375   415.3200    -0.1738    -0.1974     0.0094      0.000     -0.479     -0.695         12 1.6316e+02 0.0000e+00
     -0.488    18.6988     8.9278     97.630   1.269884      1.445      6.378   416.4935    -0.1860    -0.2512     0.0095      0.000     -0.479     -0.695         13 1.6117e+02 0.0000e+00
     -0.489    18.6980     8.8199     97.682   1.393751      1.604      6.377   421.1500    -0.1698    -0.2243     0.0095      0.000     -0.479     -0.695         14 1.6650e+02 0.0000e+00
     -0.488    18.6960     8.7455     97.677   1.406193      1.604      6.376   422.9671    -0.2021    -0.2512     0.0095      0.000     -0.479     -0.695         15 1.7744e+02 0.0000e+00
     -0.488    18.6961     8.6906     97.758   1.402440      1.604      6.379   422.8536    -0.1658    -0.1974     0.0095      0.000     -0.479     -0.695         16 1.9152e+02 0.0000e+00
     -0.489    18.6927     8.6442     97.828   1.516854      1.732      6.377   438.8672    -0.1698    -0.2109     0.0095     -0.000     -0.479     -0.695         17 2.0014e+02 0.0000e+00
     -0.488    18.6955     8.6248     97.961   1.441455      1.668      6.371   342.4826    -0.2021    -0.2377     0.0095      0.000     -0.479     -0.694         18 1.9799e+02 0.0000e+00
     -0.488    18.6891     8.6228     98.116   1.496271      1.668      6.373   339.5676    -0.1900    -0.1437     0.0095      0.000     -0.479     -0.694         19 2.0528e+02 0.0000e+00
     -0.488    18.6982     8.6559     98.584   1.359811      1.637      6.371   339.1890    -0.1738    -0.2914     0.0095      0.000     -0.479     -0.694         20 2.3153e+02 0.0000e+00
     -0.489    18.6816     8.7414     99.631   1.374414      1.445      6.374   336.6526    -0.2102    -0.2109     0.0095     -0.000     -0.478     -0.693         21 2.5853e+02 0.0000e+00
     -0.488    18.9360     8.7596     99.899   1.152410      1.509      6.377   338.5076    -0.2102    -0.2646     0.0095      0.000     -0.473     -0.685         22 3.0653e+02 0.0000e+00
     -0.472    19.6859     8.6398     98.569   3.471864      3.552      6.472   342.9748    -0.1658    -0.1974     0.0099      0.004     -0.448     -0.650         23 3.4697e+02 0.0000e+00
     -0.409    20.3503     8.3656     95.443  17.917904     20.254      6.889   254.7674    -0.1819    -0.2512     0.0159      0.024     -0.396     -0.574         24 3.7035e+02 0.0000e+00
     -0.332    20.7668     8.0144     91.461  32.416365     36.950      7.433   259.7267    -0.1981    -0.4123     0.0229      0.058     -0.327     -0.474         25 3.9147e+02 0.0000e+00
     -0.258    21.1399     7.6240     87.019  33.884016     36.953      7.743   264.8374    -0.2224    -0.3989     0.0231      0.102     -0.258     -0.374         26 4.0581e+02 0.0000e+00
     -0.199    21.4427     7.2298     82.510  33.521928     36.851      7.834   247.0066    -0.1900    -0.4660     0.0232      0.146     -0.196     -0.284         27 4.0066e+02 0.0000e+00
     -0.141    21.6350     6.8162     77.788  34.141934     36.864      7.826   237.2016    -0.1860    -0.3989     0.0233      0.187     -0.139     -0.201         28 3.5099e+02 0.0000e+00
     -0.084    21.7254     6.4916     74.104  33.912958     36.586      7.791   237.0502    -0.1819    -0.4391     0.0233      0.220     -0.085     -0.123         29 3.3278e+02 0.0000e+00
     -0.037    21.7769     6.2453     71.310  34.043994     36.440      7.764   238.4887     2.3736     3.5221     0.0233      0.238     -0.036     -0.053         30 3.1143e+02 0.0000e+00
      0.011    21.8129     6.0869     69.503  33.949116     36.367      7.730   239.7759     2.3817     3.5355     0.0233      0.240      0.008      0.011         31 2.9082e+02 0.0000e+00
      0.048    21.8462     5.9855     68.340  33.912361     36.210      7.707   225.6551     2.3736     3.5892     0.0233      0.223      0.044      0.064         32 2.6077e+02 0.0000e+00
      0.076    21.8632     5.9199     67.589  33.852464     36.181      7.676   225.6930     2.4060     3.5490     0.0233      0.201      0.075      0.109         33 1.5991e+02 0.0000e+00
      0.107    21.8668     5.8618     66.925  33.875362     36.126      7.641   240.4952     2.9762     2.2599     0.0232      0.180      0.105      0.152         34 1.3307e+02 0.0000e+00
      0.139    21.8789     5.8328     66.591  33.913507     36.201      7.566   241.7823     2.9600     2.3404     0.0233      0.163      0.129      0.188         35 1.4523e+02 0.0000e+00
      0.147    21.8877     5.8137     66.378  33.893950     36.141      7.520   241.3659     2.9600     2.3404     0.0233      0.142      0.143      0.209         36 1.3825e+02 0.0000e+00
      0.153    21.8812     5.7875     66.083  33.929351     36.190      7.484   239.7380     2.9721     2.2599     0.0233      0.119      0.158      0.230         37 1.4221e+02 0.0000e+00
      0.186    21.8808     5.7773     65.963  33.988069     36.243      7.476   223.7244     2.9195     2.1793     0.0233      0.103      0.186      0.270         38 1.1885e+02 0.0000e+00
      0.231    21.8944     5.7881     66.067  33.880185     36.129      7.455   222.8915     2.9195     2.3404     0.0233      0.097      0.221      0.320         39 1.0719e+02 0.0000e+00
      0.257    21.9070     5.8029     66.229  33.737400     35.980      7.431   222.1723     2.8953     2.1927     0.0232      0.097      0.245      0.355         40 1.0588e+02 0.0000e+00
      0.262    21.9086     5.8289     66.532  33.631964     35.850      7.400   223.9516     2.8831     2.2464     0.0231      0.093      0.251      0.365         41 1.0517e+02 0.0000e+00
      0.250    21.9051     5.8613     66.897  33.744498     35.960      7.386   240.8737     2.9357     2.1927     0.0232      0.081      0.245      0.357         42 1.1641e+02 0.0000e+00
      0.241    21.9032     5.8825     67.128  33.864249     36.108      7.380   226.1851     2.8791     2.0719     0.0233      0.066      0.240      0.348         43 1.1246e+02 0.0000e+00
      0.244    21.9024     5.8861     67.180  33.898110     36.110      7.381   226.1473     2.8831     2.1927     0.0233      0.053      0.240      0.348         44 1.1356e+02 0.0000e+00
      0.247    21.9014     5.8798     67.122  33.909946     36.171      7.379   226.1473     2.8953     2.1390     0.0233      0.037      0.241      0.349         45 1.1828e+02 0.0000e+00
      0.244    21.9038     5.8471     66.760  33.879174     36.082      7.357   224.7466     2.7012     2.1390     0.0232      0.015      0.239      0.346         46 1.1702e+02 0.0000e+00
      0.240    21.9078     5.8184     66.436  33.906750     36.173      7.347   224.3301     2.7214     2.2062     0.0233     -0.003      0.238      0.345         47 1.1692e+02 0.0000e+00
      0.244    21.9041     5.7895     66.107  33.905284     36.111      7.348   223.8001     2.7012     2.0719     0.0233     -0.008      0.246      0.356         48 1.1062e+02 0.0000e+00
      0.267    21.8900     5.7621     65.777  33.969964     36.228      7.350   223.9894     2.7093     2.1793     0.0233     -0.000      0.267      0.386         49 1.0576e+02 0.0000e+00
      0.305    21.8844     5.7266     65.369  33.885568     36.110      7.334   224.7466     2.6931     2.1256     0.0233      0.019      0.294      0.426         50 9.9724e+01 0.0000e+00
      0.324    21.8891     5.6925     64.983  33.743416     35.974      7.315   224.6330     2.8104     2.3136     0.0232      0.037      0.317      0.460         51 9.9127e+01 0.0000e+00
      0.340    21.8842     5.6571     64.575  33.850320     36.096      7.306   225.2008     2.8225     2.3136     0.0232      0.050      0.337      0.490         52 9.5911e+01 0.0000e+00
      0.370    21.8778     5.6513     64.508  33.930464     36.182      7.299   226.3366     2.8346     2.2196     0.0233      0.066      0.362      0.525         53 9.2150e+01 0.0000e+00
      0.397    21.8848     5.6614     64.624  33.880923     36.126      7.272   226.0716     2.8225     2.2062     0.0233      0.082      0.383      0.556         54 9.3818e+01 0.0000e+00
      0.404    21.8966     5.6795     64.823  33.823008     36.073      7.260   226.4123     2.9600     2.3941     0.0232      0.089      0.394      0.572         55 9.0457e+01 0.0000e+00
      0.407    21.9035     5.6987     65.024  33.883917     36.125      7.253   227.4344     3.0166     2.3673     0.0233      0.084      0.397      0.576         56 9.1737e+01 0.0000e+00
      0.403    21.9079     5.7272     65.294  33.983053     36.237      7.250   227.5858     2.9398     2.2330     0.0233      0.070      0.397      0.575         57 9.1082e+01 0.0000e+00
      0.405    21.9072     5.7680     65.742  34.025840     36.260      7.245   227.8130     2.9559     2.2464     0.0233      0.052      0.398      0.576         58 8.9210e+01 0.0000e+00
      0.409    21.8963     5.7964     66.081  34.038255     36.288      7.240   227.6616     2.8508     2.2599     0.0233      0.040      0.399      0.579         59 9.0478e+01 0.0000e+00
      0.408    21.8924     5.8230     66.404  33.997259     36.227      7.236   228.2294     2.8589     2.3807     0.0233      0.026      0.397      0.577         60 9.3865e+01 0.0000e+00
      0.400    21.8955     5.8576     66.813  33.928583     36.177      7.237   228.6080     2.8468     2.2330     0.0233      0.010      0.389      0.565         61 9.8551e+01 0.0000e+00
      0.383    21.8923     5.8636     66.888  33.886479     36.120      7.235   228.9109     2.8427     2.3136     0.0233     -0.004      0.375      0.543         62 9.9815e+01 0.0000e+00
      0.364    21.8924     5.8717     66.987  33.990348     36.237      7.230   229.8194     2.7821     2.1390     0.0233     -0.015      0.358      0.519         63 1.0436e+02 0.0000e+00
      0.348    21.8915     5.8605     66.861  34.066220     36.328      7.225   229.2894     2.7659     2.2196     0.0233     -0.026      0.346      0.502         64 1.0913e+02 0.0000e+00
      0.348    21.8874     5.8263     66.468  34.058958     36.299      7.219   230.1601     2.7821     2.1927     0.0233     -0.033      0.342      0.496         65 1.0113e+02 0.0000e+00
      0.355    21.8698     5.7849     65.996  33.910418     36.180      7.204   231.2201     2.7659     2.1927     0.0233     -0.035      0.333      0.483         66 1.0784e+02 0.0000e+00
      0.312    21.8300     5.7391     65.477  33.717275     35.916      7.193   230.5009     2.8063     2.0987     0.0232     -0.045      0.301      0.437         67 1.0704e+02 0.0000e+00
      0.254    21.8143     5.6809     64.822  33.795180     36.076      7.173   231.7880     2.8387     2.2062     0.0232     -0.062      0.258      0.376         68 1.0475e+02 0.0000e+00
      0.228    21.8271     5.6276     64.218  33.902441     36.170      7.163   231.5987     2.8508     2.1390     0.0233     -0.077      0.232      0.336         69 1.3019e+02 0.0000e+00
      0.225    21.8418     5.5868     63.739  33.998981     36.329      7.162   231.8637     2.8468     2.2062     0.0233     -0.083      0.228      0.330         70 1.2337e+02 0.0000e+00
      0.243    21.8534     5.5397     63.190  34.060568     36.350      7.159   232.5073     2.8023     2.0719     0.0233     -0.078      0.239      0.347         71 1.0960e+02 0.0000e+00
      0.261    21.8585     5.4882     62.603  34.033384     36.338      7.157   232.8480     2.8993     2.1524     0.0233     -0.066      0.255      0.370         72 1.0392e+02 0.0000e+00
      0.276    21.8629     5.4367     62.026  33.943837     36.210      7.150   233.7944     2.9317     2.2196     0.0233     -0.048      0.268      0.389         73 9.6239e+01 0.0000e+00
      0.282    21.8645     5.3969     61.582  33.816135     36.087      7.141   233.7187     2.9115     2.0853     0.0232     -0.024      0.277      0.402         74 9.7771e+01 0.0000e+00
      0.290    21.8625     5.3686     61.253  33.836437     36.083      7.138   233.3023     2.9155     2.0987     0.0232      0.008      0.285      0.414         75 9.2205e+01 0.0000e+00
      0.301    21.8622     5.3626     61.162  33.948225     36.231      7.133   233.9459     3.0085     2.3136     0.0233      0.034      0.294      0.426         76 9.2854e+01 0.0000e+00
      0.307    21.8652     5.3523     61.048  34.003227     36.263      7.124   234.6273     3.0247     2.2599     0.0233      0.043      0.299      0.435         77 9.8893e+01 0.0000e+00
      0.308    21.8725     5.3388     60.902  34.153512     36.442      7.123   234.6652     3.0206     2.2867     0.0234      0.040      0.303      0.440         78 9.9902e+01 0.0000e+00
      0.314    21.8754     5.3228     60.722  34.354316     36.648      7.128   235.0437     3.0328     2.2733     0.0235      0.033      0.308      0.447         79 9.9848e+01 0.0000e+00
      0.322    21.8655     5.3072     60.541  34.465074     36.762      7.129   235.4223     2.9600     2.0853     0.0235      0.028      0.314      0.455         80 9.7905e+01 0.0000e+00
      0.324    21.8553     5.2742     60.160  34.490173     36.789      7.123   236.4823     2.9762     2.0182     0.0235      0.024      0.316      0.458         81 9.8098e+01 0.0000e+00
      0.320    21.8561     5.2472     59.847  34.471363     36.767      7.107   236.6716     2.9519     2.1659     0.0235      0.020      0.312      0.452         82 9.8991e+01 0.0000e+00
      0.310    21.8642     5.2150     59.474  34.458831     36.775      7.094   236.8987     2.9883     2.0316     0.0235      0.012      0.304      0.442         83 1.0030e+02 0.0000e+00
      0.302    21.8730     5.1890     59.170  34.476115     36.774      7.098   236.6337     2.8427     2.1256     0.0235      0.003      0.298      0.433         84 1.0127e+02 0.0000e+00
      0.302    21.8666     5.1711     58.962  34.627791     36.947      7.103   237.2016     2.8225     2.1659     0.0236     -0.003      0.297      0.431         85 1.0111e+02 0.0000e+00
      0.306    21.8499     5.1597     58.829  34.625949     36.940      7.107   238.2616     2.8225     2.1390     0.0236     -0.006      0.298      0.432         86 1.0057e+02 0.0000e+00
      0.302    21.8508     5.1534     58.751  34.448748     36.735      7.102   238.3752     2.8225     2.1122     0.0235     -0.010      0.294      0.427         87 1.0339e+02 0.0000e+00
      0.293    21.8585     5.1478     58.678  34.344155     36.661      7.101   238.4509     2.9357     2.0853     0.0235     -0.014      0.287      0.417         88 1.0744e+02 0.0000e+00
      0.285    21.8598     5.1360     58.535  34.311273     36.599      7.100   238.7537     2.9115     2.1390     0.0234     -0.016      0.281      0.408         89 1.0680e+02 0.0000e+00
      0.282    21.8585     5.1210     58.357  34.341390     36.653      7.100   239.6623     2.8831     2.1793     0.0235     -0.016      0.278      0.403         90 1.0642e+02 0.0000e+00
      0.282    21.8547     5.1024     58.137  34.306672     36.592      7.099   239.2837     2.8993     2.1256     0.0234     -0.014      0.277      0.402         91 1.0492e+02 0.0000e+00
      0.282    21.8500     5.0790     57.864  34.295166     36.594      7.096   239.7002     2.9034     2.1390     0.0234     -0.013      0.276      0.401         92 1.0397e+02 0.0000e+00
      0.280    21.8443     5.0442     57.459  34.296397     36.596      7.093   239.8137     2.9034     2.2196     0.0234     -0.013      0.275      0.398         93 1.0557e+02 0.0000e+00
      0.278    21.8383     5.0120     57.086  34.305142     36.600      7.093   239.8137     2.8953     2.0987     0.0234     -0.013      0.274      0.397         94 1.0891e+02 0.0000e+00
      0.280    21.8346     4.9850     56.770  34.402912     36.724      7.088   240.1166     2.9276     2.0719     0.0235     -0.009      0.275      0.398         95 1.0796e+02 0.0000e+00
      0.281    21.8321     4.9543     56.412  34.411977     36.729      7.088   240.6087     2.8993     2.1390     0.0235     -0.005      0.275      0.399         96 1.0757e+02 0.0000e+00
      0.280    21.8265     4.9250     56.072  34.412488     36.732      7.084   241.3659     3.0409     2.0987     0.0235     -0.002      0.274      0.398         97 1.0891e+02 0.0000e+00
      0.279    21.8186     4.8928     55.698  34.402278     36.733      7.073   241.2523     3.0409     2.2062     0.0235     -0.001      0.273      0.396         98 1.0540e+02 0.0000e+00
      0.276    21.8112     4.8660     55.385  34.335715     36.648      7.062   241.6309     3.0489     2.1659     0.0235     -0.002      0.272      0.394         99 1.0553e+02 0.0000e+00
      0.277    21.8044     4.8380     55.060  34.287732     36.625      7.061   242.0095     3.0409     2.1524     0.0234     -0.002      0.272      0.394        100 1.0593e+02 0.0000e+00
      0.278    21.7978     4.8222     54.875  34.224747     36.541      7.061   242.2745     2.9721     2.1524     0.0234     -0.002      0.272      0.395        101 1.0542e+02 0.0000e+00
      0.278    21.7916     4.8000     54.616  34.206511     36.546      7.061   242.3123     2.9883     2.0987     0.0234     -0.001      0.272      0.395        102 1.0751e+02 0.0000e+00
      0.277    21.7851     4.7738     54.312  34.162149     36.492      7.060   242.1987     2.9721     2.1659     0.0234     -0.002      0.272      0.394        103 1.0907e+02 0.0000e+00
      0.277    21.7779     4.7494     54.029  34.161332     36.497      7.058   242.5773     2.9478     2.0987     0.0234     -0.002      0.272      0.394        104 1.1051e+02 0.0000e+00
      0.277    21.7706     4.7308     53.810  34.237185     36.591      7.056   242.6530     2.9276     2.1793     0.0234     -0.001      0.272      0.394        105 1.0762e+02 0.0000e+00
      0.277    21.7635     4.7093     53.559  34.216035     36.567      7.055   242.9180     2.9074     2.1793     0.0234     -0.000      0.272      0.394        106 1.0737e+02 0.0000e+00
      0.277    21.7573     4.6852     53.278  34.158003     36.513      7.056   243.5238     2.9276     2.0584     0.0234      0.000      0.271      0.393        107 1.0985e+02 0.0000e+00
      0.275    21.7511     4.6601     52.988  34.161130     36.518      7.049   243.8645     2.8710     2.0182     0.0234     -0.001      0.271      0.392        108 1.1006e+02 0.0000e+00
      0.275    21.7439     4.6417     52.774  34.152834     36.523      7.050   244.0159     2.9802     2.1256     0.0234     -0.001      0.271      0.392        109 1.0728e+02 0.0000e+00
      0.278    21.7375     4.6249     52.578  34.168330     36.528      7.047   244.6973     2.9842     2.1659     0.0234     -0.001      0.272      0.395        110 1.0423e+02 0.0000e+00
      0.279    21.7319     4.6012     52.303  34.171504     36.564      7.039   244.9623     2.9802     2.1793     0.0234      0.000      0.274      0.397        111 1.0538e+02 0.0000e+00
      0.279    21.7260     4.5838     52.099  34.119230     36.479      7.033   244.8488     2.9600     2.0719     0.0234      0.001      0.274      0.397        112 1.0575e+02 0.0000e+00
      0.279    21.7204     4.5633     51.861  34.144420     36.543      7.030   244.9623     2.9640     2.1927     0.0234      0.001      0.274      0.397        113 1.0484e+02 0.0000e+00
      0.278    21.7147     4.5443     51.638  34.110503     36.488      7.031   245.4923     2.9559     2.1659     0.0234      0.002      0.273      0.396        114 1.0404e+02 0.0000e+00
      0.278    21.7084     4.5281     51.449  34.042818     36.433      7.029   245.4166     2.9640     2.1659     0.0233      0.001      0.272      0.395        115 1.0583e+02 0.0000e+00
      0.278    21.7021     4.5086     51.227  34.080376     36.467      7.027   245.7952     2.9559     2.1256     0.0233      0.001      0.272      0.395        116 1.0535e+02 0.0000e+00
      0.278    21.6957     4.4891     51.008  34.093422     36.502      7.023   245.6816     2.9721     2.0719     0.0234      0.001      0.273      0.396        117 1.0627e+02 0.0000e+00
      0.278    21.6908     4.4762     50.863  34.056240     36.447      7.022   246.6280     2.9034     2.0987     0.0233     -0.000      0.273      0.396        118 1.0553e+02 0.0000e+00
      0.278    21.6869     4.4573     50.647  34.037682     36.452      7.022   246.4766     2.8993     2.1390     0.0233     -0.001      0.273      0.396        119 1.0630e+02 0.0000e+00
      0.278    21.6816     4.4407     50.454  33.997898     36.396      7.016   246.5902     2.9195     2.1659     0.0233     -0.000      0.273      0.395        120 1.0863e+02 0.0000e+00
      0.278    21.6757     4.4218     50.235  33.987130     36.399      7.016   246.6659     2.8912     2.1659     0.0233     -0.000      0.273      0.395        121 1.0561e+02 0.0000e+00
      0.279    21.6700     4.3979     49.961  34.021428     36.433      7.015   247.0823     2.9034     2.1256     0.0233      0.000      0.274      0.396        122 1.0573e+02 0.0000e+00
      0.280    21.6642     4.3742     49.688  33.984873     36.408      7.014   247.4609     2.8751     2.0719     0.0233      0.001      0.275      0.398        123 1.0477e+02 0.0000e+00
      0.281    21.6582     4.3577     49.493  33.943659     36.352      7.015   247.6123     2.9398     2.0316     0.0233      0.001      0.276      0.400        124 1.0465e+02 0.0000e+00
      0.282    21.6536     4.3360     49.237  33.983753     36.416      7.014   247.6123     2.9034     2.1256     0.0233      0.002      0.277      0.402        125 1.0484e+02 0.0000e+00
      0.283    21.6520     4.3194     49.039  33.934977     36.361      7.012   248.4073     3.0894     2.1122     0.0233      0.003      0.277      0.402        126 1.0249e+02 0.0000e+00
      0.282    21.6540     4.3035     48.849  33.885741     36.305      7.007   248.8995     3.0894     2.2599     0.0233      0.003      0.276      0.401        127 1.0352e+02 0.0000e+00
      0.280    21.6563     4.2916     48.701  33.896752     36.336      6.996   249.2402     3.1015     2.1122     0.0233      0.002      0.275      0.399        128 1.0388e+02 0.0000e+00
      0.279    21.6551     4.2785     48.536  33.891619     36.305      6.988   248.8995     3.1015     2.2330     0.0233      0.001      0.275      0.398        129 1.0396e+02 0.0000e+00
      0.279    21.6509     4.2680     48.396  33.921784     36.363      6.986   248.7481     2.8831     2.0987     0.0233     -0.000      0.275      0.398        130 1.0648e+02 0.0000e+00
      0.281    21.6469     4.2535     48.206  33.888868     36.304      6.988   249.1645     2.8953     2.1793     0.0233     -0.001      0.276      0.399        131 1.0592e+02 0.0000e+00
      0.281    21.6441     4.2412     48.041  33.873272     36.307      6.988   249.1645     2.8791     2.1927     0.0233     -0.001      0.276      0.399        132 1.0504e+02 0.0000e+00
      0.280    21.6397     4.2324     47.916  33.881882     36.310      6.990   249.5052     2.9155     2.0719     0.0233     -0.001      0.275      0.399        133 1.0572e+02 0.0000e+00
      0.280    21.6321     4.2139     47.683  33.848499     36.282      6.988   249.5809     3.0166     2.3404     0.0232     -0.001      0.275      0.399        134 1.0711e+02 0.0000e+00
      0.281    21.6221     4.2001     47.508  33.825852     36.256      6.987   249.2402     3.0247     2.3270     0.0232     -0.000      0.276      0.400        135 1.0702e+02 0.0000e+00
      0.282    21.6117     4.1910     47.393  33.821100     36.262      6.987   249.3916     3.0409     2.1793     0.0232      0.001      0.277      0.401        136 1.0523e+02 0.0000e+00
      0.284    21.6018     4.1865     47.329  33.824760     36.270      6.987   249.6188     3.0328     2.2599     0.0232      0.002      0.277      0.402        137 1.0346e+02 0.0000e+00
      0.283    21.5888     4.1760     47.190  33.821304     36.278      6.983   249.8459     3.0368     2.2867     0.0232      0.002      0.277      0.402        138 1.0467e+02 0.0000e+00
      0.282    21.5709     4.1704     47.106  33.825407     36.285      6.977   249.8838     2.9964     2.1256     0.0232      0.001      0.276      0.401        139 1.0609e+02 0.0000e+00
      0.281    21.5488     4.1591     46.962  33.790003     36.266      6.967   249.6945     2.9519     2.1659     0.0232      0.001      0.276      0.400        140 1.0621e+02 0.0000e+00
      0.281    21.5221     4.1531     46.881  33.746747     36.220      6.962   250.3759     2.9883     2.1927     0.0232      0.001      0.276      0.400        141 1.0519e+02 0.0000e+00
      0.281    21.4940     4.1462     46.790  33.730969     36.237      6.955   250.0352     2.9842     2.2330     0.0232      0.000      0.276      0.400        142 1.0410e+02 0.0000e+00
      0.281    21.4669     4.1347     46.647  33.750339     36.258      6.952   250.5273     2.9276     2.1390     0.0232     -0.001      0.276      0.400        143 1.0542e+02 0.0000e+00
      0.281    21.4409     4.1225     46.496  33.722654     36.279      6.946   251.2088     2.8831     2.1122     0.0232     -0.001      0.276      0.400        144 1.0706e+02 0.0000e+00
      0.281    21.4213     4.1167     46.417  33.706125     36.240      6.944   250.5273     2.8912     2.1122     0.0232     -0.001      0.276      0.400        145 1.0637e+02 0.0000e+00
      0.282    21.4078     4.1013     46.229  33.770922     36.381      6.946   250.6788     2.8993     2.1256     0.0232     -0.001      0.277      0.401        146 1.0249e+02 0.0000e+00
      0.283    21.3928     4.1014     46.215  33.701338     36.276      6.948   251.2466     3.0449     2.1390     0.0232      0.001      0.277      0.402        147 1.0148e+02 0.0000e+00
      0.283    21.3713     4.0985     46.167  33.674108     36.287      6.947   251.2466     3.0247     2.0987     0.0232      0.001      0.276      0.401        148 1.0434e+02 0.0000e+00
      0.280    21.3489     4.0945     46.100  33.686194     36.298      6.940   251.2466     3.0328     2.1524     0.0232      0.000      0.275      0.399        149 1.0437e+02 0.0000e+00
      0.279    21.3308     4.0953     46.084  33.626995     36.255      6.929   251.0573     3.0409     2.1390     0.0232     -0.000      0.274      0.398        150 1.0158e+02 0.0000e+00
      0.280    21.3159     4.0982     46.093  33.629169     36.272      6.917   251.0952     2.9559     2.1122     0.0232     -0.001      0.274      0.398        151 1.0375e+02 0.0000e+00
      0.281    21.3021     4.1099     46.201  33.683497     36.347      6.908   251.0952     2.9883     2.1256     0.0232     -0.001      0.275      0.399        152 1.0521e+02 0.0000e+00
      0.281    21.2877     4.1211     46.306  33.678015     36.359      6.907   251.2845     2.9600     2.1390     0.0232     -0.001      0.276      0.400        153 1.0474e+02 0.0000e+00
      0.281    21.2727     4.1370     46.467  33.636000     36.309      6.902   251.7766     2.9721     2.1390     0.0232     -0.001      0.276      0.400        154 1.0475e+02 0.0000e+00
      0.281    21.2580     4.1502     46.597  33.676480     36.381      6.899   252.2309     2.9883     2.1659     0.0232     -0.001      0.276      0.400        155 1.0314e+02 0.0000e+00
      0.281    21.2424     4.1652     46.750  33.627645     36.332      6.892   252.3823     2.9721     2.1390     0.0232      0.000      0.276      0.400        156 1.0337e+02 0.0000e+00
      0.281    21.2257     4.1942     47.064  33.637470     36.344      6.886   252.8745     2.9721     2.1390     0.0232      0.001      0.275      0.399        157 1.0215e+02 0.0000e+00
      0.281    21.2072     4.1985     47.103  33.664259     36.416      6.877   252.3066     2.9559     2.1659     0.0232      0.001      0.275      0.399        158 9.9017e+01 0.0000e+00
      0.281    21.1836     4.2057     47.178  33.653625     36.369      6.886   252.0795     2.9762     2.1524     0.0232      0.000      0.275      0.399        159 1.0083e+02 0.0000e+00
      0.280    21.1559     4.2115     47.237  33.650713     36.444      6.897   252.5716     3.0328     2.3136     0.0232     -0.000      0.275      0.399        160 1.0187e+02 0.0000e+00
      0.280    21.1291     4.2114     47.231  33.608581     36.342      6.899   252.4202     3.0611     2.3673     0.0231     -0.001      0.275      0.399        161 1.0302e+02 0.0000e+00
      0.281    21.1039     4.2067     47.172  33.646757     36.485      6.905   252.6095     3.0085     2.2464     0.0232     -0.000      0.276      0.400        162 1.0456e+02 0.0000e+00
      0.282    21.0808     4.2112     47.217  33.662527     36.445      6.919   252.5716     3.0206     2.2196     0.0232      0.000      0.277      0.402        163 1.0348e+02 0.0000e+00
      0.282    21.0601     4.2084     47.183  33.707589     36.587      6.919   253.4045     3.0287     2.1524     0.0232      0.001      0.277      0.402        164 1.0542e+02 0.0000e+00
      0.282    21.0406     4.2040     47.136  33.709309     36.544      6.911   253.5938     3.0489     2.2599     0.0232      0.001      0.277      0.401        165 1.0653e+02 0.0000e+00
      0.281    21.0241     4.2005     47.099  33.660396     36.561      6.909   253.6695     3.0409     2.2599     0.0232      0.001      0.276      0.400        166 1.0505e+02 0.0000e+00
      0.279    21.0108     4.1922     47.008  33.649849     36.515      6.902   253.4802     3.0085     2.1927     0.0232      0.000      0.274      0.398        167 1.0194e+02 0.0000e+00
      0.279    21.0009     4.1844     46.922  33.663134     36.589      6.899   253.2909     3.1743     2.2867     0.0232     -0.000      0.274      0.397        168 1.0376e+02 0.0000e+00
      0.279    20.9942     4.1730     46.796  33.643872     36.539      6.900   253.0638     3.1864     2.3002     0.0232     -0.001      0.274      0.397        169 1.0656e+02 0.0000e+00
      0.279    20.9893     4.1679     46.747  33.673827     36.608      6.903   253.5938     3.1783     2.3270     0.0232     -0.002      0.274      0.398        170 1.0700e+02 0.0000e+00
      0.280    20.9839     4.1506     46.726  33.685170     36.613      6.898   254.0859     3.1702     2.3270     0.0232     -0.002      0.274      0.398        171 1.0900e+02 0.0000e+00
      0.280    20.9765     4.2042     47.653  33.629758     36.556      6.889   254.3131     3.1986     2.0182     0.0232     -0.001      0.273      0.397        172 1.0849e+02 0.0000e+00
      0.276    20.9701     4.4466     50.630  33.624168     36.560      6.878   254.1616     3.1622     2.1659     0.0232     -0.002      0.271      0.393        173 1.0973e+02 0.0000e+00
      0.274    20.9684     4.8419     55.263  33.632819     36.566      6.872   254.2752     3.1500     2.1256     0.0232     -0.002      0.270      0.391        174 1.1306e+02 0.0000e+00
      0.274    20.9694     5.3322     60.936  33.678305     36.632      6.872   254.3131     3.1622     2.2330     0.0232     -0.003      0.270      0.391        175 1.1219e+02 0.0000e+00
      0.276    20.9726     5.7841     66.147  33.626875     36.573      6.884   254.5024     3.0328     2.1927     0.0232     -0.003      0.271      0.392        176 1.1229e+02 0.0000e+00
      0.277    20.9740     6.1841     70.750  33.578203     36.511      6.895   254.6538     3.0449     2.1122     0.0231     -0.002      0.272      0.394        177 1.1294e+02 0.0000e+00
      0.277    20.9777     6.5189     74.596  33.620255     36.570      6.907   254.6538     3.0206     2.1122     0.0232     -0.002      0.272      0.394        178 1.1021e+02 0.0000e+00
      0.277    20.9764     6.7505     77.254  33.693162     36.629      6.908   254.9188     3.0247     2.1256     0.0232     -0.001      0.272      0.394        179 1.1153e+02 0.0000e+00
      0.277    20.9901     6.8729     78.659  33.606091     36.566      6.902   254.5781     3.0328     2.2464     0.0232      0.000      0.273      0.395        180 1.1210e+02 0.0000e+00
      0.280    21.1824     6.9047     79.024  33.728613     36.626      6.898   255.1081     3.0247     2.0987     0.0232      0.002      0.273      0.396        181 1.1053e+02 0.0000e+00
      0.278    21.5216     6.8565     78.472  34.252423     37.287      6.900   254.8052     3.0368     2.1927     0.0235      0.002      0.272      0.395        182 1.1031e+02 0.0000e+00
      0.276    21.7630     6.7907     77.715  34.377671     37.194      6.898   255.3352     3.0004     2.1256     0.0235      0.001      0.271      0.392        183 1.1295e+02 0.0000e+00
      0.273    21.8846     6.7219     76.924  34.343708     36.914      6.896   254.5024     3.0085     2.1927     0.0235     -0.001      0.270      0.391        184 1.1341e+02 0.0000e+00
      0.275    21.9522     6.6605     76.222  34.413181     36.788      6.905   254.7674     2.9762     2.1390     0.0235     -0.001      0.271      0.392        185 1.1368e+02 0.0000e+00
      0.279    21.9878     6.5956     75.483  34.350413     36.631      6.910   254.5781     2.9559     2.0182     0.0235     -0.000      0.274      0.397        186 1.1610e+02 0.0000e+00
      0.282    22.0093     6.5455     74.913  34.332788     36.551      6.909   254.9945     2.9762     2.1122     0.0234      0.001      0.275      0.399        187 1.1528e+02 0.0000e+00
      0.280    22.0200     6.4977     74.371  34.346112     36.552      6.917   255.6381     2.9478     2.1122     0.0235      0.001      0.275      0.398        188 1.1538e+02 0.0000e+00
      0.280    22.0255     6.4563     73.899  34.304155     36.476      6.915   255.9031     2.9721     2.1390     0.0234      0.002      0.275      0.398        189 1.1135e+02 0.0000e+00
      0.280    22.0275     6.4228     73.517  34.355336     36.527      6.886   255.4109     2.9721     2.1524     0.0235      0.003      0.276      0.399        190 1.1160e+02 0.0000e+00
      0.282    22.0289     6.3994     73.253  34.401039     36.582      6.875   255.5624     2.9600     2.1524     0.0235      0.004      0.276      0.400        191 1.1387e+02 0.0000e+00
      0.280    22.0283     6.3865     73.107  34.306588     36.462      6.878   255.3731     2.9762     2.0987     0.0234      0.003      0.275      0.399        192 1.1191e+02 0.0000e+00
      0.279    22.0263     6.3828     73.064  34.324595     36.491      6.881   255.9788     3.0287     2.3270     0.0234      0.001      0.274      0.397        193 1.1355e+02 0.0000e+00
      0.279    22.0240     6.3805     73.034  34.348974     36.521      6.877   256.1681     3.0328     2.3673     0.0235     -0.000      0.273      0.396        194 1.1513e+02 0.0000e+00
      0.277    22.0244     6.3784     73.006  34.365218     36.522      6.869   255.9788     3.0206     2.2599     0.0235     -0.002      0.271      0.393        195 1.1712e+02 0.0000e+00
      0.273    22.0270     6.3771     72.985  34.393348     36.584      6.895   256.1681     3.0449     2.2867     0.0235     -0.003      0.268      0.389        196 1.1761e+02 0.0000e+00
      0.272    22.0294     6.3773     72.982  34.373280     36.524      6.926   256.0545     2.9681     2.6493     0.0235     -0.004      0.267      0.387        197 1.1703e+02 0.0000e+00
      0.273    22.0319     6.3685     72.880  34.390191     36.581      6.946   256.2438     3.0085     2.7567     0.0235     -0.005      0.267      0.388        198 1.1791e+02 0.0000e+00
      0.273    22.0335     6.3614     72.801  34.342645     36.490      6.950   256.3574     2.9842     2.6896     0.0234     -0.005      0.267      0.388        199 1.1622e+02 0.0000e+00
      0.272    22.0349     6.3485     72.654  34.343482     36.518      6.950   256.0545     2.9721     2.6359     0.0235     -0.004      0.267      0.388        200 1.1505e+02 0.0000e+00
      0.272    22.0369     6.3378     72.532  34.359493     36.517      6.962   256.1302     2.9559     2.6627     0.0235     -0.004      0.268      0.388        201 1.1430e+02 0.0000e+00
      0.274    22.0389     6.3359     72.511  34.352374     36.516      6.977   256.4709     3.0085     2.0719     0.0235     -0.002      0.268      0.389        202 1.1318e+02 0.0000e+00
      0.273    22.0383     6.3457     72.624  34.352340     36.514      6.986   256.6981     3.0611     2.1256     0.0235     -0.001      0.268      0.389        203 1.1394e+02 0.0000e+00
      0.273    22.0360     6.3510     72.683  34.359535     36.513      6.994   256.2438     3.0247     2.0987     0.0235      0.000      0.269      0.389        204 1.1429e+02 0.0000e+00
      0.275    22.0329     6.3663     72.856  34.373076     36.543      6.991   257.2659     3.0368     2.0584     0.0235      0.001      0.269      0.389        205 1.1587e+02 0.0000e+00
      0.272    22.0286     6.3772     72.978  34.365144     36.515      6.990   257.0388     2.9559     1.9779     0.0235      0.000      0.268      0.388        206 1.1628e+02 0.0000e+00
      0.271    22.0251     6.3786     72.995  34.399064     36.577      6.988   256.5466     2.9923     2.0987     0.0235     -0.000      0.268      0.388        207 1.1556e+02 0.0000e+00
      0.278    22.0240     6.3767     72.976  34.419836     36.580      6.991   257.2659     2.9802     2.2062     0.0235      0.001      0.271      0.393        208 1.1563e+02 0.0000e+00
      0.280    22.0248     6.3676     72.875  34.398608     36.583      6.991   257.8717     2.9438     2.1659     0.0235      0.003      0.271      0.394        209 1.1612e+02 0.0000e+00
      0.273    22.0258     6.3550     72.730  34.425482     36.584      6.991   257.3416     2.9883     2.2196     0.0235      0.002      0.265      0.384        210 1.1845e+02 0.0000e+00
      0.257    22.0265     6.3473     72.641  34.475361     36.672      6.992   256.7738     2.9964     2.2196     0.0235     -0.003      0.254      0.368        211 1.2124e+02 0.0000e+00
      0.247    22.0268     6.3438     72.599  34.484815     36.642      6.992   257.3038     2.9923     2.2196     0.0235     -0.010      0.246      0.356        212 1.2181e+02 0.0000e+00
      0.247    22.0270     6.3446     72.606  34.502684     36.700      6.997   257.3416     2.9762     2.1927     0.0235     -0.014      0.244      0.354        213 1.1976e+02 0.0000e+00
      0.252    22.0264     6.3468     72.633  34.482779     36.641      6.996   257.6824     3.0166     2.1122     0.0235     -0.015      0.247      0.358        214 1.1979e+02 0.0000e+00
      0.256    22.0243     6.3558     72.735  34.450273     36.640      6.998   257.9474     3.0247     2.0719     0.0235     -0.015      0.249      0.361        215 1.2161e+02 0.0000e+00
      0.253    22.0226     6.3689     72.884  34.454167     36.611      6.992   258.0988     3.0409     2.1122     0.0235     -0.014      0.248      0.359        216 1.2268e+02 0.0000e+00
      0.248    22.0234     6.3736     72.938  34.448277     36.643      6.987   258.1367     3.0328     2.1659     0.0235     -0.012      0.244      0.354        217 1.2417e+02 0.0000e+00
      0.245    22.0252     6.3797     73.007  34.368638     36.525      6.981   257.8717     3.0045     2.0450     0.0235     -0.008      0.242      0.351        218 1.2293e+02 0.0000e+00
      0.248    22.0269     6.3797     73.006  34.404997     36.584      6.975   258.1745     3.0247     2.0719     0.0235     -0.003      0.244      0.354        219 1.1817e+02 0.0000e+00
      0.253    22.0271     6.3828     73.041  34.462340     36.642      6.969   258.0988     3.0166     2.1256     0.0235      0.000      0.248      0.359        220 1.1825e+02 0.0000e+00
      0.255    22.0258     6.3703     72.900  34.356588     36.522      6.962   258.4774     3.0409     2.1122     0.0235      0.001      0.249      0.361        221 1.1978e+02 0.0000e+00
      0.254    22.0244     6.3638     72.831  34.388321     36.551      6.958   258.3259     3.0166     2.1659     0.0235      0.000      0.249      0.361        222 1.1971e+02 0.0000e+00
      0.253    22.0240     6.3666     72.865  34.452504     36.642      6.958   258.3259     3.0287     2.0450     0.0235      0.001      0.249      0.360        223 1.1935e+02 0.0000e+00
      0.254    22.0246     6.3684     72.882  34.365684     36.524      6.957   258.8559     3.0125     2.2733     0.0235      0.003      0.249      0.361        224 1.1927e+02 0.0000e+00
      0.254    22.0242     6.3692     72.885  34.348086     36.524      6.959   258.9695     3.0409     2.0987     0.0235      0.004      0.249      0.361        225 1.2061e+02 0.0000e+00
      0.253    22.0235     6.3704     72.895  34.415090     36.583      6.956   259.2724     3.0287     2.2196     0.0235      0.003      0.248      0.360        226 1.2124e+02 0.0000e+00
      0.253    22.0229     6.3775     72.977  34.400922     36.583      6.951   259.2345     3.0085     2.2867     0.0235      0.001      0.248      0.359        227 1.2079e+02 0.0000e+00
      0.252    22.0224     6.3837     73.047  34.395374     36.554      6.942   258.8938     3.0085     2.2599     0.0235     -0.001      0.248      0.359        228 1.1887e+02 0.0000e+00
      0.252    22.0223     6.3875     73.089  34.392340     36.584      6.937   259.5374     3.0328     2.1927     0.0235     -0.001      0.248      0.359        229 1.1877e+02 0.0000e+00
      0.251    22.0220     6.3886     73.105  34.375044     36.525      6.934   259.2345     3.0247     2.3404     0.0235     -0.001      0.247      0.358        230 1.2007e+02 0.0000e+00
      0.251    22.0236     6.3812     73.023  34.387244     36.585      6.935   259.6888     3.1136     2.1390     0.0235     -0.001      0.247      0.358        231 1.2138e+02 0.0000e+00
      0.252    22.0271     6.3811     73.024  34.317845     36.466      6.937   259.5374     3.0772     2.0853     0.0234     -0.001      0.248      0.359        232 1.2041e+02 0.0000e+00
      0.253    22.0287     6.3769     72.975  34.342783     36.524      6.937   259.8402     3.0853     2.1659     0.0235     -0.001      0.249      0.360        233 1.1973e+02 0.0000e+00
      0.254    22.0261     6.3774     72.979  34.385863     36.551      6.933   259.6888     3.0934     2.1659     0.0235      0.000      0.249      0.360        234 1.2138e+02 0.0000e+00
      0.253    22.0213     6.3718     72.916  34.353201     36.520      6.926   259.6888     3.0853     2.2196     0.0235      0.001      0.248      0.360        235 1.2066e+02 0.0000e+00
      0.253    22.0192     6.3604     72.785  34.353774     36.522      6.928   260.0295     3.1177     2.2062     0.0235      0.001      0.248      0.360        236 1.2038e+02 0.0000e+00
      0.254    22.0196     6.3544     72.716  34.355494     36.526      6.927   259.9538     3.1015     2.1256     0.0235      0.001      0.249      0.361        237 1.2019e+02 0.0000e+00
      0.254    22.0187     6.3522     72.689  34.351063     36.528      6.925   260.4459     3.0772     2.1390     0.0235      0.001      0.249      0.361        238 1.1995e+02 0.0000e+00
      0.254    22.0184     6.3573     72.746  34.359290     36.527      6.928   260.8245     2.9964     2.2062     0.0235      0.001      0.249      0.361        239 1.2167e+02 0.0000e+00
      0.253    22.0203     6.3653     72.840  34.374911     36.558      6.928   261.2409     2.9802     2.1927     0.0235      0.000      0.249      0.360        240 1.2186e+02 0.0000e+00
      0.253    22.0223     6.3687     72.884  34.361277     36.529      6.932   261.2409     2.9559     2.1390     0.0235      0.000      0.248      0.360        241 1.2020e+02 0.0000e+00
      0.252    22.0234     6.3753     72.963  34.346601     36.527      6.933   261.2409     2.9681     2.0853     0.0235     -0.000      0.247      0.358        242 1.2161e+02 0.0000e+00
      0.250    22.0227     6.3784     72.999  34.363520     36.525      6.931   260.7867     2.9883     2.1256     0.0235     -0.001      0.246      0.357        243 1.2447e+02 0.0000e+00
      0.251    22.0219     6.3823     73.044  34.399534     36.584      6.932   260.6731     3.1096     2.2062     0.0235     -0.002      0.247      0.357        244 1.2082e+02 0.0000e+00
      0.253    22.0225     6.3817     73.039  34.420407     36.585      6.933   260.7488     3.0934     2.1659     0.0235     -0.002      0.248      0.359        245 1.2126e+02 0.0000e+00
      0.254    22.0224     6.3783     73.001  34.426513     36.615      6.937   261.2788     3.1015     2.0719     0.0235     -0.001      0.249      0.361        246 1.2265e+02 0.0000e+00
      0.255    22.0218     6.3802     73.023  34.362278     36.525      6.939   261.4681     3.0813     2.2599     0.0235      0.000      0.250      0.362        247 1.2194e+02 0.0000e+00
      0.255    22.0206     6.3790     73.009  34.352065     36.525      6.939   261.8088     3.1055     2.1793     0.0235      0.001      0.251      0.363        248 1.2295e+02 0.0000e+00
      0.255    22.0195     6.3753     72.966  34.350255     36.526      6.937   261.9602     3.1136     2.1390     0.0235      0.002      0.251      0.363        249 1.1989e+02 0.0000e+00
      0.255    22.0215     6.3754     72.967  34.364531     36.527      6.924   261.8088     3.0934     2.2062     0.0235      0.003      0.250      0.363        250 1.2176e+02 0.0000e+00
      0.254    22.0251     6.3796     73.017  34.423267     36.617      6.903   261.5059     3.1298     2.2867     0.0235      0.003      0.250      0.362        251 1.2279e+02 0.0000e+00
      0.254    22.0275     6.3815     73.040  34.366127     36.526      6.893   262.0738     3.0894     2.0719     0.0235      0.001      0.250      0.362        252 1.2101e+02 0.0000e+00
      0.254    22.0280     6.3798     73.021  34.405985     36.583      6.884   261.7331     3.1015     2.1256     0.0235      0.000      0.250      0.363        253 1.1959e+02 0.0000e+00
      0.256    22.0279     6.3733     72.947  34.403320     36.581      6.879   262.1117     3.1136     2.2196     0.0235      0.000      0.251      0.364        254 1.2092e+02 0.0000e+00
      0.258    22.0293     6.3696     72.905  34.369441     36.521      6.874   262.5281     3.1055     2.1793     0.0235      0.001      0.252      0.365        255 1.2574e+02 0.0000e+00
      0.256    22.0302     6.3713     72.925  34.388834     36.581      6.872   262.4524     3.0368     2.0719     0.0235      0.001      0.251      0.364        256 1.2470e+02 0.0000e+00
      0.254    22.0301     6.3775     72.995  34.349530     36.490      6.873   262.1874     3.0166     2.0719     0.0234      0.000      0.249      0.361        257 1.2462e+02 0.0000e+00
      0.252    22.0297     6.3778     72.998  34.388697     36.579      6.882   262.4524     3.0247     2.1927     0.0235     -0.000      0.249      0.360        258 1.2227e+02 0.0000e+00
      0.253    22.0291     6.3723     72.935  34.369748     36.519      6.888   262.7174     3.0409     2.1390     0.0235     -0.001      0.249      0.361        259 1.2101e+02 0.0000e+00
      0.254    22.0296     6.3742     72.955  34.343457     36.520      6.892   263.3988     3.1096     1.9913     0.0235     -0.001      0.249      0.361        260 1.2170e+02 0.0000e+00
      0.254    22.0305     6.3794     73.013  34.362103     36.520      6.894   263.0960     3.0692     2.0719     0.0235     -0.001      0.249      0.362        261 1.1921e+02 0.0000e+00
      0.255    22.0317     6.3724     72.933  34.346542     36.520      6.898   263.0960     3.1015     2.2196     0.0235     -0.001      0.251      0.365        262 1.2302e+02 0.0000e+00
      0.260    22.0324     6.3749     72.962  34.333166     36.489      6.901   263.1338     3.1015     2.2464     0.0234      0.000      0.255      0.370        263 1.2329e+02 0.0000e+00
      0.264    22.0328     6.3688     72.893  34.349093     36.518      6.900   263.4367     3.0692     2.1256     0.0235      0.004      0.260      0.377        264 1.2013e+02 0.0000e+00
      0.270    22.0331     6.3665     72.866  34.356376     36.517      6.903   262.7552     3.0934     2.0987     0.0235      0.008      0.266      0.386        265 1.1890e+02 0.0000e+00
      0.280    22.0330     6.3634     72.833  34.353756     36.517      6.916   263.2095     3.0975     2.0987     0.0235      0.012      0.275      0.399        266 1.1381e+02 0.0000e+00
      0.292    22.0323     6.3599     72.795  34.352353     36.517      6.927   263.4367     3.1015     2.1256     0.0235      0.018      0.285      0.413        267 1.0883e+02 0.0000e+00
      0.300    22.0318     6.3630     72.829  34.358125     36.517      6.936   263.8152     3.1217     2.1390     0.0235      0.023      0.292      0.423        268 1.0769e+02 0.0000e+00
      0.300    22.0316     6.3618     72.808  34.376231     36.547      6.927   264.1560     3.1702     2.3807     0.0235      0.026      0.292      0.423        269 1.0711e+02 0.0000e+00
      0.294    22.0303     6.3617     72.805  34.359477     36.518      6.922   263.4367     3.1581     2.2464     0.0235      0.024      0.289      0.419        270 1.0955e+02 0.0000e+00
      0.291    22.0292     6.3605     72.793  34.349319     36.518      6.924   263.7774     3.1581     2.2464     0.0235      0.019      0.287      0.416        271 1.1200e+02 0.0000e+00
      0.294    22.0294     6.3626     72.821  34.359217     36.519      6.924   263.7774     3.1662     2.3136     0.0235      0.014      0.289      0.419        272 1.1253e+02 0.0000e+00
      0.299    22.0300     6.3609     72.805  34.347159     36.520      6.918   263.5881     2.9600     2.1927     0.0235      0.010      0.294      0.426        273 1.1293e+02 0.0000e+00
      0.305    22.0304     6.3615     72.812  34.364325     36.520      6.892   264.1560     2.9478     2.0719     0.0235      0.007      0.300      0.435        274 1.0895e+02 0.0000e+00
      0.313    22.0303     6.3618     72.815  34.367510     36.549      6.871   263.5881     2.9842     2.1390     0.0235      0.006      0.309      0.448        275 1.0394e+02 0.0000e+00
      0.327    22.0313     6.3684     72.889  34.313538     36.460      6.866   263.4745     2.9640     2.0719     0.0234      0.012      0.320      0.464        276 9.7516e+01 0.0000e+00
      0.339    22.0337     6.3701     72.908  34.342523     36.519      6.859   264.1181     3.0206     2.2196     0.0235      0.020      0.329      0.477        277 9.1677e+01 0.0000e+00
      0.341    22.0324     6.3689     72.891  34.361095     36.518      6.839   263.7017     3.0206     2.1659     0.0235      0.027      0.332      0.482        278 9.2291e+01 0.0000e+00
      0.338    22.0273     6.3658     72.857  34.349738     36.517      6.817   263.5881     3.0328     2.2464     0.0235      0.028      0.331      0.480        279 9.1231e+01 0.0000e+00
      0.335    22.0257     6.3573     72.764  34.356656     36.517      6.822   263.3231     3.0166     2.1256     0.0235      0.024      0.328      0.476        280 9.0629e+01 0.0000e+00
      0.332    22.0277     6.3556     72.749  34.322829     36.492      6.842   264.4967     2.9438     2.0182     0.0234      0.019      0.324      0.471        281 9.2583e+01 0.0000e+00
      0.325    22.0301     6.3548     72.747  34.302867     36.463      6.862   263.8910     2.9802     2.1390     0.0234      0.010      0.318      0.462        282 9.7694e+01 0.0000e+00
      0.318    22.0317     6.3662     72.879  34.351844     36.521      6.871   263.4745     2.9842     2.1659     0.0235     -0.000      0.313      0.454        283 1.0243e+02 0.0000e+00
      0.315    22.0320     6.3651     72.868  34.410161     36.579      6.882   263.7774     2.9600     2.1390     0.0235     -0.010      0.311      0.451        284 1.0251e+02 0.0000e+00
      0.317    22.0316     6.3651     72.870  34.408229     36.578      6.904   264.0424     2.9478     2.1524     0.0235     -0.014      0.314      0.455        285 1.0014e+02 0.0000e+00
      0.328    22.0310     6.3655     72.875  34.383903     36.548      6.932   263.9288     2.9398     2.3539     0.0235     -0.011      0.320      0.465        286 1.0173e+02 0.0000e+00
      0.336    22.0303     6.3653     72.875  34.351466     36.518      6.939   264.4210     2.9802     2.2464     0.0235     -0.004      0.318      0.462        287 1.0194e+02 0.0000e+00
      0.309    22.0285     6.3633     72.855  34.359627     36.519      6.928   280.2453     2.9721     2.3270     0.0235     -0.006      0.292      0.424        288 1.1559e+02 0.0000e+00
      0.249    22.0293     6.3602     72.821  34.344090     36.519      6.942   290.2017     2.9438     2.2196     0.0235     -0.022      0.241      0.350        289 1.3836e+02 0.0000e+00
      0.181    22.0325     6.3517     72.725  34.311491     36.461      6.959   269.7588     2.9115     2.1927     0.0234     -0.051      0.177      0.257        290 1.7646e+02 0.0000e+00
      0.115    22.0360     6.3386     72.577  34.340884     36.520      6.963   266.1624     2.8993     2.1390     0.0235     -0.090      0.106      0.154        291 2.4647e+02 0.0000e+00
      0.025    22.0399     6.3235     72.405  34.337165     36.488      6.967   264.4210     2.9236     2.1256     0.0234     -0.141      0.029      0.041        292 2.9383e+02 0.0000e+00
     -0.051    22.0423     6.3006     72.144  34.286460     36.455      6.976   264.7617     2.9195     2.1122     0.0234     -0.193     -0.045     -0.066        293 3.1984e+02 0.0000e+00
     -0.114    22.0433     6.2726     71.824  34.226045     36.363      6.962   264.1560     2.9721     2.1390     0.0234     -0.237     -0.104     -0.151        294 3.2156e+02 0.0000e+00
     -0.155    22.0441     6.2503     71.570  34.293722     36.450      6.951   296.4860     3.0085     2.1793     0.0234     -0.261     -0.142     -0.206        295 3.1271e+02 0.0000e+00
     -0.164    22.0451     6.2281     71.317  34.291203     36.450      6.953   296.7132     2.9721     2.1524     0.0234     -0.252     -0.159     -0.231        296 3.1418e+02 0.0000e+00
     -0.169    22.0470     6.2185     71.207  34.318148     36.449      6.959   288.8010     2.9802     2.0987     0.0234     -0.221     -0.168     -0.243        297 3.1367e+02 0.0000e+00
     -0.180    22.0486     6.2100     71.112  34.349159     36.537      6.971   299.1739     2.9600     2.1390     0.0235     -0.182     -0.179     -0.260        298 3.1910e+02 0.0000e+00
     -0.199    22.0497     6.2147     71.166  34.252611     36.358      6.960   284.8639     2.9802     2.1659     0.0234     -0.141     -0.198     -0.287        299 3.2321e+02 0.0000e+00
     -0.227    22.0508     6.2281     71.318  34.260362     36.446      6.962   291.7539     2.9721     2.1390     0.0234     -0.104     -0.219     -0.318        300 3.1954e+02 0.0000e+00
     -0.244    22.0518     6.2406     71.460  34.250542     36.356      6.965   290.3532     2.9802     2.1390     0.0234     -0.079     -0.234     -0.339        301 3.2024e+02 0.0000e+00
     -0.243    22.0524     6.2545     71.618  34.264832     36.444      6.968   290.6939     1.1525     4.8246     0.0234     -0.061     -0.235     -0.340        302 3.2501e+02 0.0000e+00
     -0.231    22.0530     6.2675     71.768  34.242579     36.354      6.971   290.8832     1.1484     4.8246     0.0234     -0.048     -0.225     -0.326        303 3.2229e+02 0.0000e+00
     -0.213    22.0538     6.2763     71.869  34.307890     36.472      6.960   291.2996     1.1686     4.7843     0.0234     -0.036     -0.212     -0.307        304 3.2241e+02 0.0000e+00
     -0.205    22.0548     6.2776     71.882  34.302176     36.442      6.948   290.5803     1.1727     4.8112     0.0234     -0.021     -0.203     -0.295        305 3.2448e+02 0.0000e+00
     -0.204    22.0552     6.2843     71.959  34.220033     36.352      6.941   289.5203     1.1484     4.7977     0.0234     -0.005     -0.198     -0.288        306 3.2561e+02 0.0000e+00
     -0.197    22.0555     6.2831     71.946  34.291492     36.441      6.944   289.3310     2.2604   105.6684     0.0234      0.012     -0.189     -0.274        307 3.2542e+02 0.0000e+00
     -0.177    22.0567     6.2846     71.965  34.302218     36.440      6.942   288.4603     2.2523   105.7759     0.0234      0.029     -0.172     -0.249        308 3.2606e+02 0.0000e+00
     -0.151    22.0575     6.2865     71.990  34.295654     36.440      6.930   288.6875     2.2645   105.6416     0.0234      0.042     -0.147     -0.213        309 3.2563e+02 0.0000e+00
     -0.120    22.0568     6.2862     71.988  34.299659     36.439      6.910   285.8103     2.2523   105.7087     0.0234      0.053     -0.118     -0.171        310 3.2574e+02 0.0000e+00
     -0.089    22.0554     6.2847     71.972  34.297232     36.439      6.899   283.3496     2.7780     2.3136     0.0234      0.064     -0.087     -0.126        311 3.1481e+02 0.0000e+00
     -0.056    22.0544     6.2797     71.915  34.298674     36.439      6.894   282.0624     2.7901     2.3136     0.0234      0.078     -0.053     -0.078        312 2.9148e+02 0.0000e+00
     -0.018    22.0549     6.2806     71.924  34.297865     36.440      6.889   264.4967     2.7538     2.3404     0.0234      0.096     -0.017     -0.025        313 2.7029e+02 0.0000e+00
      0.022    22.0555     6.2791     71.904  34.298240     36.441      6.896   263.4367     2.7901     2.3673     0.0234      0.114      0.021      0.030        314 2.5294e+02 0.0000e+00
      0.061    22.0551     6.2739     71.843  34.298209     36.441      6.900   263.4367     2.9681     2.2733     0.0234      0.128      0.057      0.082        315 2.4082e+02 0.0000e+00
      0.091    22.0549     6.2702     71.800  34.297902     36.440      6.906   262.9824     2.9559     2.2464     0.0234      0.135      0.087      0.126        316 1.9912e+02 0.0000e+00
      0.115    22.0549     6.2606     71.689  34.298622     36.441      6.906   262.7931     2.9640     2.2464     0.0234      0.136      0.111      0.161        317 1.6976e+02 0.0000e+00
      0.135    22.0565     6.2599     71.681  34.297316     36.441      6.910   262.1495     2.9802     2.2867     0.0234      0.131      0.132      0.191        318 1.8210e+02 0.0000e+00
      0.155    22.0587     6.2539     71.613  34.299529     36.441      6.912   261.9981     2.9802     2.1659     0.0234      0.123      0.152      0.221        319 1.7691e+02 0.0000e+00
      0.176    22.0601     6.2658     71.750  34.295869     36.439      6.919   261.6952     2.9519     2.0450     0.0234      0.113      0.173      0.251        320 1.6821e+02 0.0000e+00
      0.199    22.0608     6.2686     71.783  34.301870     36.438      6.920   262.0738     2.9721     2.0719     0.0234      0.102      0.195      0.283        321 1.6622e+02 0.0000e+00
      0.222    22.0607     6.2786     71.899  34.292059     36.437      6.925   261.9224     2.9883     2.1256     0.0234      0.093      0.216      0.314        322 1.5987e+02 0.0000e+00
      0.240    22.0597     6.2831     71.949  34.219109     36.347      6.932   261.9602     3.0287     2.2062     0.0234      0.086      0.235      0.341        323 1.5642e+02 0.0000e+00
      0.258    22.0578     6.2767     71.874  34.214718     36.347      6.936   261.7331     3.0570     2.3404     0.0234      0.082      0.254      0.367        324 1.4793e+02 0.0000e+00
      0.278    22.0567     6.2628     71.712  34.297525     36.437      6.941   261.9602     3.0287     2.3136     0.0234      0.081      0.274      0.397        325 1.4095e+02 0.0000e+00
      0.302    22.0562     6.2632     71.716  34.353307     36.498      6.947   261.8467     3.0368     2.3270     0.0235      0.081      0.296      0.430        326 1.3313e+02 0.0000e+00
      0.327    22.0558     6.2580     71.658  34.293580     36.439      6.951   261.6952     3.0247     2.2733     0.0234      0.082      0.321      0.466        327 1.2169e+02 0.0000e+00
      0.352    22.0559     6.2463     71.527  34.312542     36.440      6.957   262.0738     3.0975     2.3404     0.0234      0.084      0.345      0.501        328 1.1618e+02 0.0000e+00
      0.376    22.0561     6.2433     71.493  34.329708     36.499      6.954   261.9224     3.1096     2.2196     0.0235      0.086      0.370      0.536        329 1.0562e+02 0.0000e+00
      0.404    22.0564     6.2614     71.701  34.242562     36.351      6.952   262.1117     3.0894     2.2464     0.0234      0.090      0.396      0.574        330 9.6997e+01 0.0000e+00
      0.430    22.0574     6.2761     71.869  34.272715     36.440      6.946   262.6795     3.1096     2.1659     0.0234      0.094      0.421      0.610        331 9.2668e+01 0.0000e+00
      0.452    22.0582     6.2869     71.991  34.321840     36.440      6.944   262.8688     3.3886     2.3404     0.0234      0.097      0.443      0.643        332 8.6458e+01 0.0000e+00
      0.475    22.0575     6.3016     72.158  34.270395     36.439      6.936   263.5881     3.3805     2.2599     0.0234      0.098      0.466      0.676        333 8.4245e+01 0.0000e+00
      0.498    22.0557     6.3150     72.311  34.247768     36.349      6.927   264.2695     3.3482     2.3136     0.0234      0.097      0.488      0.708        334 8.1368e+01 0.0000e+00
      0.520    22.0543     6.3211     72.380  34.261031     36.439      6.917   264.3074     3.3441     2.3136     0.0234      0.095      0.509      0.738        335 8.0659e+01 0.0000e+00
      0.538    22.0539     6.3239     72.412  34.253891     36.351      6.889   265.2160     3.0206     2.3807     0.0234      0.092      0.524      0.759        336 8.1676e+01 0.0000e+00
      0.542    22.0546     6.3224     72.394  34.256654     36.441      6.868   265.4810     3.0692     2.2867     0.0234      0.085      0.530      0.769        337 8.3389e+01 0.0000e+00
      0.541    22.0562     6.3163     72.325  34.257592     36.352      6.861   265.2917     3.0409     2.2464     0.0234      0.072      0.531      0.770        338 8.5409e+01 0.0000e+00
      0.540    22.0574     6.3067     72.220  34.282379     36.471      6.873   265.3674     3.0692     2.3404     0.0234      0.058      0.535      0.775        339 8.4863e+01 0.0000e+00
      0.556    22.0577     6.2968     72.109  34.255462     36.351      6.891   265.4431     3.0489     2.0853     0.0234      0.047      0.546      0.791        340 8.3756e+01 0.0000e+00
      0.573    22.0574     6.2842     71.963  34.261434     36.439      6.907   265.5567     3.0125     2.1390     0.0234      0.040      0.562      0.815        341 8.1133e+01 0.0000e+00
      0.590    22.0563     6.2731     71.833  34.245292     36.349      6.918   265.7838     3.0328     2.1524     0.0234      0.037      0.578      0.839        342 7.8884e+01 0.0000e+00
      0.607    22.0554     6.2632     71.718  34.275551     36.439      6.928   266.2002     3.0328     2.2062     0.0234      0.038      0.593      0.861        343 7.6992e+01 0.0000e+00
      0.618    22.0549     6.2590     71.671  34.312746     36.440      6.932   266.6545     3.2147     2.2196     0.0234      0.042      0.605      0.877        344 7.5625e+01 0.0000e+00
      0.625    22.0543     6.2550     71.626  34.287970     36.440      6.927   266.6167     3.2228     2.3002     0.0234      0.048      0.614      0.890        345 7.3595e+01 0.0000e+00
      0.635    22.0542     6.2605     71.689  34.217417     36.352      6.928   266.4652     3.2269     2.3136     0.0234      0.052      0.626      0.907        346 7.0809e+01 0.0000e+00
      0.655    22.0543     6.2724     71.824  34.222615     36.352      6.930   267.1845     3.2390     2.3136     0.0234      0.054      0.646      0.936        347 6.8839e+01 0.0000e+00
      0.684    22.0546     6.2938     72.065  34.281501     36.441      6.936   267.1845     3.2349     2.2733     0.0234      0.057      0.673      0.976        348 6.6326e+01 0.0000e+00
      0.720    22.0571     6.3041     72.181  34.233102     36.352      6.937   267.2224     3.1136     2.0987     0.0234      0.064      0.705      1.023        349 6.4161e+01 0.0000e+00
      0.753    22.0593     6.3134     72.286  34.282847     36.441      6.938   267.8660     3.0934     2.1659     0.0234      0.076      0.739      1.072        350 6.2260e+01 0.0000e+00
      0.788    22.0584     6.3195     72.356  34.308561     36.439      6.932   267.7145     3.0934     2.1793     0.0234      0.090      0.772      1.121        351 6.0302e+01 0.0000e+00
      0.823    22.0565     6.3202     72.366  34.290067     36.437      6.932   268.1310     3.1015     2.1927     0.0234      0.105      0.806      1.169        352 5.8697e+01 0.0000e+00
      0.853    22.0553     6.3119     72.274  34.305863     36.438      6.928   268.1688     3.0975     2.2733     0.0234      0.118      0.836      1.213        353 5.6815e+01 0.0000e+00
      0.882    22.0554     6.3002     72.142  34.288907     36.440      6.917   268.2824     3.0611     2.2196     0.0234      0.126      0.865      1.255        354 5.5147e+01 0.0000e+00
      0.912    22.0563     6.2853     71.971  34.222202     36.351      6.907   268.6231     3.1015     2.2464     0.0234      0.128      0.895      1.298        355 5.3265e+01 0.0000e+00
      0.943    22.0564     6.2775     71.882  34.210940     36.351      6.903   268.8503     3.1258     2.3136     0.0234      0.126      0.925      1.342        356 5.1351e+01 0.0000e+00
      0.975    22.0553     6.2659     71.747  34.243612     36.380      6.903   268.8124     3.0328     2.2733     0.0234      0.124      0.956      1.387        357 4.9764e+01 0.0000e+00
      1.008    22.0530     6.2553     71.626  34.211198     36.351      6.908   268.7367     3.0409     2.2196     0.0234      0.123      0.988      1.432        358 4.8085e+01 0.0000e+00
      1.037    22.0513     6.2447     71.504  34.221622     36.351      6.912   269.1910     3.0247     2.2464     0.0234      0.121      1.018      1.476        359 4.6844e+01 0.0000e+00
      1.069    22.0506     6.2515     71.581  34.200984     36.353      6.917   269.0017     3.0489     2.3270     0.0234      0.121      1.048      1.521        360 4.5701e+01 0.0000e+00
      1.100    22.0502     6.2586     71.663  34.236883     36.354      6.925   269.1531     3.0449     2.2330     0.0234      0.122      1.081      1.568        361 4.4469e+01 0.0000e+00
      1.139    22.0514     6.2608     71.687  34.295573     36.474      6.928   269.6831     3.0530     2.2062     0.0234      0.125      1.117      1.620        362 4.2828e+01 0.0000e+00
      1.179    22.0537     6.2652     71.736  34.246571     36.355      6.930   269.6074     3.0206     2.2464     0.0234      0.129      1.153      1.672        363 4.1777e+01 0.0000e+00
      1.208    22.0550     6.2618     71.697  34.268208     36.444      6.934   270.0238     3.0409     2.1927     0.0234      0.131      1.183      1.717        364 4.1183e+01 0.0000e+00
      1.233    22.0550     6.2272     71.300  34.238990     36.353      6.934   270.0995     3.1136     2.3673     0.0234      0.130      1.208      1.753        365 4.0432e+01 0.0000e+00
      1.255    22.0547     6.2281     71.310  34.193965     36.352      6.934   269.9481     3.1015     2.3404     0.0234      0.127      1.232      1.787        366 3.9755e+01 0.0000e+00
      1.282    22.0541     6.2149     71.159  34.235272     36.352      6.931   270.4403     3.0975     2.2196     0.0234      0.123      1.256      1.822        367 3.8958e+01 0.0000e+00
      1.306    22.0537     6.2019     71.011  34.276552     36.441      6.926   270.0617     3.1136     2.2599     0.0234      0.116      1.278      1.854        368 3.8469e+01 0.0000e+00
      1.324    22.0535     6.1914     70.892  34.231561     36.352      6.927   270.6674     3.1096     2.2464     0.0234      0.108      1.298      1.883        369 3.7996e+01 0.0000e+00
      1.343    22.0531     6.1923     70.902  34.202294     36.353      6.921   270.3267     3.2228     2.3002     0.0234      0.098      1.317      1.910        370 3.7414e+01 0.0000e+00
      1.363    22.0531     6.1890     70.865  34.224006     36.353      6.922   270.6295     3.2269     2.2062     0.0234      0.090      1.337      1.938        371 3.7077e+01 0.0000e+00
      1.382    22.0523     6.1991     70.981  34.204541     36.353      6.920   270.6674     3.2349     2.3404     0.0234      0.085      1.356      1.965        372 3.6684e+01 0.0000e+00
      1.400    22.0517     6.2101     71.106  34.226519     36.353      6.922   271.4624     3.2430     2.2464     0.0234      0.082      1.372      1.990        373 3.6405e+01 0.0000e+00
      1.414    22.0515     6.2145     71.157  34.226311     36.383      6.916   271.1217     3.2188     2.1256     0.0234      0.077      1.387      2.012        374 3.6282e+01 0.0000e+00
      1.429    22.0512     6.2197     71.214  34.175143     36.295      6.916   271.0838     3.2633     2.1793     0.0234      0.072      1.405      2.037        375 3.5659e+01 0.0000e+00
      1.455    22.0509     6.2249     71.267  34.201231     36.354      6.916   270.8188     3.2511     2.1524     0.0234      0.071      1.427      2.069        376 3.4840e+01 0.0000e+00
      1.479    22.0507     6.2289     71.305  34.223504     36.355      6.912   271.3488     3.2147     2.1122     0.0234      0.073      1.449      2.101        377 3.4306e+01 0.0000e+00
      1.497    22.0510     6.2216     71.216  34.206737     36.355      6.909   271.1595     3.1419     2.2733     0.0234      0.074      1.469      2.130        378 3.3691e+01 0.0000e+00
      1.518    22.0517     6.2043     71.000  34.222098     36.355      6.910   271.3488     3.1622     2.3404     0.0234      0.076      1.490      2.160        379 3.2922e+01 0.0000e+00
      1.541    22.0521     6.1596     70.464  34.234043     36.384      6.908   271.3110     3.1783     2.2733     0.0234      0.079      1.512      2.194        380 3.2245e+01 0.0000e+00
      1.567    22.0525     6.1017     69.783  34.221526     36.354      6.903   271.8031     3.1824     2.3941     0.0234      0.083      1.536      2.228        381 3.1444e+01 0.0000e+00
      1.590    22.0528     6.0184     68.818  34.208020     36.354      6.898   271.5381     3.1622     2.1390     0.0234      0.087      1.559      2.261        382 3.0646e+01 0.0000e+00
      1.612    22.0524     5.8932     67.379  34.221197     36.354      6.893   272.2574     3.1743     2.2062     0.0234      0.089      1.579      2.291        383 3.0231e+01 0.0000e+00
      1.629    22.0522     5.7224     65.427  34.205127     36.353      6.892   272.2195     3.1905     2.1927     0.0234      0.087      1.599      2.320        384 2.9775e+01 0.0000e+00
      1.652    22.0509     5.5042     62.943  34.228017     36.354      6.891   271.9545     3.1743     2.1122     0.0234      0.087      1.624      2.355        385 2.8764e+01 0.0000e+00
      1.688    22.0456     5.3031     60.648  34.281679     36.443      6.896   272.2953     3.3805     2.2464     0.0234      0.091      1.653      2.397        386 2.7882e+01 0.0000e+00
      1.715    22.0403     5.1322     58.689  34.316284     36.444      6.899   272.7496     3.3765     2.1927     0.0234      0.094      1.678      2.434        387 2.7425e+01 0.0000e+00
      1.731    22.0358     5.0367     57.593  34.273921     36.448      6.899   272.2574     3.3765     2.3002     0.0234      0.094      1.698      2.463        388 2.7035e+01 0.0000e+00
      1.750    22.0235     5.0082     57.261  34.245432     36.363      6.903   273.0524     3.3563     2.2464     0.0234      0.093      1.716      2.489        389 2.6613e+01 0.0000e+00
      1.767    22.0056     5.0089     57.265  34.381398     36.574      6.903   272.9388     3.3401     2.2464     0.0235      0.091      1.733      2.514        390 2.6167e+01 0.0000e+00
      1.785    21.9913     5.0029     57.181  34.430935     36.584      6.904   273.0146     3.4210     2.3270     0.0235      0.088      1.749      2.538        391 2.5827e+01 0.0000e+00
      1.800    21.9817     4.9898     57.012  34.421038     36.628      6.901   273.0903     3.4088     2.2464     0.0235      0.084      1.764      2.558        392 2.5552e+01 0.0000e+00
      1.810    21.9758     4.9464     56.510  34.423378     36.609      6.901   272.9767     3.4210     2.3136     0.0235      0.075      1.777      2.578        393 2.5265e+01 0.0000e+00
      1.827    21.9772     4.8458     55.358  34.398374     36.616      6.905   273.4310     3.4331     2.3673     0.0235      0.066      1.796      2.604        394 2.4735e+01 0.0000e+00
      1.856    21.9857     4.6883     53.547  34.363193     36.562      6.901   273.5067     3.3522     2.2464     0.0235      0.066      1.822      2.643        395 2.3933e+01 0.0000e+00
      1.892    21.9896     4.4894     51.261  34.289226     36.501      6.897   273.4310     3.3765     2.3404     0.0234      0.072      1.854      2.689        396 2.3305e+01 0.0000e+00
      1.925    21.9864     4.2579     48.610  34.342142     36.524      6.888   273.3553     3.3684     2.2867     0.0234      0.081      1.886      2.734        397 2.2839e+01 0.0000e+00
      1.951    21.9817     4.0467     46.194  34.445619     36.670      6.885   273.7338     3.3603     2.2733     0.0235      0.091      1.912      2.772        398 2.2415e+01 0.0000e+00
      1.971    21.9776     3.8455     43.894  34.427356     36.613      6.886   273.8474     3.2996     2.2330     0.0235      0.097      1.932      2.801        399 2.2181e+01 0.0000e+00
      1.987    21.9725     3.6456     41.600  34.453840     36.676      6.887   274.0746     3.2835     2.2196     0.0235      0.101      1.949      2.826        400 2.1856e+01 0.0000e+00
      2.003    21.9590     3.4983     39.902  34.531289     36.739      6.888   274.0746     3.3037     2.2599     0.0235      0.101      1.965      2.850        401 2.1422e+01 0.0000e+00
      2.021    21.9420     3.3784     38.522  34.568226     36.802      6.882   274.2638     3.3077     2.2867     0.0236      0.095      1.981      2.873        402 2.1200e+01 0.0000e+00
      2.035    21.9354     3.3137     37.777  34.615471     36.842      6.880   274.2260     3.3846     2.0987     0.0236      0.085      1.996      2.895        403 2.1020e+01 0.0000e+00
      2.048    21.9332     3.3419     38.098  34.620781     36.886      6.878   274.1503     3.3603     2.1256     0.0236      0.074      2.013      2.920        404 2.0597e+01 0.0000e+00
      2.077    21.9215     3.4556     39.400  34.531968     36.772      6.873   274.3396     3.3886     2.1524     0.0235      0.069      2.037      2.954        405 1.9983e+01 0.0000e+00
      2.107    21.9075     3.6191     41.278  34.459094     36.713      6.864   274.8317     3.3805     2.0853     0.0235      0.072      2.061      2.989        406 1.9666e+01 0.0000e+00
      2.119    21.8990     3.8141     43.520  34.474222     36.723      6.850   274.6046     3.1905     2.2464     0.0235      0.074      2.077      3.013        407 1.9551e+01 0.0000e+00
      2.129    21.8947     3.9893     45.531  34.513145     36.794      6.848   274.5667     3.1702     2.1927     0.0235      0.074      2.090      3.032        408 1.9257e+01 0.0000e+00
      2.145    21.8899     4.1135     46.954  34.558943     36.830      6.844   274.7938     3.1824     2.0853     0.0235      0.073      2.106      3.055        409 1.8854e+01 0.0000e+00
      2.168    21.8744     4.1648     47.534  34.387576     36.684      6.839   275.2860     3.1662     2.1524     0.0235      0.074      2.127      3.085        410 1.8401e+01 0.0000e+00
      2.192    21.8532     4.1538     47.401  33.955353     36.181      6.834   275.4753     3.1702     2.2464     0.0233      0.075      2.148      3.115        411 1.8150e+01 0.0000e+00
      2.210    21.8366     4.0947     46.714  33.673357     35.925      6.826   275.4753     3.1419     2.4076     0.0232      0.075      2.165      3.139        412 1.7953e+01 0.0000e+00
      2.220    21.8264     4.0216     45.868  33.522642     35.763      6.815   275.7024     3.1743     2.3673     0.0231      0.070      2.175      3.153        413 1.7866e+01 0.0000e+00
      2.223    21.8247     3.9614     45.169  33.520164     35.775      6.801   275.7781     3.1541     2.3807     0.0231      0.064      2.178      3.158        414 1.7902e+01 0.0000e+00
      2.220    21.8323     3.9192     44.675  33.676448     35.962      6.789   275.8160     3.1622     2.2599     0.0232      0.057      2.176      3.155        415 1.7979e+01 0.0000e+00
      2.213    21.8503     3.9144     44.607  33.891603     36.172      6.781   275.8160     3.0409     2.1793     0.0233      0.045      2.169      3.145        416 1.8228e+01 0.0000e+00
      2.201    21.8716     3.9364     44.842  34.290353     36.614      6.784   275.4753     3.0247     2.1390     0.0234      0.028      2.161      3.134        417 1.8357e+01 0.0000e+00
      2.197    21.8858     4.0031     45.587  34.455407     36.779      6.786   275.6646     3.0489     2.1390     0.0235      0.010      2.157      3.129        418 1.8412e+01 0.0000e+00
      2.201    21.8902     4.0846     46.504  34.427587     36.702      6.788   275.9674     3.0085     2.1659     0.0235     -0.003      2.160      3.133        419 1.8346e+01 0.0000e+00
      2.209    21.8853     4.1558     47.304  34.384278     36.691      6.788   276.1188     2.9115     2.2196     0.0235     -0.009      2.168      3.144        420 1.8156e+01 0.0000e+00
      2.221    21.8764     4.1690     47.444  34.153426     36.390      6.785   275.9296     2.9034     2.1524     0.0234     -0.006      2.179      3.161        421 1.8046e+01 0.0000e+00
      2.236    21.8635     4.1105     46.767  34.092100     36.364      6.785   276.1567     2.9074     2.0987     0.0234      0.003      2.194      3.183        422 1.7741e+01 0.0000e+00
      2.255    21.8487     3.9874     45.357  34.045415     36.311      6.782   276.2703     2.9195     2.1256     0.0233      0.017      2.213      3.210        423 1.7289e+01 0.0000e+00
      2.278    21.8349     3.8248     43.503  33.885316     36.142      6.778   275.7781     3.0287     2.2733     0.0233      0.034      2.234      3.240        424 1.6965e+01 0.0000e+00
      2.300    21.8201     3.6454     41.462  33.727889     36.005      6.769   276.2703     3.0166     2.2733     0.0232      0.051      2.254      3.269        425 1.6697e+01 0.0000e+00
      2.317    21.8043     3.4675     39.438  33.529606     35.777      6.761   276.4217     3.0732     2.2464     0.0231      0.062      2.273      3.296        426 1.6364e+01 0.0000e+00
      2.336    21.7860     3.3341     37.920  33.568632     35.848      6.753   276.7624     3.0772     2.2867     0.0231      0.069      2.291      3.323        427 1.6013e+01 0.0000e+00
      2.355    21.7695     3.2416     36.870  33.827604     36.128      6.745   276.6110     2.7214     2.1927     0.0232      0.074      2.309      3.348        428 1.5759e+01 0.0000e+00
      2.370    21.7573     3.2115     36.526  34.037678     36.382      6.742   276.6110     2.7133     2.2733     0.0233      0.076      2.325      3.372        429 1.5500e+01 0.0000e+00
      2.388    21.7457     3.2331     36.756  34.107906     36.454      6.739   277.2167     2.7012     2.2733     0.0234      0.075      2.342      3.396        430 1.5264e+01 0.0000e+00
      2.406    21.7345     3.2933     37.423  34.096082     36.463      6.737   276.7624     2.7376     2.3941     0.0234      0.073      2.360      3.422        431 1.5023e+01 0.0000e+00
      2.426    21.7225     3.3756     38.344  34.052400     36.413      6.736   277.2924     2.7093     2.2464     0.0233      0.071      2.378      3.449        432 1.4756e+01 0.0000e+00
      2.443    21.7124     3.4907     39.643  34.013995     36.392      6.732   276.9896     2.6082     2.4479     0.0233      0.070      2.393      3.471        433 1.4642e+01 0.0000e+00
      2.452    21.7072     3.6315     41.237  33.995603     36.371      6.729   277.2924     2.6001     2.5150     0.0233      0.068      2.403      3.485        434 1.4600e+01 0.0000e+00
      2.456    21.7053     3.7868     42.993  33.927015     36.319      6.726   276.4596     2.5960     2.4613     0.0233      0.062      2.409      3.493        435 1.4521e+01 0.0000e+00
      2.460    21.7040     3.9469     44.800  33.891767     36.263      6.725   276.6110     2.5677     2.5419     0.0233      0.055      2.415      3.501        436 1.4397e+01 0.0000e+00
      2.470    21.7037     4.0944     46.458  33.920849     36.325      6.727   276.8760     2.7214     2.5150     0.0233      0.049      2.425      3.516        437 1.4181e+01 0.0000e+00
      2.487    21.7074     4.2008     47.650  33.920480     36.296      6.728   276.9138     2.7214     2.5016     0.0233      0.044      2.440      3.540        438 1.3875e+01 0.0000e+00
      2.510    21.7039     4.2217     47.871  33.803261     36.206      6.726   276.9138     2.7214     2.4210     0.0232      0.043      2.460      3.569        439 1.3663e+01 0.0000e+00
      2.530    21.6830     4.0912     46.378  33.592239     35.934      6.724   276.9896     2.7295     2.5687     0.0231      0.046      2.480      3.597        440 1.3445e+01 0.0000e+00
      2.548    21.6583     3.8262     43.371  33.382402     35.757      6.722   276.9517     2.6446     2.8373     0.0230      0.052      2.497      3.622        441 1.3210e+01 0.0000e+00
      2.562    21.6400     3.5220     39.924  33.234064     35.564      6.721   276.5353     2.6486     2.9313     0.0230      0.058      2.511      3.643        442 1.3150e+01 0.0000e+00
      2.573    21.6289     3.2855     37.243  33.243065     35.643      6.718   277.0653     2.6324     2.8238     0.0230      0.064      2.523      3.659        443 1.3009e+01 0.0000e+00
      2.584    21.6216     3.1417     35.605  33.282247     35.657      6.712   277.3303     2.6729     2.8104     0.0230      0.065      2.534      3.676        444 1.2808e+01 0.0000e+00
      2.596    21.6125     3.0837     34.943  33.333586     35.755      6.713   277.1031     2.0016     3.3744     0.0230      0.063      2.548      3.696        445 1.2613e+01 0.0000e+00
      2.614    21.5992     3.1180     35.331  33.416418     35.820      6.712   277.0653     2.0057     3.3878     0.0230      0.059      2.566      3.722        446 1.2287e+01 0.0000e+00
      2.639    21.5828     3.2445     36.766  33.831577     36.277      6.711   277.2167     1.9895     3.3744     0.0232      0.058      2.589      3.755        447 1.1959e+01 0.0000e+00
      2.666    21.5670     3.4391     38.965  34.447982     36.977      6.709   277.3303     2.0178     3.3744     0.0235      0.062      2.615      3.793        448 1.1605e+01 0.0000e+00
      2.696    21.5490     3.6495     41.336  34.191414     36.720      6.703   277.8603     1.5851     4.4083     0.0234      0.070      2.640      3.830        449 1.1288e+01 0.0000e+00
      2.717    21.5349     3.8246     43.306  33.231562     35.652      6.693   278.2389     1.5568     4.3815     0.0230      0.078      2.660      3.858        450 1.1233e+01 0.0000e+00
      2.724    21.5310     3.9513     44.723  33.062494     35.486      6.679   277.3303     1.5447     4.3278     0.0229      0.082      2.670      3.873        451 1.1172e+01 0.0000e+00
      2.730    21.5332     4.0531     45.852  33.304580     35.828      6.677   277.4438     1.5326     4.3815     0.0230      0.080      2.680      3.888        452 1.0932e+01 0.0000e+00
      2.747    21.5308     4.1419     46.835  33.197188     35.620      6.676   277.4438     1.5002     4.8783     0.0229      0.077      2.695      3.909        453 1.0714e+01 0.0000e+00
      2.767    21.5207     4.2171     47.664  32.988562     35.498      6.679   277.8224     1.5124     4.8515     0.0229      0.071      2.713      3.934        454 1.0514e+01 0.0000e+00
      2.783    21.5138     4.2942     48.516  32.733891     35.109      6.675   278.2010     1.4679     4.7843     0.0227      0.065      2.728      3.955        455 1.0377e+01 0.0000e+00
      2.792    21.5126     4.3632     49.284  32.832077     35.328      6.669   278.3903     1.4921     4.8783     0.0228      0.058      2.738      3.970        456 1.0275e+01 0.0000e+00
      2.800    21.5140     4.4075     49.779  33.014643     35.453      6.666   278.0117     1.4638     4.8112     0.0229      0.052      2.748      3.985        457 1.0116e+01 0.0000e+00
      2.815    21.5068     4.4211     49.931  32.951505     35.454      6.667   277.9739     1.4194     5.5497     0.0229      0.051      2.763      4.007        458 9.9022e+00 0.0000e+00
      2.838    21.4909     4.4066     49.765  32.643769     35.062      6.670   278.3903     1.4032     5.4557     0.0227      0.055      2.783      4.036        459 9.6022e+00 0.0000e+00
      2.861    21.4750     4.3760     49.415  32.507998     34.948      6.668   278.2010     1.4113     5.5631     0.0227      0.059      2.806      4.069        460 9.3161e+00 0.0000e+00
      2.885    21.4547     4.3370     48.962  32.497741     34.960      6.666   278.8824     1.4032     5.4557     0.0227      0.063      2.829      4.103        461 9.0292e+00 0.0000e+00
      2.908    21.4289     4.3005     48.527  32.300699     34.731      6.662   278.6553     1.4274     5.1737     0.0226      0.068      2.849      4.133        462 8.8467e+00 0.0000e+00
      2.923    21.4046     4.2561     48.003  32.189809     34.656      6.658   278.8824     1.4355     5.1872     0.0225      0.073      2.867      4.158        463 8.6783e+00 0.0000e+00
      2.942    21.3817     4.1750     47.072  32.220604     34.675      6.662   279.2610     1.4113     5.2543     0.0225      0.079      2.884      4.183        464 8.4387e+00 0.0000e+00
      2.958    21.3622     4.0523     45.676  32.380997     34.904      6.657   279.2231     1.4274     5.1872     0.0226      0.081      2.900      4.206        465 8.3292e+00 0.0000e+00
      2.971    21.3498     3.9716     44.754  32.405360     34.921      6.654   278.9960     1.4153     3.7638     0.0226      0.078      2.915      4.227        466 8.1715e+00 0.0000e+00
      2.987    21.3435     3.9518     44.520  32.457175     34.997      6.654   279.4503     1.4315     3.7504     0.0226      0.073      2.930      4.248        467 8.0086e+00 0.0000e+00
      3.002    21.3415     4.0047     45.105  32.494443     35.066      6.654   279.4503     1.4153     3.7504     0.0227      0.068      2.945      4.271        468 7.9120e+00 0.0000e+00
      3.019    21.3400     4.1145     46.328  32.418293     34.950      6.656   279.2610     1.4153     3.8175     0.0226      0.064      2.962      4.296        469 7.7270e+00 0.0000e+00
      3.040    21.3356     4.2973     48.373  32.374022     34.952      6.656   279.5260     1.4840     4.6098     0.0226      0.063      2.982      4.326        470 7.5468e+00 0.0000e+00
      3.066    21.3214     4.5122     50.779  32.430925     34.953      6.649   279.5639     1.4638     4.6232     0.0226      0.067      3.007      4.361        471 7.3490e+00 0.0000e+00
      3.093    21.2975     4.7401     53.332  32.851596     35.469      6.641   279.5639     1.4800     4.5560     0.0228      0.072      3.033      4.399        472 7.1005e+00 0.0000e+00
      3.119    21.2734     4.9479     55.660  33.036661     35.660      6.635   279.6017     1.5043     4.5292     0.0229      0.079      3.058      4.436        473 6.9604e+00 0.0000e+00
      3.143    21.2547     5.1357     57.772  32.823352     35.438      6.627   279.8289     1.4881     5.8586     0.0228      0.086      3.081      4.469        474 6.8704e+00 0.0000e+00
      3.162    21.2403     5.2704     59.284  32.731562     35.366      6.623   280.0939     1.4800     5.8317     0.0228      0.090      3.102      4.500        475 6.6799e+00 0.0000e+00
      3.187    21.2271     5.3706     60.408  32.735746     35.380      6.624   279.7153     1.4800     5.7780     0.0228      0.093      3.125      4.533        476 6.4976e+00 0.0000e+00
      3.213    21.2141     5.4470     61.273  32.729193     35.391      6.621   279.9424     1.5285     6.0331     0.0228      0.095      3.150      4.568        477 6.2963e+00 0.0000e+00
      3.237    21.2012     5.4941     61.811  32.799032     35.461      6.620   279.9046     1.4881     5.9257     0.0228      0.095      3.174      4.602        478 6.0420e+00 0.0000e+00
      3.258    21.1876     5.5242     62.146  33.034341     35.743      6.621   279.7531     1.4719     5.5631     0.0229      0.094      3.194      4.632        479 5.9127e+00 0.0000e+00
      3.274    21.1727     5.5544     62.468  33.029444     35.753      6.622   279.9046     1.4921     5.3617     0.0229      0.090      3.210      4.657        480 5.8028e+00 0.0000e+00
      3.291    21.1593     5.5520     62.434  33.072021     35.764      6.625   279.9803     1.4800     5.3752     0.0229      0.086      3.225      4.678        481 5.6881e+00 0.0000e+00
      3.302    21.1483     5.5359     62.243  33.307562     36.108      6.623   279.6774     1.5204     5.4826     0.0230      0.081      3.239      4.697        482 5.6180e+00 0.0000e+00
      3.317    21.1401     5.5263     62.114  33.388726     36.119      6.629   280.0181     1.4881     5.8586     0.0230      0.076      3.251      4.715        483 5.4813e+00 0.0000e+00
      3.328    21.1382     5.5362     62.211  33.415841     36.248      6.625   279.9424     1.4719     5.9391     0.0231      0.068      3.260      4.729        484 5.4491e+00 0.0000e+00
      3.331    21.1357     5.5639     62.516  33.392441     36.134      6.619   279.9424     1.5164     5.8720     0.0230      0.058      3.265      4.735        485 5.4627e+00 0.0000e+00
      3.330    21.1333     5.6290     63.232  33.388193     36.226      6.617   280.4346     1.5043     5.9928     0.0231      0.047      3.265      4.735        486 5.4731e+00 0.0000e+00
      3.326    21.1379     5.7015     64.032  33.302509     36.046      6.619   279.9424     1.2980     5.7511     0.0230      0.036      3.264      4.733        487 5.4840e+00 0.0000e+00
      3.327    21.1448     5.8061     65.198  33.232182     36.048      6.625   279.9046     1.2859     5.6974     0.0230      0.025      3.264      4.734        488 5.4394e+00 0.0000e+00
      3.331    21.1404     5.9112     66.375  33.238477     35.984      6.631   280.2453     1.2819     5.7108     0.0230      0.017      3.267      4.739        489 5.4053e+00 0.0000e+00
      3.337    21.1273     6.0058     67.435  33.383638     36.191      6.637   280.0181     1.3061     5.7108     0.0231      0.012      3.273      4.748        490 5.3097e+00 0.0000e+00
      3.347    21.1213     6.0817     68.283  33.526008     36.315      6.644   280.2453     1.4113     5.8720     0.0231      0.010      3.283      4.761        491 5.2400e+00 0.0000e+00
      3.359    21.1126     6.1300     68.820  33.535781     36.356      6.649   280.2453     1.4274     5.9391     0.0231      0.012      3.296      4.780        492 5.1190e+00 0.0000e+00
      3.377    21.0954     6.1520     69.065  33.579064     36.391      6.653   280.1696     1.3910     5.7646     0.0231      0.021      3.311      4.802        493 4.9940e+00 0.0000e+00
      3.392    21.0848     6.1517     69.063  33.620422     36.458      6.653   280.1696     1.4234     5.8854     0.0232      0.031      3.326      4.824        494 4.9301e+00 0.0000e+00
      3.407    21.0786     6.1453     68.989  33.573283     36.411      6.656   280.3967     1.4113     6.1674     0.0231      0.041      3.342      4.848        495 4.8238e+00 0.0000e+00
      3.427    21.0660     6.1143     68.635  33.578424     36.420      6.656   280.3967     1.4113     6.0600     0.0231      0.050      3.362      4.876        496 4.6410e+00 0.0000e+00
      3.452    21.0541     6.0942     68.397  33.554719     36.424      6.656   280.5103     1.4113     6.0868     0.0231      0.059      3.385      4.910        497 4.4296e+00 0.0000e+00
      3.479    21.0484     6.0561     67.945  33.335894     36.162      6.653   280.5103     1.4113     6.0868     0.0230      0.068      3.409      4.944        498 4.3292e+00 0.0000e+00
      3.497    21.0457     6.0221     67.540  33.257655     36.110      6.649   280.5860     1.4234     6.1674     0.0230      0.075      3.427      4.970        499 4.2831e+00 0.0000e+00
      3.507    21.0433     6.0053     67.332  33.266576     36.115      6.653   280.6617     1.4921     6.7985     0.0230      0.077      3.440      4.990        500 4.1656e+00 0.0000e+00
      3.520    21.0401     5.9921     67.177  33.265485     36.117      6.655   280.6239     1.4800     6.7179     0.0230      0.075      3.454      5.010        501 4.0596e+00 0.0000e+00
      3.539    21.0365     5.9882     67.135  33.199705     36.058      6.657   281.0781     1.4638     6.7985     0.0230      0.074      3.471      5.035        502 3.9649e+00 0.0000e+00
      3.560    21.0353     5.9859     67.110  33.111203     35.939      6.655   281.3053     1.4800     6.7717     0.0229      0.073      3.490      5.063        503 3.8185e+00 0.0000e+00
      3.578    21.0362     5.9894     67.128  33.138391     36.003      6.652   280.6617     1.4921     6.5165     0.0229      0.070      3.510      5.092        504 3.6911e+00 0.0000e+00
      3.601    21.0345     5.9852     67.055  33.047254     35.883      6.655   280.9646     1.4840     6.5702     0.0229      0.069      3.532      5.123        505 3.5527e+00 0.0000e+00
      3.627    21.0303     5.9822     67.003  32.987386     35.821      6.656   280.9267     1.4679     6.5165     0.0229      0.071      3.557      5.158        506 3.4199e+00 0.0000e+00
      3.651    21.0204     5.9805     66.940  33.034970     35.883      6.656   281.2674     1.4638     6.5031     0.0229      0.077      3.581      5.192        507 3.2980e+00 0.0000e+00
      3.674    21.0030     5.9720     66.791  33.047346     35.886      6.657   281.6460     1.4881     6.9999     0.0229      0.084      3.602      5.225        508 3.1888e+00 0.0000e+00
      3.695    20.9844     5.9517     66.526  33.209222     36.076      6.658   281.9489     1.4760     6.9328     0.0230      0.087      3.621      5.253        509 3.1005e+00 0.0000e+00
      3.710    20.9701     5.9237     66.178  33.367307     36.272      6.659   281.6839     1.5002     6.9596     0.0230      0.087      3.636      5.274        510 3.0264e+00 0.0000e+00
      3.719    20.9639     5.9147     66.055  33.354749     36.256      6.665   281.8353     1.4881     6.9194     0.0230      0.083      3.647      5.290        511 2.9975e+00 0.0000e+00
      3.729    20.9661     5.9066     65.943  33.254512     36.176      6.667   281.7217     1.4760     6.5434     0.0230      0.076      3.659      5.307        512 2.9627e+00 0.0000e+00
      3.745    20.9662     5.9156     66.016  33.225163     36.120      6.668   281.5324     1.4840     6.5165     0.0230      0.069      3.675      5.330        513 2.8339e+00 0.0000e+00
      3.768    20.9506     5.9373     66.227  33.243002     36.180      6.671   281.3053     1.4760     6.4360     0.0230      0.064      3.697      5.362        514 2.7160e+00 0.0000e+00
      3.796    20.9312     5.9396     66.235  33.173003     36.057      6.677   281.1539     1.4840     6.5837     0.0229      0.064      3.725      5.403        515 2.5958e+00 0.0000e+00
      3.832    20.9152     5.9309     66.123  33.193659     36.131      6.682   281.3810     1.5002     6.0600     0.0230      0.070      3.757      5.448        516 2.4186e+00 0.0000e+00
      3.863    20.8826     5.9220     65.998  33.276611     36.207      6.683   281.4189     1.4881     6.1271     0.0230      0.081      3.787      5.492        517 2.2917e+00 0.0000e+00
      3.889    20.8422     5.8913     65.627  33.633221     36.615      6.684   281.6839     1.4962     6.0868     0.0232      0.092      3.814      5.532        518 2.2072e+00 0.0000e+00
      3.916    20.8119     5.8456     65.094  33.965734     37.037      6.686   281.6460     1.4962     6.1405     0.0233      0.103      3.841      5.571        519 2.1110e+00 0.0000e+00
      3.945    20.7865     5.7949     64.506  34.019377     37.070      6.684   281.9489     1.4921     5.9928     0.0233      0.110      3.867      5.609        520 2.0447e+00 0.0000e+00
      3.968    20.7676     5.7563     64.042  34.278220     37.429      6.685   282.1003     1.3991     5.5363     0.0235      0.113      3.892      5.645        521 1.9456e+00 0.0000e+00
      3.992    20.7520     5.7271     63.659  34.444338     37.603      6.683   281.9489     1.4355     5.5900     0.0235      0.111      3.917      5.681        522 1.8708e+00 0.0000e+00
      4.022    20.7304     5.7087     63.400  34.524407     37.710      6.681   282.2896     1.4234     5.4826     0.0236      0.108      3.945      5.722        523 1.8128e+00 0.0000e+00
      4.053    20.7071     5.6143     62.309  34.504806     37.723      6.681   282.5546     1.4274     5.4826     0.0236      0.106      3.975      5.764        524 1.7099e+00 0.0000e+00
      4.083    20.6930     5.3086     58.878  34.172177     37.344      6.681   282.7060     1.4153     5.7646     0.0234      0.107      4.002      5.804        525 1.6660e+00 0.0000e+00
      4.105    20.6817     4.7425     52.561  33.989367     37.180      6.683   283.1224     1.4355     5.7108     0.0233      0.107      4.025      5.838        526 1.6196e+00 0.0000e+00
      4.127    20.6612     3.9096     43.291  34.050227     37.252      6.679   282.8953     1.4194     5.6706     0.0234      0.105      4.045      5.867        527 1.5959e+00 0.0000e+00
      4.143    20.6391     2.9865     33.039  33.948167     37.169      6.679   282.8953     1.4436     5.7108     0.0233      0.102      4.062      5.892        528 1.5841e+00 0.0000e+00
      4.157    20.6201     2.0351     22.495  34.027422     37.217      6.679   282.7439     1.4032     5.4557     0.0233      0.096      4.077      5.914        529 1.5311e+00 0.0000e+00
      4.174    20.6019     1.1333     12.514  33.981262     37.296      6.683   282.4789     1.4032     5.4960     0.0234      0.089      4.093      5.937        530 1.4818e+00 0.0000e+00
      4.191    20.5735     0.3184      3.511  34.094589     37.250      6.679   282.6303     1.4274     5.4154     0.0233      0.080      4.113      5.965        531 1.4300e+00 0.0000e+00
      4.218    20.5286    -0.2471     -2.722  35.280270     38.766      6.685   282.9332     1.4194     5.4154     0.0240      0.075      4.136      5.999        532 1.3724e+00 0.0000e+00
      4.243    20.4847    -0.5873     -6.461  36.361160     39.833      6.683   282.8574     1.3587     5.4423     0.0244      0.075      4.161      6.034        533 1.3492e+00 0.0000e+00
      4.267    20.4501    -0.7277     -7.997  36.545673     40.210      6.682   282.8574     1.3425     5.4826     0.0245      0.077      4.187      6.072        534 1.2799e+00 0.0000e+00
      4.299    20.4164    -0.7276     -7.988  37.186124     40.741      6.683   283.1603     1.3304     5.4691     0.0248      0.083      4.217      6.115        535 1.2402e+00 0.0000e+00
      4.332    20.3782    -0.6817     -7.474  39.568451     43.600      6.677   283.1603     1.3587     5.5094     0.0260      0.093      4.247      6.159        536 1.2026e+00 0.0000e+00
      4.360    20.3326    -0.5711     -6.254  43.607383     47.880      6.666   283.6524     1.2859     5.1066     0.0278      0.101      4.274      6.198        537 1.1453e+00 0.0000e+00
      4.381    20.2873    -0.4389     -4.801  47.319977     52.325      6.651   283.5767     1.2900     4.9857     0.0296      0.106      4.295      6.229        538 1.1218e+00 0.0000e+00
      4.398    20.2439    -0.3145     -3.437  48.537662     53.427      6.637   284.0689     1.2819     5.0395     0.0301      0.105      4.315      6.258        539 1.0938e+00 0.0000e+00
      4.422    20.1903    -0.2180     -2.382  49.688731     54.870      6.626   285.6210     1.2859     5.0395     0.0307      0.102      4.336      6.288        540 1.0788e+00 0.0000e+00
      4.442    20.1278    -0.1362     -1.489  51.199944     56.622      6.614   285.2424     1.2657     4.9455     0.0315      0.098      4.356      6.318        541 1.0211e+00 0.0000e+00
      4.463    20.0655    -0.0615     -0.673  51.761921     57.216      6.601   284.9774     1.2616     4.8112     0.0317      0.093      4.376      6.347        542 9.8020e-01 0.0000e+00
      4.483    20.0067    -0.0027     -0.029  52.432402     58.132      6.578   284.1446     1.2819     4.7843     0.0321      0.087      4.395      6.375        543 9.5125e-01 0.0000e+00
      4.499    19.9508     0.0467      0.510  52.740176     58.492      6.562   284.8260     1.3021     4.8649     0.0322      0.081      4.414      6.401        544 9.2869e-01 0.0000e+00
      4.522    19.8946     0.0788      0.862  53.100560     58.972      6.543   284.7882     1.2738     4.8515     0.0324      0.079      4.434      6.431        545 8.9550e-01 0.0000e+00
      4.545    19.8330     0.1058      1.157  53.913415     59.978      6.519   284.4853     1.3425     4.6232     0.0328      0.080      4.456      6.463        546 8.5974e-01 0.0000e+00
      4.565    19.7710     0.1289      1.409  54.697110     60.895      6.500   281.3810     1.3304     4.6500     0.0332      0.081      4.477      6.493        547 8.3363e-01 0.0000e+00
      4.586    19.7095     0.1434      1.568  55.064174     61.446      6.478   274.9074     1.3547     4.6098     0.0334      0.080      4.497      6.523        548 7.9700e-01 0.0000e+00
      4.606    19.6663     0.1554      1.698  55.089397     61.470      6.464   270.7810     1.3425     4.5695     0.0334      0.081      4.515      6.549        549 7.6878e-01 0.0000e+00
      4.620    19.6613     0.1650      1.802  55.140754     61.709      6.451   268.5474     1.4032     4.8649     0.0335      0.080      4.528      6.568        550 8.0149e-01 0.0000e+00
      4.627    19.6695     0.1705      1.862  54.970618     61.491      6.442   265.9352     1.4517     4.8649     0.0334      0.075      4.536      6.579        551 8.2712e-01 0.0000e+00
      4.631    19.6828     0.1748      1.907  54.885542     61.462      6.436   262.3767     1.4315     4.8783     0.0334      0.068      4.541      6.587        552 7.8784e-01 0.0000e+00
      4.636    19.6959     0.1782      1.942  54.831023     61.360      6.432   259.5752     1.4436     4.7709     0.0334      0.057      4.546      6.594        553 7.9232e-01 0.0000e+00
      4.642    19.7018     0.1720      1.875  54.830655     61.340      6.430   256.7738     1.4032     4.5292     0.0333      0.047      4.551      6.602        554 7.9106e-01 0.0000e+00
      4.647    19.7080     0.1760      1.919  54.856304     61.385      6.430   255.1081     1.4274     4.6098     0.0334      0.037      4.556      6.608        555 7.8310e-01 0.0000e+00
      4.648    19.7095     0.1732      1.888  54.769408     61.220      6.430   252.9502     1.4113     4.6635     0.0333      0.028      4.558      6.612        556 8.1062e-01 0.0000e+00
      4.650    19.7033     0.1711      1.864  54.730985     61.243      6.428   251.2845     1.4396     4.5963     0.0333      0.020      4.563      6.618        557 8.0017e-01 0.0000e+00
      4.662    19.6863     0.1745      1.901  54.725999     61.147      6.431   248.9752     1.3466     5.0126     0.0333      0.018      4.573      6.632        558 7.5347e-01 0.0000e+00
      4.677    19.6672     0.1730      1.883  55.072480     61.625      6.432   246.9688     1.3466     5.0260     0.0335      0.021      4.584      6.649        559 7.5382e-01 0.0000e+00
      4.684    19.6449     0.1747      1.900  55.220087     61.773      6.433   244.9245     1.3506     5.0529     0.0335      0.025      4.593      6.662        560 7.7024e-01 0.0000e+00
      4.691    19.6210     0.1803      1.956  55.492297     62.083      6.431   243.1452     1.3547     4.9857     0.0337      0.028      4.600      6.672        561 7.6107e-01 0.0000e+00
      4.697    19.5905     0.1848      2.001  55.594669     62.330      6.430   240.3816     1.5932     5.0395     0.0338      0.030      4.606      6.681        562 7.3778e-01 0.0000e+00
      4.703    19.5511     0.1911      2.069  55.567703     62.148      6.433   238.0345     1.5973     4.9320     0.0337      0.031      4.612      6.689        563 7.3569e-01 0.0000e+00
      4.708    19.5506     0.1935      2.095  55.704001     62.593      6.431   235.8009     1.6175     5.0395     0.0339      0.032      4.617      6.697        564 7.2712e-01 0.0000e+00
      4.713    19.5618     0.1933      2.091  55.425075     62.059      6.434   236.6337     1.6013     5.0663     0.0336      0.030      4.625      6.707        565 6.9757e-01 0.0000e+00
      4.727    19.5351     0.1889      2.040  55.736719     62.652      6.432   236.2552     1.5851     5.0395     0.0339      0.028      4.637      6.725        566 6.7357e-01 0.0000e+00
      4.745    19.5061     0.1868      2.013  56.266184     63.044      6.433   235.0816     2.0825     5.2946     0.0341      0.030      4.655      6.751        567 6.6344e-01 0.0000e+00
      4.768    19.4936     0.1837      1.976  56.339635     63.334      6.435   235.2330     2.0704     5.1737     0.0342      0.037      4.677      6.783        568 6.7602e-01 0.0000e+00
      4.793    19.4785     0.1753      1.884  55.942209     62.779      6.440   233.3780     2.0866     5.2409     0.0339      0.047      4.701      6.818        569 6.3915e-01 0.0000e+00
      4.820    19.4210     0.1738      1.866  55.988894     62.920      6.440   234.9302     2.0785     5.2543     0.0340      0.060      4.726      6.855        570 6.1658e-01 0.0000e+00
      4.845    19.3054     0.1694      1.817  57.409751     64.484      6.438   235.0816     2.8306     5.5094     0.0347      0.072      4.748      6.887        571 6.2767e-01 0.0000e+00
      4.861    19.2162     0.1639      1.756  58.924404     66.390      6.434   235.3466     2.8589     5.5631     0.0355      0.081      4.764      6.910        572 6.1603e-01 0.0000e+00
      4.868    19.1995     0.1636      1.752  58.913891     66.474      6.429   234.9302     2.8346     5.4960     0.0355      0.083      4.773      6.923        573 5.9178e-01 0.0000e+00
      4.873    19.1999     0.1584      1.696  58.491786     66.103      6.427   234.5516     2.8427     5.4557     0.0353      0.078      4.781      6.934        574 5.7903e-01 0.0000e+00
      4.885    19.1537     0.1591      1.705  58.529308     66.252      6.429   232.2423     3.2633     5.2274     0.0354      0.070      4.793      6.951        575 5.9081e-01 0.0000e+00
      4.902    19.0555     0.1506      1.614  58.896910     66.536      6.427   231.5987     3.2309     5.2812     0.0355      0.062      4.810      6.976        576 5.4953e-01 0.0000e+00
      4.926    18.9598     0.1451      1.555  60.201922     68.219      6.425   230.1601     3.2147     5.2140     0.0362      0.057      4.830      7.006        577 5.2458e-01 0.0000e+00
      4.948    18.8878     0.1443      1.546  60.765454     68.979      6.420   230.6901     3.2430     5.2140     0.0365      0.056      4.850      7.035        578 5.4771e-01 0.0000e+00
      4.962    18.8322     0.1388      1.487  60.897841     69.191      6.418   230.9930     5.2770     5.4691     0.0366      0.057      4.867      7.060        579 5.3951e-01 0.0000e+00
      4.980    18.7821     0.1376      1.472  62.799010     71.538      6.414   230.3116     5.2487     5.4289     0.0376      0.062      4.885      7.086        580 4.9259e-01 0.0000e+00
      5.003    18.7326     0.1352      1.447  64.695480     73.861      6.411   229.1001     5.2527     5.4154     0.0386      0.069      4.904      7.113        581 4.8375e-01 0.0000e+00
      5.018    18.6867     0.1362      1.456  65.101230     74.298      6.408   227.5101     5.2285     5.4691     0.0388      0.074      4.920      7.135        582 4.9156e-01 0.0000e+00
      5.029    18.6591     0.1318      1.408  65.026521     74.382      6.405   226.6394     3.8213     5.2677     0.0388      0.072      4.931      7.152        583 4.7452e-01 0.0000e+00
      5.038    18.6646     0.1344      1.433  64.669693     73.980      6.405   225.3523     3.8294     5.2140     0.0386      0.067      4.938      7.162        584 4.6024e-01 0.0000e+00
      5.040    18.6834     0.1372      1.462  64.149382     73.483      6.404   223.7244     3.8213     5.2812     0.0384      0.059      4.941      7.167        585 4.4255e-01 0.0000e+00
      5.039    18.6987     0.1325      1.412  63.862316     73.088      6.407   222.0587     3.8132     5.1603     0.0382      0.048      4.943      7.170        586 4.6768e-01 0.0000e+00
      5.045    18.7077     0.1348      1.435  63.868629     73.120      6.406   220.3930     3.8091     5.2409     0.0382      0.039      4.949      7.178        587 4.8475e-01 0.0000e+00
      5.055    18.7066     0.1388      1.475  63.844512     73.031      6.409   218.7651     3.4129     5.0663     0.0382      0.031      4.959      7.193        588 4.5595e-01 0.0000e+00
      5.071    18.6840     0.1337      1.420  64.011115     73.207      6.410   217.4022     3.4007     5.0395     0.0383      0.027      4.974      7.214        589 4.3562e-01 0.0000e+00
      5.089    18.6434     0.1365      1.448  64.136488     73.402      6.411   216.0772     3.4331     5.0932     0.0384      0.029      4.989      7.236        590 4.5185e-01 0.0000e+00
      5.102    18.6175     0.1353      1.435  63.926093     73.118      6.411   214.7522     3.4210     5.0529     0.0382      0.034      5.003      7.256        591 4.4543e-01 0.0000e+00
      5.114    18.5840     0.1374      1.457  63.738369     73.061      6.411   214.1465     3.5099     4.3681     0.0382      0.040      5.017      7.276        592 4.3363e-01 0.0000e+00
      5.130    18.5144     0.1327      1.408  63.182153     72.397      6.410   213.2380     3.4857     4.4352     0.0379      0.048      5.032      7.299        593 4.2537e-01 0.0000e+00
      5.150    18.4483     0.1321      1.402  62.687876     71.904      6.412   211.3829     3.4937     4.3546     0.0377      0.056      5.051      7.326        594 3.8733e-01 0.0000e+00
      5.173    18.4146     0.1303      1.381  62.690385     72.023      6.410   209.7172     3.4857     4.4621     0.0377      0.061      5.071      7.356        595 3.8706e-01 0.0000e+00
      5.192    18.3935     0.1277      1.352  62.703906     72.164      6.409   209.3387     3.5099     3.8041     0.0377      0.066      5.090      7.382        596 3.8860e-01 0.0000e+00
      5.205    18.3508     0.1315      1.390  62.760197     72.253      6.406   208.5058     3.4978     3.7235     0.0378      0.067      5.105      7.404        597 3.7326e-01 0.0000e+00
      5.219    18.2932     0.1249      1.318  62.828254     72.414      6.407   203.2815     3.4614     3.7907     0.0378      0.067      5.121      7.427        598 3.6567e-01 0.0000e+00
      5.242    18.2403     0.1331      1.401  62.856823     72.455      6.410   202.7893     3.4533     3.7638     0.0378      0.070      5.141      7.456        599 3.6917e-01 0.0000e+00
      5.266    18.1982     0.1292      1.358  63.259255     73.068      6.407   202.4486     2.8427     3.2670     0.0381      0.073      5.161      7.485        600 3.4449e-01 0.0000e+00
      5.278    18.1804     0.1259      1.323  63.515435     73.449      6.404   202.5243     2.8468     3.3475     0.0382      0.072      5.175      7.505        601 3.4536e-01 0.0000e+00
      5.285    18.2006     0.1383      1.453  63.280531     73.230      6.405   201.8808     2.8427     3.4012     0.0381      0.068      5.185      7.519        602 3.6395e-01 0.0000e+00
      5.296    18.2237     0.1330      1.396  63.017040     72.969      6.410   201.2372     2.8548     3.4281     0.0380      0.063      5.197      7.536        603 3.2549e-01 0.0000e+00
      5.315    18.2011     0.1366      1.433  63.189979     73.097      6.414   199.9501     2.7214     2.9850     0.0381      0.061      5.213      7.560        604 3.2302e-01 0.0000e+00
      5.335    18.1557     0.1331      1.396  63.599887     73.604      6.414   199.5715     2.7254     2.9447     0.0383      0.061      5.231      7.587        605 3.2552e-01 0.0000e+00
      5.353    18.1102     0.1337      1.401  63.724574     73.711      6.414   198.5493     2.7174     2.9313     0.0383      0.061      5.251      7.616        606 3.3863e-01 0.0000e+00
      5.377    18.0363     0.1352      1.413  63.807009     73.949      6.413   197.4136     2.6850     2.8641     0.0384      0.062      5.275      7.651        607 3.1498e-01 0.0000e+00
      5.408    17.9313     0.1326      1.383  63.527034     73.671      6.407   196.7322     2.7901     3.0253     0.0383      0.068      5.305      7.694        608 2.7389e-01 0.0000e+00
      5.444    17.8248     0.1375      1.433  63.122662     73.307      6.403   195.5586     2.7942     2.9044     0.0381      0.080      5.337      7.740        609 2.9234e-01 0.0000e+00
      5.473    17.7558     0.1422      1.481  62.914445     73.296      6.396   194.0065     2.7780     2.8776     0.0381      0.093      5.363      7.779        610 3.0278e-01 0.0000e+00
      5.491    17.7456     0.1370      1.426  62.954673     73.442      6.397   192.5300     2.7901     2.8641     0.0381      0.100      5.382      7.806        611 2.8453e-01 0.0000e+00
      5.502    17.7374     0.1393      1.450  63.102386     73.861      6.396   190.9400     2.8953     2.6627     0.0383      0.100      5.395      7.825        612 2.5589e-01 0.0000e+00
      5.512    17.6978     0.1407      1.464  63.294952     73.937      6.394   189.0093     2.9236     2.7970     0.0383      0.095      5.407      7.842        613 2.4231e-01 0.0000e+00
      5.527    17.6563     0.1268      1.319  63.754520     74.674      6.395   187.2679     2.9438     2.6896     0.0386      0.088      5.419      7.859        614 2.4712e-01 0.0000e+00
      5.535    17.6279     0.1278      1.330  63.748153     74.579      6.397   185.9050     2.9195     2.6627     0.0386      0.076      5.431      7.876        615 2.5687e-01 0.0000e+00
      5.552    17.5755     0.1254      1.306  63.807796     74.817      6.400   184.0500     2.9155     2.6896     0.0387      0.064      5.447      7.901        616 2.4329e-01 0.0000e+00
      5.578    17.4746     0.1182      1.230  64.333732     75.423      6.397   182.7250     3.0692     2.7433     0.0389      0.058      5.469      7.932        617 2.6044e-01 0.0000e+00
      5.601    17.3832     0.1176      1.223  64.964804     76.303      6.395   181.7029     3.0449     2.7433     0.0393      0.058      5.489      7.961        618 2.7412e-01 0.0000e+00
      5.613    17.3378     0.1209      1.258  65.250069     76.817      6.392   180.7186     3.0409     2.6359     0.0395      0.062      5.501      7.979        619 2.3571e-01 0.0000e+00
      5.616    17.3097     0.1142      1.189  65.226263     76.917      6.391   179.4693     3.0409     2.7164     0.0395      0.062      5.507      7.987        620 2.3667e-01 0.0000e+00
      5.618    17.2875     0.1126      1.175  65.677655     77.561      6.391   178.4850     3.0853     2.6090     0.0398      0.059      5.510      7.990        621 2.4779e-01 0.0000e+00
      5.619    17.2762     0.1100      1.149  66.054686     78.074      6.392   177.3871     3.0732     2.5956     0.0400      0.051      5.510      7.992        622 2.5178e-01 0.0000e+00
      5.620    17.2680     0.1061      1.110  66.182817     78.217      6.393   176.5921     3.1055     2.7433     0.0401      0.042      5.511      7.993        623 2.3576e-01 0.0000e+00
      5.621    17.2718     0.1034      1.083  66.498425     78.665      6.397   175.4564     3.0894     2.6761     0.0403      0.029      5.512      7.995        624 2.2196e-01 0.0000e+00
      5.623    17.2781 -9.990e-29 -9.990e-29  66.434222     78.584      6.401   174.6993     3.0651     2.6224     0.0402      0.017      5.514      7.998        625 2.4298e-01 0.0000e+00
      5.625    17.2694 -9.990e-29 -9.990e-29  66.381536     78.476      6.401   173.7528     3.0287     2.6761     0.0402      0.009      5.516      8.000        626 2.2595e-01 0.0000e+00
      5.626    17.2606 -9.990e-29 -9.990e-29  66.474880     78.662      6.403   172.6550     3.0409     2.6090     0.0403      0.006      5.517      8.001        627 2.4814e-01 0.0000e+00
      5.626    17.2547 -9.990e-29 -9.990e-29  66.139835     78.183      6.403   172.5035     3.0085     2.7433     0.0401      0.005      5.517      8.001        628 2.3440e-01 0.0000e+00
      5.626    17.2645 -9.990e-29 -9.990e-29  65.937096     78.033      6.404   171.5193     3.0409     2.7030     0.0400      0.004      5.517      8.001        629 2.2729e-01 0.0000e+00
      5.626    17.3064 -9.990e-29 -9.990e-29  65.687577     77.712      6.408   170.9514     3.0611     2.7030     0.0398      0.004      5.517      8.001        630 2.4692e-01 0.0000e+00
      5.626    17.3915 -9.990e-29 -9.990e-29  65.202845     77.135      6.407   170.1943     3.0449     2.7433     0.0396      0.003      5.517      8.001        631 2.0719e-01 0.0000e+00
      5.626    17.4422 -9.990e-29 -9.990e-29  65.084906     76.889      6.409   169.0207     3.0368     2.7164     0.0395      0.002      5.518      8.002        632 2.0524e-01 0.0000e+00
      5.628    17.4937 -9.990e-29 -9.990e-29  65.002652     76.707      6.410   168.5285     3.0328     2.6896     0.0394      0.002      5.519      8.005        633 2.2558e-01 0.0000e+00
      5.630    17.5517 -9.990e-29 -9.990e-29  64.622013     76.073      6.410   167.6200     3.0328     2.6896     0.0392      0.002      5.521      8.007        634 2.3627e-01 0.0000e+00
      5.632 -9.990e-29 -9.990e-29 -9.990e-29  64.281394     75.679      6.413   166.5978     3.0409     2.7164     0.0390      0.003      5.523      8.010        635 2.2328e-01 0.0000e+00
      5.633 -9.990e-29 -9.990e-29 -9.990e-29  64.149357     75.305      6.413   166.1435     3.0247     2.7836     0.0389      0.004      5.523      8.011        636 2.1145e-01 0.0000e+00
