* Sea-Bird SBE19plus  Data File:
* FileName = C:\DATA\092719_fcr_0007.hex
* Software version 2.8.0.119 SB_Terminal.dll
* Temperature SN = 7809
* Conductivity SN = 7809
* System UpLoad Time = Sep 28 2019 13:26:58
* <ApplicationData>
* <Seaterm232>
* <SoftwareVersion>2.8.0.119</SoftwareVersion>
* <BuildDate>07-Nov-2018</BuildDate>
* </Seaterm232>
* </ApplicationData>
* cast   7 27 Sep 2019 13:17:03 samples 5944 to 6879, avg = 1, stop = mag switch
# nquan = 16
# nvalues = 817                         
# units = specified
# name 0 = depFM: Depth [fresh water, m]
# name 1 = dz/dtM: Descent Rate [m/s]
# name 2 = sbeox0ML/L: Oxygen, SBE 43 [ml/l]
# name 3 = sbeox0PS: Oxygen, SBE 43 [% saturation]
# name 4 = specc: Specific Conductance [uS/cm]
# name 5 = c0uS/cm: Conductivity [uS/cm]
# name 6 = flECO-AFL: Fluorescence, WET Labs ECO-AFL/FL [mg/m^3]
# name 7 = ph: pH
# name 8 = orp: Oxidation Reduction Potential [mV]
# name 9 = par/sat/log: PAR/Logarithmic, Satlantic
# name 10 = turbWETntu0: Turbidity, WET Labs ECO [NTU]
# name 11 = prdM: Pressure, Strain Gauge [db]
# name 12 = prdE: Pressure, Strain Gauge [psi]
# name 13 = tv290C: Temperature [ITS-90, deg C]
# name 14 = density00: Density [density, kg/m^3]
# name 15 = flag:  0.000e+00
# span 0 =     -0.545,      7.367       
# span 1 =     -0.276,      0.308       
# span 2 =     0.0793,     6.8101       
# span 3 =      1.083,    111.699       
# span 4 =      1.228,    104.295       
# span 5 =   1.094429,  87.336116       
# span 6 =    -2.2153,   236.8778       
# span 7 =      6.331,      8.739       
# span 8 =  -998.1729,   143.0118       
# span 9 = 1.2347e-01, 1.9643e+03       
# span 10 =    -0.5108,   894.4556      
# span 11 =     -0.538,      7.225      
# span 12 =     -0.780,     10.479      
# span 13 =    12.6032,    22.9379      
# span 14 =   997.5716,   999.4937      
# span 15 = 0.0000e+00, 0.0000e+00      
# interval = seconds: 0.25
# start_time = Sep 27 2019 13:17:03 [Instrument's time stamp, header]
# bad_flag = -9.990e-29
# <Sensors count="9" >
#   <sensor Channel="1" >
#     <!-- Count, Temperature -->
#     <TemperatureSensor SensorID="58" >
#       <SerialNumber>7809</SerialNumber>
#       <CalibrationDate>24-Mar-19</CalibrationDate>
#       <A0>1.21792325e-003</A0>
#       <A1>2.81669265e-004</A1>
#       <A2>-1.60333336e-006</A2>
#       <A3>1.98414625e-007</A3>
#       <Slope>1.00000000</Slope>
#       <Offset>0.0000</Offset>
#     </TemperatureSensor>
#   </sensor>
#   <sensor Channel="2" >
#     <!-- Frequency 0, Conductivity -->
#     <ConductivitySensor SensorID="3" >
#       <SerialNumber>7809</SerialNumber>
#       <CalibrationDate>24-Mar-19</CalibrationDate>
#       <UseG_J>1</UseG_J>
#       <!-- Cell const and series R are applicable only for wide range sensors. -->
#       <SeriesR>0.0000</SeriesR>
#       <CellConst>2000.0000</CellConst>
#       <ConductivityType>0</ConductivityType>
#       <Coefficients equation="0" >
#         <A>0.00000000e+000</A>
#         <B>0.00000000e+000</B>
#         <C>0.00000000e+000</C>
#         <D>0.00000000e+000</D>
#         <M>0.0</M>
#         <CPcor>-9.57000000e-008</CPcor>
#       </Coefficients>
#       <Coefficients equation="1" >
#         <G>-1.00589325e+000</G>
#         <H>1.26816302e-001</H>
#         <I>-1.51560448e-004</I>
#         <J>2.67137274e-005</J>
#         <CPcor>-9.57000000e-008</CPcor>
#         <CTcor>3.2500e-006</CTcor>
#         <!-- WBOTC not applicable unless ConductivityType = 1. -->
#         <WBOTC>0.00000000e+000</WBOTC>
#       </Coefficients>
#       <Slope>1.00000000</Slope>
#       <Offset>0.00000</Offset>
#     </ConductivitySensor>
#   </sensor>
#   <sensor Channel="3" >
#     <!-- Count, Pressure, Strain Gauge -->
#     <PressureSensor SensorID="46" >
#       <SerialNumber>7809</SerialNumber>
#       <CalibrationDate>11-Mar-19</CalibrationDate>
#       <PA0>4.56561833e-002</PA0>
#       <PA1>4.85095118e-004</PA1>
#       <PA2>-2.88327090e-012</PA2>
#       <PTEMPA0>-5.48784562e+001</PTEMPA0>
#       <PTEMPA1>5.53756816e+001</PTEMPA1>
#       <PTEMPA2>-5.86727098e-001</PTEMPA2>
#       <PTCA0>5.25246745e+005</PTCA0>
#       <PTCA1>1.22304214e+001</PTCA1>
#       <PTCA2>-3.56745036e-001</PTCA2>
#       <PTCB0>2.51668750e+001</PTCB0>
#       <PTCB1>3.75000000e-004</PTCB1>
#       <PTCB2>0.00000000e+000</PTCB2>
#       <Offset>0.000000</Offset>
#     </PressureSensor>
#   </sensor>
#   <sensor Channel="4" >
#     <!-- A/D voltage 0, Oxygen, SBE 43 -->
#     <OxygenSensor SensorID="38" >
#       <SerialNumber>0434</SerialNumber>
#       <CalibrationDate>13-Apr-19</CalibrationDate>
#       <Use2007Equation>1</Use2007Equation>
#       <CalibrationCoefficients equation="0" >
#         <!-- Coefficients for Owens-Millard equation. -->
#         <Boc>0.0000</Boc>
#         <Soc>0.0000e+000</Soc>
#         <offset>0.0000</offset>
#         <Pcor>0.00e+000</Pcor>
#         <Tcor>0.0000</Tcor>
#         <Tau>0.0</Tau>
#       </CalibrationCoefficients>
#       <CalibrationCoefficients equation="1" >
#         <!-- Coefficients for Sea-Bird equation - SBE calibration in 2007 and later. -->
#         <Soc>4.2007e-001</Soc>
#         <offset>-0.6109</offset>
#         <A>-4.3656e-003</A>
#         <B> 1.7017e-004</B>
#         <C>-2.5341e-006</C>
#         <D0> 2.5826e+000</D0>
#         <D1> 1.92634e-004</D1>
#         <D2>-4.64803e-002</D2>
#         <E> 3.6000e-002</E>
#         <Tau20> 1.1800</Tau20>
#         <H1>-3.3000e-002</H1>
#         <H2> 5.0000e+003</H2>
#         <H3> 1.4500e+003</H3>
#       </CalibrationCoefficients>
#     </OxygenSensor>
#   </sensor>
#   <sensor Channel="5" >
#     <!-- A/D voltage 1, PAR/Logarithmic, Satlantic -->
#     <PARLog_SatlanticSensor SensorID="76" >
#       <SerialNumber>1122</SerialNumber>
#       <CalibrationDate>08-May-2019</CalibrationDate>
#       <a0>9.7456e-001</a0>
#       <a1>8.1640e-001</a1>
#       <Im>1.3589e+000</Im>
#       <Multiplier>1.0000e+000</Multiplier>
#     </PARLog_SatlanticSensor>
#   </sensor>
#   <sensor Channel="6" >
#     <!-- A/D voltage 2, pH -->
#     <pH_Sensor SensorID="43" >
#       <SerialNumber>0363</SerialNumber>
#       <CalibrationDate>15-Apr-19</CalibrationDate>
#       <Slope>4.5952</Slope>
#       <Offset>2.5370</Offset>
#     </pH_Sensor>
#   </sensor>
#   <sensor Channel="7" >
#     <!-- A/D voltage 3, Oxidation Reduction Potential -->
#     <OxidationReductionPotentialSensor SensorID="41" >
#       <SerialNumber>0363</SerialNumber>
#       <CalibrationDate>15-Apr-19</CalibrationDate>
#       <B>2.499480</B>
#       <M>-0.496195</M>
#       <Offset>0.0</Offset>
#     </OxidationReductionPotentialSensor>
#   </sensor>
#   <sensor Channel="8" >
#     <!-- A/D voltage 4, Fluorometer, WET Labs ECO-AFL/FL -->
#     <FluoroWetlabECO_AFL_FL_Sensor SensorID="20" >
#       <SerialNumber>FLNTURT-2496</SerialNumber>
#       <CalibrationDate>08-May-2019</CalibrationDate>
#       <ScaleFactor>5.00000000e+001</ScaleFactor>
#       <!-- Dark output -->
#       <Vblank>0.0550</Vblank>
#     </FluoroWetlabECO_AFL_FL_Sensor>
#   </sensor>
#   <sensor Channel="9" >
#     <!-- A/D voltage 5, Turbidity Meter, WET Labs, ECO-NTU -->
#     <TurbidityMeter SensorID="67" >
#       <SerialNumber>FLNTURT-2496</SerialNumber>
#       <CalibrationDate>08-May-2019</CalibrationDate>
#       <ScaleFactor>189.000000</ScaleFactor>
#       <!-- Dark output -->
#       <DarkVoltage>0.071000</DarkVoltage>
#     </TurbidityMeter>
#   </sensor>
# </Sensors>
# datcnv_date = Sep 28 2019 13:33:41, 7.26.7.129 [datcnv_vars = 15]
# datcnv_in = C:\DATA\092719_fcr_45.hex C:\DATA\SBE19plusV2_7809.xmlcon
# datcnv_skipover = 0
# datcnv_ox_hysteresis_correction = yes
# datcnv_ox_tau_correction = yes
# filter_date = Sep 28 2019 13:35:46, 7.26.7.129
# filter_in = C:\DATA\092719_fcr_45.cnv
# filter_low_pass_tc_A = 0.030
# filter_low_pass_tc_B = 0.150
# filter_low_pass_A_vars = sbeox0ML/L prdM prdE tv290C density00
# filter_low_pass_B_vars = depFM dz/dtM sbeox0PS specc c0uS/cm flECO-AFL ph orp par/sat/log turbWETntu0
# alignctd_date = Sep 28 2019 13:36:15, 7.26.7.129
# alignctd_in = C:\DATA\092719_fcr_45.cnv
# alignctd_adv = dz/dtM 1.000, sbeox0PS 1.000, specc 1.000, c0uS/cm 1.000, flECO-AFL 1.000, ph 1.000, orp 1.000, turbWETntu0 1.000                                                                                                   
# file_type = ascii
*END*
     -0.545 5.2496e-09     6.0634     94.407      1.269   1.130630    -0.3408      6.645  -998.1729 3.0835e+02     0.0460     -0.534     -0.775    19.5272   998.3068 0.0000e+00
     -0.545 5.7746e-08     6.0623     94.409      1.228   1.094429    -0.3551      6.644  -992.1072 3.9750e+02     0.0619     -0.534     -0.775    19.5277   998.3067 0.0000e+00
     -0.545 6.3521e-07     6.0636     94.424      1.230   1.095678    -0.3506      6.648  -991.7078 7.1608e+02    -0.0016     -0.535     -0.775    19.5272   998.3068 0.0000e+00
     -0.545      0.000     6.0637     94.429      1.286   1.145735    -0.2868      6.657  -994.6341 1.1968e+03    -0.1976     -0.535     -0.775    19.5283   998.3065 0.0000e+00
     -0.545      0.000     6.0627     94.434      1.481   1.319497    -0.1732      6.667  -980.6834 1.4002e+03    -0.4403     -0.535     -0.775    19.5277   998.3067 0.0000e+00
     -0.545      0.001     6.0619     94.450      2.377   2.119457    -0.1129      6.702  -746.8874 1.5572e+03    -0.5108     -0.535     -0.777    19.5302   998.3061 0.0000e+00
     -0.545      0.009     6.0646     94.439      9.772   8.727026    -0.0773      6.882  -266.2378 1.7738e+03    -0.1655     -0.534     -0.775    19.5292   998.3065 0.0000e+00
     -0.545      0.037     6.0634     94.399     25.335  22.754988     0.2398      7.285    62.4285 1.8372e+03     3.3416     -0.536     -0.776    19.5364   998.3048 0.0000e+00
     -0.545      0.085     6.0631     94.305     37.240  33.808923     0.8082      7.752   129.3165 1.8438e+03     9.7108     -0.533     -0.773    19.5308   998.3063 0.0000e+00
     -0.542      0.143     6.0648     94.003     40.233  37.088403     1.1166      8.117   124.3490 1.8666e+03    13.1681     -0.538     -0.780    19.5471   998.3026 0.0000e+00
     -0.512      0.202     6.0656     93.369     39.973  37.404858     1.1424      8.373   117.9179 1.8989e+03    13.5501     -0.528     -0.765    19.5283   998.3072 0.0000e+00
     -0.430      0.254     6.0530     92.429     39.517  37.382041     1.1280      8.548   116.8622 1.9176e+03    14.3952     -0.430     -0.624    19.6005   998.3001 0.0000e+00
     -0.324      0.292     5.9769     91.313     39.200  37.320888     1.0994      8.655   115.0261 1.9298e+03    15.8495     -0.308     -0.447    20.2298   998.1752 0.0000e+00
     -0.229      0.308     5.8564     90.193     38.985  37.237063     1.0820      8.714   112.3240 1.9643e+03    16.5825     -0.221     -0.321    21.1303   997.9834 0.0000e+00
     -0.148      0.296     5.7345     89.220     38.810  37.130366     1.0916      8.738   110.4326 1.8979e+03    16.4089     -0.144     -0.210    21.8552   997.8228 0.0000e+00
     -0.073      0.258     5.6174     88.493     38.686  37.046492     1.1543      8.739   109.2790 1.5604e+03    13.8812     -0.068     -0.098    22.3779   997.7039 0.0000e+00
     -0.010      0.209     5.5169     88.038     38.606  36.984692     1.2419      8.731   108.4426 1.2704e+03     9.1895     -0.004     -0.005    22.6480   997.6415 0.0000e+00
      0.037      0.160     5.4329     87.826     38.582  36.954427     1.2753      8.721   107.6340 1.4144e+03     6.6127      0.041      0.060    22.7753   997.6119 0.0000e+00
      0.072      0.113     5.3652     87.837     38.649  36.997918     1.2721      8.709   106.9011 1.5655e+03     6.3547      0.075      0.110    22.8418   997.5964 0.0000e+00
      0.092      0.073     5.3171     88.020     38.739  37.066202     1.2806      8.698   106.3783 1.4635e+03     6.2328      0.096      0.139    22.8790   997.5877 0.0000e+00
      0.097      0.040     5.2882     88.280     38.777  37.081803     1.2923      8.686   105.7863 1.4131e+03     6.0897      0.098      0.141    22.9092   997.5805 0.0000e+00
      0.095      0.015     5.2768     88.666     38.787  37.059572     1.2922      8.673   105.1642 1.4400e+03     6.0335      0.093      0.134    22.8921   997.5845 0.0000e+00
      0.094     -0.002     5.2823     89.445     38.816  37.051255     1.2793      8.661   104.8789 1.4186e+03     6.0447      0.092      0.133    22.8538   997.5935 0.0000e+00
      0.093     -0.011     5.2976     90.545     38.908  37.108141     1.2663      8.651   104.8323 1.4791e+03     6.0288      0.092      0.134    22.8363   997.5977 0.0000e+00
      0.089     -0.012     5.3173     91.535     39.068  37.239543     1.2728      8.641   104.6864 1.5098e+03     6.1363      0.088      0.129    22.8158   997.6025 0.0000e+00
      0.082     -0.009     5.3339     92.275     39.220  37.370500     1.2888      8.628   104.3204 1.3961e+03     6.3933      0.080      0.116    22.7690   997.6135 0.0000e+00
      0.076     -0.005     5.3860     92.752     39.349  37.485497     1.2861      8.612   103.9349 1.4836e+03     6.5149      0.073      0.105    22.7183   997.6253 0.0000e+00
      0.076     -0.001     5.4742     92.832     39.487  37.614343     1.2748      8.598   103.7248 1.5013e+03     6.4919      0.072      0.106    22.6782   997.6347 0.0000e+00
      0.080      0.003     5.5356     92.476     39.597  37.722335     1.3351      8.589   103.5005 1.2641e+03     6.4756      0.078      0.114    22.6502   997.6413 0.0000e+00
      0.084      0.005     5.5800     91.759     39.649  37.775610     1.4601      8.587   103.2017 1.2025e+03     6.5156      0.083      0.122    22.6346   997.6450 0.0000e+00
      0.087      0.005     5.6167     90.775     39.622  37.750677     1.5293      8.586   102.9508 1.3089e+03     6.5487      0.085      0.124    22.6237   997.6476 0.0000e+00
      0.087      0.004     5.6211     89.600     39.549  37.674778     1.5385      8.582   102.7047 1.3459e+03     6.5155      0.086      0.125    22.6207   997.6483 0.0000e+00
      0.086      0.001     5.5970     88.345     39.503  37.619623     1.5284      8.575   102.5489 1.3915e+03     6.4421      0.085      0.123    22.6279   997.6467 0.0000e+00
      0.085     -0.002     5.5509     87.240     39.484  37.591602     1.5111      8.567   102.3570 1.4774e+03     6.3490      0.081      0.119    22.6342   997.6452 0.0000e+00
      0.085     -0.004     5.4892     86.423     39.489  37.589864     1.5118      8.560   102.0195 1.4518e+03     6.3071      0.082      0.120    22.6365   997.6447 0.0000e+00
      0.085     -0.006     5.4190     85.882     39.504  37.598600     1.5194      8.552   101.7383 1.2843e+03     6.2966      0.084      0.122    22.6293   997.6464 0.0000e+00
      0.084     -0.008     5.3373     85.561     39.482  37.570269     1.5337      8.542   101.5383 1.1626e+03     6.3210      0.083      0.121    22.6097   997.6508 0.0000e+00
      0.081     -0.009     5.2690     85.345     39.422  37.501203     1.5545      8.530   101.4081 1.2321e+03     6.4384      0.081      0.117    22.5961   997.6541 0.0000e+00
      0.076     -0.010     5.2221     85.123     39.329  37.398270     1.5625      8.519   102.2291 1.3536e+03     6.5685      0.074      0.107    22.5898   997.6555 0.0000e+00
      0.072     -0.011     5.1899     84.866     39.216  37.277829     1.5700      8.508   112.7543 1.4026e+03     6.6152      0.069      0.100    22.5831   997.6571 0.0000e+00
      0.071     -0.011     5.1747     84.611     39.133  37.187487     1.5666      8.493   132.0461 1.3739e+03     6.5771      0.070      0.101    22.5752   997.6590 0.0000e+00
      0.070     -0.010     5.1656     84.385     39.086  37.131108     1.5393      8.473   142.4118 1.3282e+03     6.5338      0.070      0.102    22.5604   997.6623 0.0000e+00
      0.066     -0.008     5.1547     84.240     39.068  37.103933     1.5170      8.457   143.0118 1.3934e+03     6.5183      0.065      0.094    22.5404   997.6670 0.0000e+00
      0.061     -0.006     5.1396     84.285     39.081  37.112794     1.5138      8.447   142.5708 1.4534e+03     6.5204      0.058      0.083    22.5213   997.6713 0.0000e+00
      0.060     -0.003     5.1249     84.604     39.077  37.111300     1.5182      8.437   141.8979 1.4803e+03     6.5273      0.059      0.085    22.5100   997.6738 0.0000e+00
      0.060      0.002     5.1123     85.169     39.047  37.085877     1.5177      8.426   141.0702 1.4955e+03     6.5688      0.059      0.088    22.4957   997.6772 0.0000e+00
      0.060      0.009     5.1020     85.860     39.020  37.059307     1.5171      8.416   140.3062 1.3133e+03     6.6610      0.057      0.083    22.4765   997.6816 0.0000e+00
      0.063      0.019     5.1029     86.583     39.009  37.043934     1.5194      8.404   139.8020 1.1923e+03     6.7250      0.061      0.088    22.4743   997.6821 0.0000e+00
      0.068      0.028     5.1222     87.316     38.998  37.026945     1.5190      8.387   138.6745 1.2522e+03     6.7530      0.067      0.099    22.4815   997.6805 0.0000e+00
      0.075      0.034     5.1592     87.996     38.954  36.980825     1.5297      8.370   131.2334 1.2631e+03     6.8685      0.071      0.104    22.4840   997.6799 0.0000e+00
      0.087      0.038     5.2042     88.516     38.900  36.930623     1.5533      8.356   117.8034 1.2587e+03     7.0723      0.083      0.120    22.4832   997.6801 0.0000e+00
      0.104      0.036     5.2471     88.828     38.892  36.927747     1.5622      8.347   109.0525 1.3391e+03     7.1851      0.103      0.150    22.4782   997.6814 0.0000e+00
      0.118      0.027     5.2948     88.978     38.907  36.946059     1.5675      8.343   106.2171 1.3955e+03     7.1836      0.118      0.170    22.4662   997.6842 0.0000e+00
      0.125      0.013     5.3396     89.023     38.923  36.961611     1.5660      8.340   104.5142 1.3425e+03     6.8905      0.123      0.179    22.4581   997.6861 0.0000e+00
      0.127     -0.003     5.3720     88.930     38.958  36.988845     1.5353      8.336   103.2621 1.2707e+03     6.3284      0.127      0.183    22.4616   997.6853 0.0000e+00
      0.123     -0.013     5.3888     88.654     38.933  36.957965     1.5077      8.329   102.3486 1.2928e+03     6.0241      0.125      0.181    22.4702   997.6833 0.0000e+00
      0.110     -0.015     5.3945     88.223     38.819  36.842115     1.5011      8.317   101.7299 1.3568e+03     6.0291      0.112      0.161    22.4778   997.6815 0.0000e+00
      0.093     -0.012     5.3994     87.723     38.705  36.730632     1.5081      8.304   101.1152 1.2654e+03     6.1605      0.087      0.126    22.4778   997.6813 0.0000e+00
      0.086     -0.008     5.3956     87.235     38.666  36.689077     1.5231      8.294   100.5953 1.0404e+03     6.3336      0.074      0.108    22.4691   997.6834 0.0000e+00
      0.096     -0.006     5.3795     86.785     38.713  36.720506     1.5349      8.284   100.2627 1.0402e+03     6.4183      0.093      0.135    22.4590   997.6857 0.0000e+00
      0.111     -0.002     5.3521     86.386     38.804  36.793261     1.5293      8.274    99.8465 1.2948e+03     6.4639      0.115      0.167    22.4468   997.6886 0.0000e+00
      0.112      0.007     5.3202     86.092     38.889  36.870521     1.5338      8.264    99.4347 1.4224e+03     6.5571      0.114      0.166    22.4422   997.6897 0.0000e+00
      0.102      0.020     5.2903     85.968     38.904  36.892964     1.5718      8.248    99.0694 1.4045e+03     6.6927      0.100      0.146    22.4441   997.6892 0.0000e+00
      0.091      0.037     5.2652     85.989     38.800  36.810734     1.5891      8.227    98.6994 1.3703e+03     6.7600      0.085      0.124    22.4223   997.6942 0.0000e+00
      0.093      0.055     5.2425     86.024     38.667  36.701460     1.5781      8.206    98.4014 1.4195e+03     6.7481      0.082      0.120    22.3974   997.7000 0.0000e+00
      0.118      0.068     5.2226     85.964     38.614  36.650805     1.5779      8.189    98.1343 1.4744e+03     6.7458      0.109      0.159    22.3947   997.7007 0.0000e+00
      0.160      0.066     5.2140     85.842     38.636  36.642593     1.6223      8.176    97.9651 1.2587e+03     6.7973      0.159      0.231    22.4075   997.6980 0.0000e+00
      0.199      0.041     5.2170     85.769     38.703  36.665598     1.7071      8.165    97.9045 8.8783e+02     6.9120      0.203      0.295    22.4298   997.6930 0.0000e+00
      0.218     -0.000     5.2191     85.810     38.807  36.738477     1.7536      8.152    97.9175 7.4988e+02     6.9859      0.223      0.323    22.4598   997.6861 0.0000e+00
      0.213     -0.044     5.2130     85.947     38.905  36.825525     1.7501      8.135    97.8640 9.1455e+02     6.9698      0.220      0.318    22.4716   997.6834 0.0000e+00
      0.179     -0.072     5.2076     86.136     38.895  36.829456     1.6908      8.112    97.6022 1.2097e+03     6.8811      0.186      0.269    22.4211   997.6949 0.0000e+00
      0.124     -0.076     5.2085     86.324     38.756  36.722561     1.5831      8.090    97.3329 1.4884e+03     6.7977      0.118      0.171    22.3519   997.7106 0.0000e+00
      0.076     -0.058     5.2152     86.455     38.613  36.612133     1.5313      8.071    97.2758 1.6550e+03     6.8141      0.060      0.087    22.3200   997.7176 0.0000e+00
      0.062     -0.028     5.2249     86.508     38.568  36.573362     1.5335      8.054    97.3414 1.8096e+03     6.8168      0.049      0.071    22.3142   997.7190 0.0000e+00
      0.081      0.002     5.2356     86.490     38.598  36.571151     1.5235      8.040    97.2668 1.8319e+03     6.7329      0.074      0.107    22.3326   997.7148 0.0000e+00
      0.113      0.019     5.2448     86.423     38.664  36.585359     1.5142      8.030    97.0614 1.5427e+03     6.6192      0.113      0.165    22.3695   997.7064 0.0000e+00
      0.138      0.019     5.2488     86.387     38.740  36.618144     1.5249      8.020    96.8364 1.2431e+03     6.5228      0.144      0.209    22.4139   997.6963 0.0000e+00
      0.143      0.006     5.2499     86.491     38.796  36.650125     1.5314      8.009    96.6977 1.2345e+03     6.5180      0.149      0.215    22.4297   997.6927 0.0000e+00
      0.128     -0.009     5.2541     86.737     38.806  36.654645     1.5058      7.993    96.7611 1.3451e+03     6.6268      0.129      0.187    22.3769   997.7048 0.0000e+00
      0.105     -0.015     5.2562     87.030     38.748  36.609316     1.4672      7.971    96.8294 1.3106e+03     6.7894      0.101      0.145    22.3004   997.7223 0.0000e+00
      0.087     -0.010     5.2558     87.285     38.661  36.546383     1.4547      7.948    96.7489 1.2912e+03     6.9109      0.079      0.114    22.2478   997.7343 0.0000e+00
      0.086      0.004     5.2648     87.448     38.624  36.528474     1.4680      7.929    96.6478 1.2409e+03     6.9481      0.076      0.110    22.2204   997.7406 0.0000e+00
      0.101      0.019     5.2833     87.481     38.614  36.519750     1.5063      7.918    96.6398 9.2133e+02     6.7808      0.098      0.142    22.2163   997.7416 0.0000e+00
      0.122      0.028     5.3016     87.376     38.614  36.504372     1.5620      7.910    96.7379 6.7340e+02     6.4608      0.122      0.177    22.2289   997.7389 0.0000e+00
      0.137      0.028     5.3147     87.143     38.661  36.532942     1.5869      7.904    96.8016 7.5686e+02     6.2904      0.136      0.197    22.2601   997.7317 0.0000e+00
      0.143      0.023     5.3226     86.845     38.684  36.547794     1.5818      7.898    96.7220 8.3746e+02     6.2619      0.145      0.209    22.2936   997.7240 0.0000e+00
      0.140      0.018     5.3244     86.574     38.624  36.493527     1.5780      7.892    96.6358 8.4012e+02     6.2797      0.139      0.202    22.2896   997.7249 0.0000e+00
      0.133      0.015     5.3213     86.338     38.566  36.448054     1.6022      7.886    96.6192 1.1192e+03     6.4074      0.128      0.185    22.2617   997.7313 0.0000e+00
      0.133      0.016     5.3083     86.065     38.551  36.442305     1.6575      7.877    96.6068 1.3773e+03     6.5936      0.128      0.184    22.2383   997.7367 0.0000e+00
      0.143      0.021     5.2880     85.641     38.535  36.424024     1.6914      7.868    96.6580 1.2079e+03     6.6961      0.140      0.203    22.2272   997.7393 0.0000e+00
      0.156      0.026     5.2713     85.010     38.543  36.417430     1.6997      7.859    96.8084 1.0147e+03     6.7283      0.154      0.223    22.2339   997.7378 0.0000e+00
      0.166      0.029     5.2569     84.275     38.566  36.426040     1.7234      7.849    96.8769 1.0215e+03     6.7533      0.164      0.237    22.2486   997.7344 0.0000e+00
      0.172      0.029     5.2413     83.547     38.547  36.401162     1.7523      7.839    96.7972 1.3174e+03     6.7370      0.169      0.246    22.2658   997.7306 0.0000e+00
      0.177      0.025     5.2184     82.848     38.518  36.370505     1.7635      7.828    96.7060 1.5848e+03     6.6953      0.173      0.251    22.2634   997.7311 0.0000e+00
      0.182      0.021     5.1788     82.184     38.525  36.372727     1.7717      7.817    96.6337 1.3473e+03     6.7077      0.178      0.258    22.2352   997.7375 0.0000e+00
      0.188      0.017     5.1330     81.550     38.521  36.364549     1.8522      7.807    96.6122 1.1823e+03     6.8211      0.184      0.267    22.2168   997.7418 0.0000e+00
      0.193      0.013     5.0899     80.922     38.495  36.335093     1.9910      7.799    96.6172 1.3760e+03     6.9520      0.191      0.277    22.2103   997.7433 0.0000e+00
      0.197      0.009     5.0472     80.291     38.497  36.333928     2.0545      7.790    96.6090 1.4281e+03     6.9799      0.195      0.283    22.2071   997.7441 0.0000e+00
      0.198      0.006     5.0069     79.631     38.515  36.350461     2.0558      7.781    96.6847 1.1740e+03     6.9614      0.194      0.282    22.2037   997.7448 0.0000e+00
      0.197      0.004     4.9702     78.891     38.508  36.344571     2.0670      7.772    96.7587 1.0419e+03     7.0238      0.193      0.280    22.1944   997.7470 0.0000e+00
      0.196      0.002     4.9325     78.093     38.488  36.326191     2.0780      7.765    96.7288 1.1742e+03     7.1447      0.192      0.279    22.1873   997.7486 0.0000e+00
      0.196      0.002     4.8942     77.264     38.482  36.318640     2.0760      7.758    96.7538 1.2327e+03     7.2104      0.191      0.278    22.1841   997.7493 0.0000e+00
      0.197      0.002     4.8569     76.409     38.482  36.316746     2.0682      7.753    96.8892 1.1157e+03     7.2282      0.193      0.280    22.1846   997.7492 0.0000e+00
      0.200      0.002     4.8098     75.596     38.472  36.303296     2.0963      7.748    96.9024 1.0716e+03     7.2938      0.197      0.284    22.1871   997.7486 0.0000e+00
      0.201      0.001     4.7601     74.863     38.454  36.282948     2.1558      7.744    96.8283 1.1500e+03     7.3818      0.199      0.288    22.1870   997.7487 0.0000e+00
      0.201      0.000     4.7114     74.179     38.435  36.261136     2.1901      7.739    96.8531 1.1504e+03     7.4067      0.198      0.286    22.1839   997.7494 0.0000e+00
      0.199     -0.002     4.6567     73.542     38.405  36.229977     2.1892      7.734    96.9446 1.1865e+03     7.3986      0.195      0.283    22.1801   997.7503 0.0000e+00
      0.197     -0.002     4.6064     72.971     38.401  36.223563     2.1797      7.728    97.0739 1.2497e+03     7.5125      0.193      0.279    22.1765   997.7510 0.0000e+00
      0.197     -0.002     4.5640     72.446     38.429  36.247048     2.1886      7.722    97.1254 1.1959e+03     7.7684      0.192      0.278    22.1720   997.7520 0.0000e+00
      0.197     -0.002     4.5225     71.957     38.446  36.260043     2.2013      7.715    97.1369 1.1088e+03     7.9029      0.193      0.280    22.1669   997.7532 0.0000e+00
      0.198     -0.001     4.4826     71.490     38.442  36.253733     2.1947      7.707    97.2134 1.0733e+03     7.8613      0.194      0.281    22.1630   997.7541 0.0000e+00
      0.198      0.000     4.4495     71.015     38.425  36.234221     2.1868      7.700    97.2754 1.1052e+03     7.8232      0.195      0.282    22.1595   997.7549 0.0000e+00
      0.197      0.001     4.4178     70.565     38.407  36.214535     2.1921      7.694    97.2847 1.1303e+03     7.7702      0.193      0.280    22.1555   997.7558 0.0000e+00
      0.196      0.002     4.3879     70.165     38.402  36.206117     2.1978      7.686    97.3260 1.1200e+03     7.6790      0.192      0.278    22.1519   997.7566 0.0000e+00
      0.196      0.002     4.3620     69.773     38.393  36.195912     2.1865      7.679    97.4309 1.1714e+03     7.6374      0.191      0.277    22.1485   997.7574 0.0000e+00
      0.198      0.003     4.3314     69.366     38.419  36.218092     2.1770      7.672    97.5199 1.2445e+03     7.6282      0.193      0.280    22.1442   997.7584 0.0000e+00
      0.200      0.004     4.3034     68.983     38.624  36.410809     2.1782      7.666    97.6280 1.2298e+03     7.6003      0.197      0.286    22.1397   997.7595 0.0000e+00
      0.201      0.006     4.2812     68.764     38.973  36.748809     2.1756      7.660    97.6195 1.1850e+03     7.5945      0.198      0.287    22.1366   997.7602 0.0000e+00
      0.201      0.006     4.2578     69.266     39.206  37.004260     2.1798      7.653    97.5029 1.1273e+03     7.6242      0.197      0.285    22.1335   997.7608 0.0000e+00
      0.203      0.006     4.2326     71.623     39.231  37.087525     2.1858      7.644    97.5085 1.0675e+03     7.6308      0.197      0.287    22.1314   997.7613 0.0000e+00
      0.206      0.005     4.2071     76.574     39.141  37.057421     2.1876      7.632    97.6012 1.0184e+03     7.5773      0.203      0.294    22.1275   997.7623 0.0000e+00
      0.208      0.003     4.1871     83.602     39.067  37.021203     2.1927      7.618    97.7641 1.0217e+03     7.4685      0.205      0.297    22.1256   997.7629 0.0000e+00
      0.208      0.002     4.1819     91.359     39.059  37.030516     2.1955      7.607    97.9294 1.0969e+03     7.3962      0.203      0.295    22.1717   997.7525 0.0000e+00
      0.208      0.001     4.2950     98.530     39.064  37.043101     2.1950      7.599    98.0506 1.1203e+03     7.4252      0.206      0.298    22.2682   997.7303 0.0000e+00
      0.208      0.001     4.6064    104.404     39.067  37.046422     2.1872      7.592    98.1972 1.1158e+03     7.5558      0.205      0.297    22.3452   997.7126 0.0000e+00
      0.205      0.001     5.0608    108.640     39.096  37.070664     2.1795      7.584    98.3260 1.1317e+03     7.7636      0.201      0.290    22.3829   997.7039 0.0000e+00
      0.205      0.002     5.5635    111.044     39.110  37.082310     2.1800      7.577    98.4026 1.1535e+03     7.9054      0.200      0.291    22.4025   997.6994 0.0000e+00
      0.208      0.002     6.0084    111.699     39.087  37.060278     2.1835      7.572    98.3497 1.1597e+03     7.9270      0.204      0.295    22.4107   997.6975 0.0000e+00
      0.210      0.002     6.3709    111.020     39.087  37.058181     2.2055      7.569    98.2022 1.1399e+03     7.7297      0.207      0.300    22.4100   997.6976 0.0000e+00
      0.211      0.002     6.6351    109.654     39.091  37.056941     2.2378      7.566    98.1682 1.1130e+03     7.3546      0.208      0.302    22.4036   997.6991 0.0000e+00
      0.211      0.002     6.7786    108.175     39.082  37.045277     2.2438      7.562    98.2827 1.0873e+03     7.1611      0.208      0.301    22.4020   997.6996 0.0000e+00
      0.210      0.001     6.8101    106.897     39.082  37.044103     2.2353      7.556    98.3814 1.0874e+03     7.1917      0.206      0.298    22.4047   997.6989 0.0000e+00
      0.210      0.000     6.7529    105.892     39.083  37.042749     2.2389      7.549    98.3302 1.0624e+03     7.2338      0.205      0.297    22.4001   997.6999 0.0000e+00
      0.211      0.000     6.6588    105.117     39.073  37.028902     2.2352      7.543    98.2656 1.0199e+03     7.3092      0.207      0.299    22.3910   997.7020 0.0000e+00
      0.212      0.001     6.5624    104.524     39.049  37.003627     2.2074      7.539    98.3739 1.0420e+03     7.4808      0.208      0.301    22.3890   997.7025 0.0000e+00
      0.212      0.002     6.4845    104.108     39.042  36.991038     2.1806      7.537    98.6076 1.0772e+03     7.6038      0.208      0.301    22.3900   997.7023 0.0000e+00
      0.211      0.004     6.4250    103.856     39.064  37.003630     2.1805      7.534    98.7676 1.0924e+03     7.6493      0.207      0.300    22.3849   997.7035 0.0000e+00
      0.211      0.004     6.3806    103.730     39.098  37.028905     2.2056      7.529    98.7611 1.0701e+03     7.6716      0.206      0.299    22.3781   997.7050 0.0000e+00
      0.213      0.004     6.3442    103.667     39.116  37.042743     2.2331      7.524    98.7865 1.0266e+03     7.6441      0.208      0.302    22.3760   997.7055 0.0000e+00
      0.216      0.004     6.3198    103.605     39.117  37.043991     2.2432      7.522    98.9025 1.0373e+03     7.6116      0.212      0.308    22.3708   997.7067 0.0000e+00
      0.218      0.004     6.3074    103.546     39.116  37.043991     2.2419      7.518    98.9587 1.0489e+03     7.6382      0.215      0.311    22.3575   997.7098 0.0000e+00
      0.217      0.004     6.3017    103.509     39.110  37.042752     2.2436      7.514    99.0363 1.1156e+03     7.6715      0.212      0.308    22.3457   997.7125 0.0000e+00
      0.216      0.003     6.3007    103.474     39.090  37.029017     2.2464      7.509    99.0661 1.2160e+03     7.6534      0.211      0.306    22.3444   997.7128 0.0000e+00
      0.218      0.002     6.2956    103.402     39.061  37.004877     2.2491      7.504    98.9741 1.1790e+03     7.6162      0.214      0.310    22.3457   997.7126 0.0000e+00
      0.220      0.002     6.2919    103.272     39.061  37.004773     2.2499      7.501    98.9568 1.0997e+03     7.5814      0.216      0.313    22.3444   997.7128 0.0000e+00
      0.221      0.002     6.2895    103.088     39.087  37.027759     2.2566      7.498    99.0290 1.0479e+03     7.4955      0.218      0.315    22.3502   997.7115 0.0000e+00
      0.220      0.003     6.2869    102.891     39.090  37.028894     2.2869      7.496    99.0735 1.0498e+03     7.3314      0.216      0.313    22.3608   997.7091 0.0000e+00
      0.219      0.003     6.2827    102.728     39.080  37.018498     2.3122      7.494    99.0640 1.1158e+03     7.2032      0.213      0.309    22.3642   997.7082 0.0000e+00
      0.219      0.002     6.2750    102.626     39.091  37.029008     2.3113      7.491    99.0860 1.1043e+03     7.1917      0.214      0.311    22.3623   997.7087 0.0000e+00
      0.222      0.002     6.2630    102.592     39.087  37.029016     2.3020      7.488    99.1678 1.0563e+03     7.2906      0.219      0.317    22.3607   997.7092 0.0000e+00
      0.224      0.002     6.2499    102.617     39.071  37.018611     2.3043      7.484    99.2784 1.0407e+03     7.4149      0.222      0.322    22.3584   997.7097 0.0000e+00
      0.224      0.002     6.2401    102.696     39.082  37.030151     2.3222      7.480    99.3911 9.9363e+02     7.4492      0.220      0.320    22.3569   997.7100 0.0000e+00
      0.223      0.001     6.2336    102.791     39.097  37.041597     2.3267      7.478    99.4118 9.4385e+02     7.4104      0.217      0.315    22.3555   997.7102 0.0000e+00
      0.222      0.001     6.2315    102.895     39.086  37.030049     2.3077      7.474    99.3570 9.4070e+02     7.3716      0.217      0.316    22.3615   997.7089 0.0000e+00
      0.223      0.002     6.2313    103.035     39.070  37.017476     2.2914      7.471    99.3306 8.7717e+02     7.3736      0.219      0.318    22.3711   997.7067 0.0000e+00
      0.224      0.004     6.2375    103.163     39.066  37.016531     2.2942      7.471    99.3505 8.4094e+02     7.4013      0.220      0.319    22.3713   997.7066 0.0000e+00
      0.224      0.005     6.2445    103.231     39.067  37.018632     2.3072      7.467    99.4259 9.6781e+02     7.4119      0.221      0.320    22.3657   997.7080 0.0000e+00
      0.225      0.003     6.2489    103.233     39.093  37.042876     2.3096      7.461    99.4669 1.0329e+03     7.4041      0.220      0.319    22.3623   997.7087 0.0000e+00
      0.229      0.000     6.2592    103.166     39.103  37.055769     2.3051      7.456    99.5029 9.4774e+02     7.4053      0.224      0.325    22.3669   997.7076 0.0000e+00
      0.232     -0.003     6.2674    103.064     39.089  37.047575     2.3054      7.452    99.6039 8.0838e+02     7.3925      0.230      0.333    22.3738   997.7061 0.0000e+00
      0.231     -0.005     6.2708    102.981     39.110  37.070762     2.3051      7.449    99.5695 7.6569e+02     7.3805      0.229      0.333    22.3732   997.7062 0.0000e+00
      0.223     -0.007     6.2722    102.929     39.123  37.082229     2.3093      7.446    99.4310 8.6708e+02     7.3915      0.217      0.316    22.3712   997.7067 0.0000e+00
      0.218     -0.010     6.2666    102.901     39.104  37.059264     2.3138      7.443    99.4780 9.3201e+02     7.2638      0.211      0.306    22.3751   997.7058 0.0000e+00
      0.219     -0.015     6.2575    102.873     39.094  37.046988     2.3163      7.439    99.6206 9.4402e+02     7.0492      0.214      0.311    22.3838   997.7037 0.0000e+00
      0.220     -0.021     6.2520    102.798     39.107  37.060753     2.3217      7.434    99.6929 1.0589e+03     6.9593      0.217      0.315    22.3910   997.7021 0.0000e+00
      0.216     -0.031     6.2492    102.677     39.137  37.098745     2.3178      7.429    99.7499 1.2590e+03     6.9316      0.214      0.310    22.3887   997.7026 0.0000e+00
      0.208     -0.045     6.2486    102.566     39.147  37.125515     2.2956      7.425    99.7078 1.4053e+03     6.8449      0.205      0.297    22.3801   997.7045 0.0000e+00
      0.195     -0.066     6.2493    102.488     39.132  37.130554     2.2607      7.423    99.5276 1.4489e+03     6.6975      0.194      0.281    22.3741   997.7059 0.0000e+00
      0.176     -0.091     6.2449    102.445     39.142  37.159707     2.2435      7.424    99.3785 1.4272e+03     6.6566      0.176      0.254    22.3752   997.7056 0.0000e+00
      0.152     -0.110     6.2340    102.472     39.184  37.224123     2.2347      7.427    99.3666 1.4473e+03     6.7435      0.149      0.215    22.3865   997.7029 0.0000e+00
      0.123     -0.110     6.2242    102.627     39.203  37.274702     2.0934      7.427    99.3843 1.5164e+03     6.7650      0.124      0.180    22.4116   997.6970 0.0000e+00
      0.080     -0.089     6.2165    102.942     39.161  37.263494     1.8364      7.427    99.5065 1.6009e+03     6.7199      0.087      0.126    22.4390   997.6904 0.0000e+00
      0.027     -0.057     6.2106    103.378     39.103  37.215603     1.7016      7.430    99.6393 1.6394e+03     6.6901      0.018      0.025    22.4593   997.6854 0.0000e+00
      0.001     -0.028     6.2072    103.846     39.103  37.203457     1.6950      7.433    99.4416 1.4604e+03     6.6998     -0.023     -0.033    22.4892   997.6783 0.0000e+00
      0.024     -0.016     6.2099    104.256     39.156  37.243568     1.6957      7.436    99.1811 1.2276e+03     6.7068      0.016      0.024    22.5360   997.6677 0.0000e+00
      0.068     -0.029     6.2246    104.579     39.225  37.319728     1.6932      7.439    99.0716 1.3324e+03     6.5769      0.077      0.112    22.5829   997.6570 0.0000e+00
      0.092     -0.069     6.2516    104.842     39.298  37.426088     1.6995      7.442    98.9781 1.6117e+03     6.3745      0.106      0.154    22.5940   997.6546 0.0000e+00
      0.076     -0.132     6.2860    105.068     39.334  37.514008     1.7023      7.442    98.6521 1.7036e+03     6.3250      0.091      0.130    22.5638   997.6615 0.0000e+00
      0.016     -0.201     6.3139    105.215     39.319  37.557664     1.6143      7.438    97.7114 1.7099e+03     6.7651      0.027      0.038    22.5418   997.6663 0.0000e+00
     -0.076     -0.255     6.3312    105.214     39.274  37.573164     0.6348      7.436    96.6376 1.7875e+03    11.7281     -0.069     -0.101    22.5528   997.6633 0.0000e+00
     -0.177     -0.276     6.3397    105.037     39.230  37.574556    -1.1665      7.434    96.3383 1.8400e+03    20.8443     -0.180     -0.262    22.6070   997.6502 0.0000e+00
     -0.263     -0.261     6.3451    104.598     39.204  37.574566    -2.1580      7.429    96.8453 1.8182e+03    25.7824     -0.269     -0.390    22.6809   997.6327 0.0000e+00
     -0.326     -0.216     6.3483    103.796     39.190  37.573306    -2.2153      7.424    97.6914 1.7912e+03    25.8818     -0.321     -0.466    22.7524   997.6158 0.0000e+00
     -0.376     -0.156     6.3369    102.656     39.175  37.559342    -1.8427      7.421    98.3947 1.7760e+03    22.2099     -0.375     -0.542    22.8376   997.5954 0.0000e+00
     -0.407     -0.096     6.3215    101.271     39.152  37.532677    -1.1282      7.418    98.4658 1.7869e+03    15.5674     -0.410     -0.595    22.8944   997.5819 0.0000e+00
     -0.416     -0.049     6.2960     99.770     39.130  37.504797    -0.2789      7.416    98.2069 1.6858e+03    13.7009     -0.412     -0.598    22.9196   997.5760 0.0000e+00
     -0.411     -0.018     6.2437     98.307     39.108  37.476146     5.2531      7.416    98.5341 1.5683e+03    33.7909     -0.407     -0.590    22.9379   997.5716 0.0000e+00
     -0.399      0.006     6.1737     96.992     39.083  37.440141    65.8191      7.415    99.8404 1.7033e+03   258.6372     -0.391     -0.567    22.9350   997.5723 0.0000e+00
     -0.390      0.027     6.0890     95.909     39.045  37.386826   176.8083      7.410   101.6123 1.8262e+03   670.7938     -0.376     -0.545    22.9263   997.5745 0.0000e+00
     -0.391      0.055     5.9954     95.107     39.020  37.339293   236.8758      7.401   102.5775 1.8232e+03   893.8698     -0.383     -0.555    22.9197   997.5760 0.0000e+00
     -0.394      0.097     5.9071     94.534     39.015  37.309709   236.8778      7.394   102.3036 1.8458e+03   894.4556     -0.392     -0.569    22.9091   997.5784 0.0000e+00
     -0.381      0.152     5.8278     94.117     39.008  37.282994   176.8934      7.394   101.6575 1.8715e+03   678.4012     -0.383     -0.555    22.8958   997.5816 0.0000e+00
     -0.340      0.212     5.7630     93.761     39.009  37.270152    66.0759      7.400   101.1320 1.8928e+03   279.0755     -0.347     -0.502    22.8739   997.5870 0.0000e+00
     -0.268      0.266     5.7205     93.316     39.029  37.281359     5.6226      7.409   100.6817 1.9098e+03    61.1460     -0.274     -0.396    22.8408   997.5951 0.0000e+00
     -0.168      0.300     5.6911     92.686     39.044  37.291537     0.1385      7.417   100.3431 1.9093e+03    41.2623     -0.168     -0.243    22.8068   997.6036 0.0000e+00
     -0.060      0.306     5.6701     91.875     39.019  37.266252    -0.3105      7.425   100.2216 1.8446e+03    38.7284     -0.053     -0.076    22.7803   997.6102 0.0000e+00
      0.032      0.283     5.6546     90.925     38.981  37.229540     0.1858      7.430   100.2449 1.5996e+03    30.4113      0.041      0.060    22.7641   997.6145 0.0000e+00
      0.101      0.236     5.6313     89.898     38.981  37.228500     1.1708      7.433   100.1949 1.1466e+03    15.4866      0.104      0.151    22.7551   997.6169 0.0000e+00
      0.151      0.178     5.5928     88.850     39.008  37.253670     1.7150      7.433   100.2186 7.6258e+02     7.3562      0.153      0.222    22.7498   997.6184 0.0000e+00
      0.185      0.123     5.5436     87.816     39.036  37.279984     1.7724      7.434   100.3600 6.4621e+02     6.5996      0.189      0.274    22.7474   997.6191 0.0000e+00
      0.201      0.081     5.4847     86.840     39.051  37.292764     1.7955      7.435   100.9579 6.7529e+02     6.5348      0.202      0.292    22.7467   997.6193 0.0000e+00
      0.205      0.053     5.4216     85.978     39.046  37.281233     1.8382      7.435   108.3947 8.2230e+02     6.5389      0.201      0.292    22.7468   997.6192 0.0000e+00
      0.207      0.038     5.3581     85.274     39.049  37.267501     1.8725      7.433   115.7675 9.8822e+02     6.5518      0.202      0.293    22.7465   997.6194 0.0000e+00
      0.213      0.032     5.2947     84.719     39.057  37.253656     1.8887      7.430   109.9998 9.4876e+02     6.5593      0.207      0.299    22.7454   997.6196 0.0000e+00
      0.223      0.030     5.2347     84.301     39.063  37.240754     1.9395      7.428   103.0149 7.6982e+02     6.6302      0.218      0.315    22.7468   997.6193 0.0000e+00
      0.236      0.031     5.1815     84.046     39.076  37.238429     2.0272      7.426   101.7797 7.4288e+02     6.8182      0.232      0.335    22.7413   997.6207 0.0000e+00
      0.248      0.032     5.1424     83.999     39.072  37.225525     2.0727      7.424   101.3457 9.0267e+02     6.9643      0.244      0.354    22.7162   997.6266 0.0000e+00
      0.254      0.034     5.1125     84.232     39.063  37.211666     2.0734      7.421   101.7247 8.8345e+02     7.0206      0.250      0.363    22.6841   997.6342 0.0000e+00
      0.255      0.038     5.0888     84.788     39.052  37.197797     2.0884      7.420   102.3186 7.8712e+02     7.0402      0.250      0.363    22.6590   997.6401 0.0000e+00
      0.260      0.044     5.0742     85.534     39.041  37.184788     2.1154      7.418   102.9337 7.8845e+02     7.0050      0.251      0.365    22.6416   997.6442 0.0000e+00
      0.272      0.054     5.0714     86.327     39.036  37.181315     2.1215      7.416   103.4832 7.2907e+02     6.9552      0.265      0.384    22.6312   997.6466 0.0000e+00
      0.291      0.065     5.0830     87.173     39.006  37.155810     2.1190      7.413   103.8012 7.0055e+02     6.9292      0.286      0.414    22.6241   997.6483 0.0000e+00
      0.311      0.075     5.1215     88.086     38.977  37.130305     2.1026      7.410   104.1114 6.3851e+02     6.8546      0.304      0.440    22.6195   997.6495 0.0000e+00
      0.332      0.080     5.1716     89.016     38.973  37.126842     2.0538      7.407   104.4812 5.9825e+02     6.7418      0.324      0.470    22.6164   997.6503 0.0000e+00
      0.357      0.079     5.2171     89.879     38.959  37.113937     2.0226      7.407   104.7438 6.7709e+02     6.7119      0.350      0.510    22.6171   997.6503 0.0000e+00
      0.380      0.072     5.2678     90.574     38.946  37.101223     2.0117      7.409   104.8768 7.0043e+02     6.7230      0.374      0.543    22.6234   997.6489 0.0000e+00
      0.400      0.062     5.3235     90.987     38.946  37.100066     1.9737      7.411   104.9716 6.4605e+02     6.6792      0.394      0.572    22.6266   997.6482 0.0000e+00
      0.415      0.051     5.3819     91.055     38.947  37.099951     1.9188      7.414   105.2011 6.1033e+02     6.5766      0.409      0.593    22.6267   997.6483 0.0000e+00
      0.424      0.041     5.4356     90.781     38.949  37.099828     1.8855      7.416   105.5876 6.6175e+02     6.4980      0.417      0.604    22.6272   997.6482 0.0000e+00
      0.429      0.036     5.4808     90.214     38.950  37.098568     1.8746      7.415   105.9440 7.2300e+02     6.5146      0.423      0.614    22.6271   997.6482 0.0000e+00
      0.433      0.034     5.5072     89.410     38.938  37.084720     1.8736      7.412   106.1554 6.9372e+02     6.5484      0.424      0.616    22.6259   997.6485 0.0000e+00
      0.438      0.033     5.5112     88.439     38.914  37.059330     1.9348      7.412   106.3359 6.6455e+02     6.5466      0.427      0.619    22.6234   997.6491 0.0000e+00
      0.451      0.032     5.4939     87.426     38.905  37.045472     2.0594      7.414   106.4920 6.9295e+02     6.5260      0.440      0.637    22.6211   997.6497 0.0000e+00
      0.466      0.028     5.4584     86.589     38.911  37.044110     2.1309      7.415   106.5812 6.7835e+02     6.4952      0.460      0.668    22.6183   997.6505 0.0000e+00
      0.476      0.021     5.4094     86.199     38.917  37.042852     2.1328      7.417   106.6399 6.9121e+02     6.5019      0.470      0.682    22.6151   997.6513 0.0000e+00
      0.479      0.008     5.3480     86.361     38.908  37.030251     2.0733      7.417   106.5134 7.6818e+02     6.4755      0.468      0.680    22.6132   997.6516 0.0000e+00
      0.479     -0.011     5.2833     86.946     38.898  37.018700     1.9572      7.416   106.3423 7.6954e+02     6.3726      0.472      0.685    22.6073   997.6530 0.0000e+00
      0.477     -0.030     5.2263     87.746     38.911  37.030127     1.8916      7.415   106.3780 7.1557e+02     6.3073      0.469      0.680    22.5953   997.6559 0.0000e+00
      0.468     -0.041     5.2010     88.585     38.926  37.041468     1.8782      7.415   106.5142 7.0614e+02     6.3080      0.463      0.672    22.5861   997.6579 0.0000e+00
      0.449     -0.043     5.2154     89.353     38.917  37.028868     1.8294      7.417   106.6992 8.4408e+02     6.4468      0.444      0.644    22.5817   997.6589 0.0000e+00
      0.425     -0.038     5.2556     89.964     38.895  37.004728     1.7529      7.420   106.8937 9.5767e+02     6.6734      0.411      0.597    22.5792   997.6593 0.0000e+00
      0.409     -0.028     5.3082     90.329     38.895  37.003478     1.7155      7.421   107.0594 8.4226e+02     6.7549      0.396      0.574    22.5785   997.6595 0.0000e+00
      0.408     -0.016     5.3612     90.380     38.905  37.013761     1.7153      7.421   107.2398 7.2083e+02     6.7109      0.398      0.576    22.5748   997.6603 0.0000e+00
      0.414     -0.002     5.4100     90.103     38.892  37.002105     1.7415      7.423   107.3535 7.1831e+02     6.6335      0.405      0.588    22.5683   997.6618 0.0000e+00
      0.421      0.010     5.4493     89.505     38.879  36.989505     1.7990      7.426   107.4889 7.4619e+02     6.5403      0.414      0.601    22.5647   997.6628 0.0000e+00
      0.426      0.016     5.4735     88.650     38.878  36.988358     1.8390      7.426   107.7572 8.1547e+02     6.5006      0.419      0.607    22.5630   997.6631 0.0000e+00
      0.427      0.017     5.4762     87.636     38.879  36.988240     1.8427      7.427   108.0166 8.3920e+02     6.5140      0.419      0.608    22.5634   997.6630 0.0000e+00
      0.429      0.016     5.4595     86.497     38.879  36.988074     1.8527      7.427   108.2160 7.2293e+02     6.5064      0.420      0.608    22.5650   997.6627 0.0000e+00
      0.434      0.014     5.4224     85.262     38.879  36.986342     1.8912      7.426   108.4474 7.1453e+02     6.4741      0.425      0.617    22.5651   997.6626 0.0000e+00
      0.440      0.012     5.3669     84.013     38.860  36.967300     1.9265      7.423   108.6633 8.2834e+02     6.4838      0.431      0.626    22.5644   997.6628 0.0000e+00
      0.445      0.010     5.3062     82.849     38.842  36.948257     1.9415      7.421   108.7616 8.2604e+02     6.5257      0.438      0.634    22.5636   997.6630 0.0000e+00
      0.448      0.009     5.2370     81.847     38.842  36.946513     1.9507      7.420   108.9482 7.7778e+02     6.5217      0.441      0.640    22.5623   997.6633 0.0000e+00
      0.447      0.011     5.1602     80.994     38.843  36.946214     1.9687      7.420   109.2848 7.9573e+02     6.5002      0.439      0.638    22.5610   997.6636 0.0000e+00
      0.445      0.016     5.0828     80.241     38.844  36.944639     1.9940      7.417   109.5623 8.0473e+02     6.5280      0.435      0.631    22.5591   997.6641 0.0000e+00
      0.446      0.023     5.0104     79.603     38.829  36.927469     2.0054      7.412   109.6351 6.9450e+02     6.5636      0.433      0.628    22.5562   997.6648 0.0000e+00
      0.454      0.031     4.9505     79.088     38.834  36.929024     2.0105      7.404   109.6482 5.6558e+02     6.5702      0.444      0.644    22.5542   997.6652 0.0000e+00
      0.468      0.037     4.9012     78.646     38.873  36.963438     2.0465      7.398   109.8071 5.4333e+02     6.5095      0.458      0.665    22.5526   997.6657 0.0000e+00
      0.483      0.039     4.8545     78.224     38.876  36.962723     2.1035      7.397   109.9221 5.7695e+02     6.3868      0.473      0.686    22.5511   997.6661 0.0000e+00
      0.496      0.036     4.8156     77.790     38.836  36.920365     2.1271      7.399   109.9199 6.4545e+02     6.2990      0.489      0.710    22.5472   997.6671 0.0000e+00
      0.505      0.028     4.7868     77.362     38.811  36.895605     2.1241      7.404   109.9528 7.3010e+02     6.2675      0.498      0.721    22.5415   997.6685 0.0000e+00
      0.510      0.020     4.7610     76.961     38.836  36.917248     2.1277      7.410   110.0616 7.2041e+02     6.2680      0.500      0.725    22.5382   997.6692 0.0000e+00
      0.513      0.017     4.7371     76.587     38.849  36.928145     2.1273      7.415   110.2027 6.2029e+02     6.2725      0.504      0.731    22.5338   997.6702 0.0000e+00
      0.512      0.022     4.7107     76.257     38.823  36.900414     2.1282      7.420   110.3680 5.4428e+02     6.2886      0.503      0.731    22.5279   997.6716 0.0000e+00
      0.509      0.036     4.6840     75.966     38.824  36.899311     2.1384      7.422   110.5980 5.1251e+02     6.3325      0.496      0.721    22.5259   997.6721 0.0000e+00
      0.514      0.056     4.6608     75.715     38.844  36.914814     2.1819      7.420   110.9190 5.0560e+02     6.4421      0.498      0.723    22.5253   997.6722 0.0000e+00
      0.531      0.076     4.6370     75.539     38.829  36.897434     2.2632      7.415   111.2380 5.0709e+02     6.5980      0.516      0.749    22.5222   997.6731 0.0000e+00
      0.560      0.093     4.6179     75.423     38.814  36.879579     2.3066      7.408   111.3571 4.9158e+02     6.6765      0.546      0.792    22.5179   997.6741 0.0000e+00
      0.596      0.101     4.6012     75.333     38.828  36.889349     2.3080      7.403   111.4128 4.8907e+02     6.7031      0.583      0.846    22.5154   997.6749 0.0000e+00
      0.632      0.096     4.5842     75.300     38.829  36.888611     2.3150      7.403   111.6534 5.0855e+02     6.6251      0.622      0.901    22.5119   997.6760 0.0000e+00
      0.661      0.083     4.5749     75.404     38.814  36.870657     2.3220      7.405   111.9432 5.0161e+02     6.4212      0.654      0.948    22.5061   997.6774 0.0000e+00
      0.679      0.063     4.5697     75.675     38.809  36.862682     2.3233      7.407   112.0772 4.6991e+02     6.3030      0.670      0.971    22.5014   997.6785 0.0000e+00
      0.686      0.042     4.5636     76.071     38.805  36.855653     2.3218      7.410   112.0683 4.8787e+02     6.2774      0.673      0.977    22.4984   997.6793 0.0000e+00
      0.689      0.026     4.5598     76.547     38.803  36.849147     2.3214      7.414   112.0946 5.4227e+02     6.2756      0.677      0.981    22.4954   997.6799 0.0000e+00
      0.691      0.017     4.5651     77.075     38.805  36.847473     2.3617      7.416   112.1372 5.4053e+02     6.4121      0.678      0.983    22.4917   997.6808 0.0000e+00
      0.692      0.018     4.5838     77.657     38.798  36.835403     2.4451      7.416   112.1529 4.9487e+02     6.6165      0.678      0.985    22.4879   997.6817 0.0000e+00
      0.693      0.030     4.6092     78.374     38.800  36.830153     2.4880      7.412   112.2852 4.5741e+02     6.6830      0.680      0.987    22.4830   997.6829 0.0000e+00
      0.696      0.050     4.6384     79.210     38.826  36.847464     2.4820      7.404   112.5318 4.4327e+02     6.6588      0.679      0.986    22.4769   997.6843 0.0000e+00
      0.706      0.070     4.6726     80.031     38.839  36.854279     2.4857      7.397   112.8112 4.3857e+02     6.6844      0.687      0.997    22.4725   997.6853 0.0000e+00
      0.730      0.087     4.7045     80.753     38.839  36.849068     2.4976      7.392   112.9971 4.3542e+02     6.7628      0.711      1.032    22.4673   997.6866 0.0000e+00
      0.765      0.096     4.7488     81.338     38.841  36.847923     2.4959      7.391   113.0576 4.2262e+02     6.7877      0.748      1.085    22.4571   997.6892 0.0000e+00
      0.802      0.098     4.8058     81.843     38.837  36.840431     2.4915      7.392   113.1124 4.0469e+02     6.7566      0.790      1.145    22.4462   997.6919 0.0000e+00
      0.832      0.091     4.8563     82.412     38.823  36.821954     2.5308      7.395   113.2296 4.0450e+02     6.7146      0.821      1.191    22.4380   997.6939 0.0000e+00
      0.852      0.077     4.9028     83.077     38.823  36.814926     2.6159      7.398   113.3564 3.8985e+02     6.6404      0.839      1.216    22.4324   997.6953 0.0000e+00
      0.864      0.062     4.9373     83.717     38.833  36.818918     2.6703      7.398   113.5265 3.6019e+02     6.5798      0.846      1.228    22.4290   997.6961 0.0000e+00
      0.874      0.051     4.9637     84.233     38.826  36.806744     2.6775      7.398   113.8243 3.3910e+02     6.5397      0.856      1.242    22.4265   997.6968 0.0000e+00
      0.884      0.045     4.9977     84.645     38.819  36.794665     2.6935      7.397   114.1174 3.2385e+02     6.4502      0.869      1.259    22.4199   997.6983 0.0000e+00
      0.894      0.044     5.0431     84.956     38.829  36.799810     2.7255      7.394   114.2313 3.1985e+02     6.3497      0.874      1.269    22.4084   997.7010 0.0000e+00
      0.905      0.044     5.0858     85.141     38.838  36.805476     2.7434      7.391   114.1684 3.2253e+02     6.3074      0.885      1.284    22.4008   997.7028 0.0000e+00
      0.919      0.044     5.1152     85.213     38.834  36.799702     2.7457      7.389   114.1314 3.1858e+02     6.2994      0.902      1.308    22.3957   997.7040 0.0000e+00
      0.932      0.044     5.1418     85.214     38.829  36.793459     2.7267      7.390   114.2136 3.0531e+02     6.3513      0.915      1.328    22.3865   997.7062 0.0000e+00
      0.943      0.049     5.1623     85.195     38.832  36.793459     2.6966      7.391   114.3030 2.9906e+02     6.4760      0.925      1.343    22.3793   997.7079 0.0000e+00
      0.950      0.056     5.1733     85.162     38.842  36.799701     2.6851      7.391   114.3510 3.0410e+02     6.5621      0.931      1.352    22.3781   997.7083 0.0000e+00
      0.959      0.062     5.1768     85.034     38.848  36.805457     2.6823      7.390   114.3640 2.9867e+02     6.5726      0.935      1.357    22.3763   997.7087 0.0000e+00
      0.977      0.067     5.1760     84.750     38.842  36.799581     2.6808      7.388   114.3740 2.8081e+02     6.5375      0.953      1.381    22.3743   997.7092 0.0000e+00
      1.003      0.069     5.1741     84.394     38.838  36.792126     2.6918      7.387   114.4717 2.6571e+02     6.3668      0.985      1.429    22.3705   997.7102 0.0000e+00
      1.028      0.067     5.1753     84.057     38.829  36.778790     2.7116      7.388   114.5991 2.6031e+02     6.1479      1.011      1.466    22.3637   997.7119 0.0000e+00
      1.046      0.061     5.1702     83.763     38.819  36.765272     2.7301      7.390   114.7100 2.5677e+02     6.0862      1.027      1.490    22.3652   997.7116 0.0000e+00
      1.059      0.052     5.1491     83.577     38.813  36.755615     2.7502      7.391   114.8662 2.4904e+02     6.1124      1.040      1.510    22.3692   997.7108 0.0000e+00
      1.067      0.044     5.1258     83.578     38.784  36.725496     2.8156      7.389   115.0255 2.4398e+02     6.1694      1.047      1.519    22.3624   997.7124 0.0000e+00
      1.072      0.038     5.1069     83.720     38.779  36.718472     2.9230      7.387   115.1740 2.4068e+02     6.2510      1.051      1.524    22.3539   997.7143 0.0000e+00
      1.080      0.034     5.0879     83.839     38.795  36.734154     2.9821      7.387   115.2850 2.3538e+02     6.3131      1.057      1.533    22.3489   997.7155 0.0000e+00
      1.092      0.033     5.0742     83.857     38.786  36.724693     2.9927      7.388   115.3342 2.3233e+02     6.3633      1.070      1.552    22.3447   997.7166 0.0000e+00
      1.103      0.034     5.0754     83.838     38.797  36.731022     3.0166      7.391   115.4247 2.3223e+02     6.3659      1.084      1.573    22.3396   997.7177 0.0000e+00
      1.110      0.036     5.0897     83.799     38.820  36.747202     3.0455      7.391   115.6045 2.3022e+02     6.3113      1.089      1.579    22.3364   997.7185 0.0000e+00
      1.117      0.039     5.0987     83.683     38.806  36.729893     3.0481      7.389   115.7871 2.2747e+02     6.2604      1.093      1.586    22.3398   997.7177 0.0000e+00
      1.126      0.044     5.0966     83.507     38.791  36.712148     3.0391      7.385   115.9121 2.2439e+02     6.2757      1.104      1.601    22.3394   997.7179 0.0000e+00
      1.136      0.050     5.0956     83.320     38.804  36.723063     3.0407      7.380   115.9979 2.1867e+02     6.4306      1.112      1.614    22.3319   997.7197 0.0000e+00
      1.149      0.058     5.0969     83.165     38.817  36.734916     3.0414      7.374   116.2222 2.1142e+02     6.6586      1.124      1.632    22.3250   997.7213 0.0000e+00
      1.167      0.065     5.0892     83.168     38.814  36.728513     3.0390      7.368   116.6456 2.0513e+02     6.7702      1.144      1.660    22.3201   997.7225 0.0000e+00
      1.186      0.071     5.0773     83.403     38.800  36.709113     3.0377      7.360   116.9011 2.0078e+02     6.7643      1.163      1.687    22.3139   997.7240 0.0000e+00
      1.206      0.076     5.0671     83.774     38.788  36.690764     3.0517      7.352   116.9886 1.9730e+02     6.6528      1.181      1.714    22.3115   997.7247 0.0000e+00
      1.226      0.076     5.0534     84.149     38.803  36.697065     3.0869      7.346   117.1011 1.9108e+02     6.4710      1.201      1.744    22.3139   997.7243 0.0000e+00
      1.247      0.072     5.0511     84.464     38.836  36.721820     3.1079      7.341   117.1421 1.8103e+02     6.3358      1.223      1.774    22.3102   997.7251 0.0000e+00
      1.268      0.066     5.0698     84.664     38.858  36.736171     3.1068      7.338   117.2263 1.7376e+02     6.2630      1.245      1.805    22.3002   997.7275 0.0000e+00
      1.285      0.060     5.0969     84.715     38.873  36.743616     3.1075      7.334   117.3456 1.7175e+02     6.3120      1.263      1.831    22.2901   997.7300 0.0000e+00
      1.297      0.053     5.1209     84.651     38.888  36.748357     3.1162      7.332   117.3799 1.7026e+02     6.4369      1.273      1.847    22.2812   997.7320 0.0000e+00
      1.307      0.048     5.1425     84.522     38.879  36.730013     3.1256      7.329   117.3824 1.6647e+02     6.4957      1.281      1.858    22.2733   997.7339 0.0000e+00
      1.318      0.043     5.1566     84.413     38.876  36.712223     3.1253      7.325   117.5485 1.6236e+02     6.4977      1.292      1.873    22.2656   997.7357 0.0000e+00
      1.329      0.041     5.1588     84.383     38.908  36.723662     3.1222      7.324   117.9249 1.5925e+02     6.4937      1.303      1.890    22.2556   997.7380 0.0000e+00
      1.339      0.043     5.1561     84.417     38.949  36.741342     3.1302      7.322   118.3203 1.5640e+02     6.4481      1.313      1.905    22.2440   997.7408 0.0000e+00
      1.349      0.050     5.1470     84.508     38.967  36.735552     3.1527      7.318   118.7157 1.5408e+02     6.3721      1.324      1.920    22.2323   997.7435 0.0000e+00
      1.359      0.061     5.1400     84.642     38.971  36.717088     3.1778      7.313   119.0059 1.5242e+02     6.3289      1.331      1.931    22.2148   997.7475 0.0000e+00
      1.370      0.073     5.1427     84.835     38.985  36.708483     3.1833      7.308   119.1616 1.5042e+02     6.2854      1.341      1.945    22.1880   997.7538 0.0000e+00
      1.388      0.081     5.1463     85.105     38.992  36.694948     3.1753      7.307   119.3937 1.4636e+02     6.3051      1.358      1.969    22.1615   997.7599 0.0000e+00
      1.417      0.084     5.1559     85.444     38.994  36.680362     3.1758      7.307   119.6621 1.3954e+02     6.4366      1.385      2.009    22.1326   997.7666 0.0000e+00
      1.452      0.082     5.1669     85.960     38.987  36.659052     3.1807      7.307   119.8248 1.3289e+02     6.5319      1.428      2.070    22.1017   997.7740 0.0000e+00
      1.480      0.074     5.1792     86.733     38.971  36.627685     3.1824      7.307   119.8984 1.2981e+02     6.5388      1.459      2.117    22.0753   997.7801 0.0000e+00
      1.494      0.062     5.2018     87.616     38.976  36.618450     3.1794      7.306   119.9497 1.2921e+02     6.4219      1.467      2.127    22.0466   997.7866 0.0000e+00
      1.499      0.048     5.2204     88.379     38.978  36.610836     3.1704      7.305   120.0142 1.2875e+02     6.2002      1.470      2.131    22.0268   997.7912 0.0000e+00
      1.505      0.038     5.2500     88.908     38.974  36.599087     3.1684      7.304   120.1623 1.2781e+02     6.0872      1.475      2.140    22.0106   997.7948 0.0000e+00
      1.513      0.038     5.3048     89.256     38.986  36.603334     3.1731      7.304   120.4501 1.2632e+02     6.1041      1.484      2.152    21.9852   997.8006 0.0000e+00
      1.521      0.045     5.3664     89.518     38.988  36.598704     3.1840      7.301   120.7397 1.2483e+02     6.1422      1.493      2.165    21.9676   997.8047 0.0000e+00
      1.530      0.057     5.4169     89.720     39.003  36.606566     3.2136      7.294   120.9967 1.2315e+02     6.1880      1.498      2.174    21.9588   997.8066 0.0000e+00
      1.545      0.071     5.4485     89.883     39.038  36.634908     3.2365      7.286   121.2348 1.1988e+02     6.2308      1.512      2.193    21.9468   997.8094 0.0000e+00
      1.567      0.083     5.4677     90.089     39.028  36.624011     3.2350      7.277   121.3813 1.1533e+02     6.2659      1.536      2.227    21.9394   997.8113 0.0000e+00
      1.592      0.090     5.4842     90.370     39.008  36.601756     3.2309      7.271   121.5643 1.1106e+02     6.2525      1.561      2.264    21.9327   997.8129 0.0000e+00
      1.620      0.090     5.4986     90.718     39.033  36.619711     3.2646      7.268   121.7263 1.0681e+02     6.1020      1.588      2.303    21.9210   997.8156 0.0000e+00
      1.651      0.084     5.5056     91.148     39.073  36.650672     3.3214      7.268   121.7915 1.0254e+02     5.8876      1.620      2.349    21.9163   997.8169 0.0000e+00
      1.676      0.075     5.5183     91.710     39.090  36.658729     3.3364      7.269   121.9218 1.0000e+02     5.7915      1.650      2.393    21.9151   997.8173 0.0000e+00
      1.690      0.067     5.5369     92.487     39.094  36.653649     3.3423      7.269   122.0975 9.9010e+01     5.7911      1.661      2.409    21.9098   997.8185 0.0000e+00
      1.696      0.061     5.5580     93.494     39.101  36.652716     3.3759      7.268   122.2814 9.8047e+01     5.8180      1.663      2.411    21.9035   997.8200 0.0000e+00
      1.706      0.056     5.5848     94.616     39.104  36.647431     3.4041      7.264   122.5104 9.6545e+01     5.8545      1.670      2.424    21.8966   997.8215 0.0000e+00
      1.721      0.052     5.6173     95.621     39.118  36.653208     3.4147      7.260   122.7155 9.4119e+01     5.8382      1.685      2.445    21.8858   997.8241 0.0000e+00
      1.740      0.050     5.6662     96.296     39.132  36.659084     3.4169      7.258   122.8689 9.1368e+01     5.8177      1.707      2.475    21.8731   997.8270 0.0000e+00
      1.760      0.048     5.7313     96.604     39.136  36.654999     3.4050      7.257   123.0746 8.9544e+01     5.8367      1.729      2.507    21.8629   997.8294 0.0000e+00
      1.772      0.047     5.8065     96.589     39.159  36.667269     3.3746      7.256   123.3087 8.9034e+01     5.8384      1.742      2.525    21.8538   997.8315 0.0000e+00
      1.776      0.046     5.8758     96.247     39.181  36.680484     3.3536      7.252   123.5487 8.9159e+01     5.8056      1.742      2.527    21.8447   997.8335 0.0000e+00
      1.779      0.045     5.9173     95.572     39.195  36.687826     3.3492      7.247   123.7394 8.8355e+01     5.7675      1.740      2.523    21.8362   997.8355 0.0000e+00
      1.790      0.043     5.9358     94.640     39.204  36.692558     3.3485      7.240   123.8080 8.6110e+01     5.7377      1.753      2.541    21.8258   997.8379 0.0000e+00
      1.810      0.041     5.9370     93.587     39.186  36.674217     3.3540      7.236   123.9474 8.3681e+01     5.7073      1.777      2.576    21.8132   997.8409 0.0000e+00
      1.827      0.040     5.9179     92.482     39.169  36.656482     3.3543      7.236   124.1348 8.2277e+01     5.6628      1.795      2.603    21.8025   997.8433 0.0000e+00
      1.837      0.040     5.8756     91.281     39.184  36.668543     3.3441      7.236   124.2663 8.1991e+01     5.5934      1.804      2.617    21.7955   997.8449 0.0000e+00
      1.840      0.041     5.8147     89.896     39.210  36.693098     3.3605      7.236   124.4194 8.1731e+01     5.5234      1.805      2.618    21.7913   997.8459 0.0000e+00
      1.842      0.043     5.7489     88.379     39.217  36.699484     3.4054      7.231   124.5230 8.0727e+01     5.4711      1.804      2.617    21.7898   997.8463 0.0000e+00
      1.851      0.048     5.6819     86.839     39.199  36.682287     3.4275      7.222   124.5720 7.9007e+01     5.4531      1.812      2.628    21.7880   997.8467 0.0000e+00
      1.868      0.053     5.6124     85.271     39.195  36.675587     3.4187      7.215   124.6688 7.6606e+01     5.4371      1.830      2.653    21.7849   997.8474 0.0000e+00
      1.891      0.054     5.5255     83.673     39.207  36.681946     3.4114      7.212   124.8324 7.4151e+01     5.3757      1.854      2.689    21.7847   997.8477 0.0000e+00
      1.911      0.051     5.4279     82.087     39.230  36.695691     3.4442      7.212   125.0009 7.2503e+01     5.2362      1.878      2.724    21.7861   997.8475 0.0000e+00
      1.924      0.044     5.3351     80.497     39.259  36.714821     3.5031      7.214   125.0716 7.1798e+01     5.0277      1.889      2.741    21.7859   997.8475 0.0000e+00
      1.930      0.035     5.2395     78.925     39.274  36.722809     3.5337      7.215   125.1709 7.1793e+01     4.9191      1.894      2.747    21.7831   997.8482 0.0000e+00
      1.932      0.029     5.1397     77.500     39.283  36.728799     3.5368      7.215   125.4277 7.1887e+01     4.9071      1.895      2.748    21.7755   997.8499 0.0000e+00
      1.935      0.027     5.0446     76.306     39.279  36.723769     3.5059      7.215   125.6817 7.1421e+01     4.8170      1.896      2.750    21.7637   997.8526 0.0000e+00
      1.942      0.031     4.9489     75.416     39.282  36.725454     3.4553      7.215   125.9192 7.0619e+01     4.7136      1.905      2.762    21.7527   997.8551 0.0000e+00
      1.952      0.038     4.8478     74.887     39.311  36.749171     3.4358      7.214   126.2337 6.9741e+01     4.7059      1.914      2.776    21.7453   997.8568 0.0000e+00
      1.962      0.048     4.7597     74.596     39.325  36.756636     3.4263      7.209   126.4726 6.8422e+01     4.7238      1.922      2.789    21.7419   997.8576 0.0000e+00
      1.975      0.056     4.6857     74.390     39.327  36.752222     3.3407      7.203   126.5707 6.6871e+01     4.6028      1.937      2.809    21.7418   997.8577 0.0000e+00
      1.991      0.062     4.6268     74.221     39.345  36.759277     3.1902      7.195   126.6460 6.5400e+01     4.3566      1.953      2.832    21.7414   997.8578 0.0000e+00
      2.009      0.065     4.5993     74.009     39.378  36.778445     3.1151      7.188   126.7801 6.3822e+01     4.2380      1.969      2.856    21.7377   997.8588 0.0000e+00
      2.029      0.067     4.5867     73.656     39.407  36.793547     3.1172      7.182   126.9876 6.2236e+01     4.2507      1.989      2.886    21.7305   997.8604 0.0000e+00
      2.048      0.068     4.5733     73.165     39.442  36.814899     3.0596      7.178   127.0905 6.0824e+01     4.2146      2.008      2.913    21.7220   997.8624 0.0000e+00
      2.064      0.068     4.5667     72.616     39.486  36.846169     2.9382      7.174   127.1635 5.9692e+01     4.0971      2.025      2.937    21.7111   997.8650 0.0000e+00
      2.079      0.064     4.5577     72.051     39.503  36.854259     2.8640      7.173   127.4404 5.8470e+01     3.9764      2.037      2.955    21.6948   997.8687 0.0000e+00
      2.096      0.058     4.5376     71.441     39.506  36.849230     2.8555      7.175   127.7713 5.6834e+01     3.9345      2.054      2.979    21.6774   997.8727 0.0000e+00
      2.115      0.051     4.5059     70.745     39.516  36.848826     2.8442      7.177   128.0667 5.5511e+01     3.7874      2.077      3.013    21.6627   997.8760 0.0000e+00
      2.128      0.046     4.4719     69.938     39.525  36.849358     2.7972      7.179   128.3451 5.4829e+01     3.4760      2.089      3.031    21.6514   997.8787 0.0000e+00
      2.136      0.042     4.4393     69.010     39.539  36.855650     2.7556      7.180   128.5558 5.4248e+01     3.3162      2.094      3.036    21.6434   997.8805 0.0000e+00
      2.142      0.039     4.4030     67.926     39.551  36.861421     2.7401      7.179   128.7217 5.3774e+01     3.2968      2.101      3.047    21.6327   997.8829 0.0000e+00
      2.149      0.039     4.3624     66.614     39.550  36.855657     2.6791      7.178   128.9746 5.3468e+01     3.2753      2.107      3.056    21.6191   997.8860 0.0000e+00
      2.157      0.041     4.3129     65.001     39.545  36.849425     2.5645      7.176   129.3763 5.2731e+01     3.2848      2.113      3.065    21.6092   997.8882 0.0000e+00
      2.171      0.046     4.2573     63.091     39.547  36.849540     2.4984      7.174   129.7067 5.1601e+01     3.2804      2.128      3.087    21.6015   997.8899 0.0000e+00
      2.187      0.052     4.1928     60.924     39.556  36.857042     2.4952      7.169   130.0445 5.0777e+01     3.2875      2.147      3.114    21.5930   997.8919 0.0000e+00
      2.199      0.060     4.1147     58.575     39.577  36.876658     2.4910      7.161   130.6214 5.0204e+01     3.3380      2.158      3.130    21.5877   997.8932 0.0000e+00
      2.211      0.068     4.0147     56.252     39.601  36.896294     2.4042      7.154   131.0887 4.9244e+01     3.3666      2.164      3.139    21.5866   997.8935 0.0000e+00
      2.228      0.074     3.8956     54.151     39.620  36.904031     2.2442      7.146   131.2210 4.7800e+01     3.3386      2.182      3.165    21.5840   997.8941 0.0000e+00
      2.251      0.077     3.7628     52.346     39.636  36.906722     2.1517      7.139   131.2746 4.6381e+01     3.2943      2.208      3.202    21.5814   997.8948 0.0000e+00
      2.275      0.077     3.6111     50.864     39.673  36.928818     2.1346      7.133   131.3925 4.5132e+01     3.2898      2.231      3.236    21.5850   997.8941 0.0000e+00
      2.300      0.074     3.4632     49.705     39.747  36.980750     2.0637      7.128   131.6139 4.3953e+01     3.2848      2.255      3.271    21.5837   997.8945 0.0000e+00
      2.320      0.067     3.3343     48.902     39.818  37.026813     1.9277      7.126   131.8872 4.3129e+01     3.2329      2.278      3.305    21.5672   997.8983 0.0000e+00
      2.334      0.059     3.2227     48.475     39.850  37.041409     1.8424      7.123   132.1156 4.2674e+01     3.1874      2.291      3.322    21.5513   997.9019 0.0000e+00
      2.344      0.052     3.1329     48.287     39.850  37.030262     1.8215      7.121   132.3103 4.2194e+01     3.1613      2.297      3.332    21.5396   997.9045 0.0000e+00
      2.354      0.046     3.0620     48.146     39.847  37.018957     1.8045      7.119   132.3485 4.1581e+01     3.0798      2.308      3.347    21.5166   997.9097 0.0000e+00
      2.365      0.042     3.0116     47.912     39.869  37.031665     1.7844      7.118   132.3191 4.1021e+01     2.9887      2.321      3.365    21.4881   997.9162 0.0000e+00
      2.376      0.039     2.9908     47.454     39.904  37.056963     1.7779      7.117   132.4710 4.0503e+01     2.9774      2.331      3.379    21.4677   997.9208 0.0000e+00
      2.387      0.039     2.9848     46.643     39.927  37.070920     1.7786      7.114   132.7221 3.9919e+01     2.9434      2.341      3.394    21.4556   997.9234 0.0000e+00
      2.398      0.040     2.9787     45.402     39.937  37.073459     1.7755      7.110   132.9465 3.9533e+01     2.8407      2.354      3.413    21.4460   997.9256 0.0000e+00
      2.405      0.044     2.9678     43.735     39.962  37.087645     1.7748      7.106   133.1200 3.9304e+01     2.8172      2.359      3.422    21.4366   997.9277 0.0000e+00
      2.412      0.050     2.9432     41.720     40.005  37.115482     1.7703      7.098   133.3561 3.8764e+01     2.8886      2.362      3.426    21.4273   997.9298 0.0000e+00
      2.424      0.059     2.8952     39.516     40.061  37.156120     1.7642      7.088   133.6508 3.7986e+01     2.9168      2.376      3.446    21.4178   997.9320 0.0000e+00
      2.441      0.069     2.8188     37.336     40.119  37.198126     1.7180      7.078   133.7583 3.7186e+01     2.8957      2.393      3.471    21.4107   997.9336 0.0000e+00
      2.462      0.078     2.7144     35.321     40.182  37.242519     1.6275      7.071   133.7948 3.6296e+01     2.8625      2.413      3.499    21.4006   997.9359 0.0000e+00
      2.486      0.083     2.5874     33.487     40.279  37.312006     1.5894      7.068   134.0059 3.5311e+01     2.8432      2.438      3.535    21.3830   997.9399 0.0000e+00
      2.511      0.085     2.4464     31.852     40.408  37.403509     1.6040      7.066   134.2455 3.4315e+01     2.8588      2.462      3.570    21.3682   997.9434 0.0000e+00
      2.535      0.082     2.3077     30.345     40.574  37.523657     1.6049      7.063   134.3685 3.3453e+01     2.8545      2.487      3.608    21.3567   997.9461 0.0000e+00
      2.556      0.075     2.1855     28.774     40.714  37.622099     1.5745      7.061   134.4606 3.2773e+01     2.7918      2.507      3.638    21.3399   997.9498 0.0000e+00
      2.573      0.067     2.0711     27.097     40.764  37.641582     1.5315      7.058   134.5855 3.2145e+01     2.6913      2.522      3.658    21.3163   997.9550 0.0000e+00
      2.589      0.057     1.9715     25.415     40.773  37.632222     1.5172      7.053   134.6740 3.1586e+01     2.6544      2.540      3.685    21.2791   997.9634 0.0000e+00
      2.602      0.048     1.8868     23.660     40.787  37.635855     1.5322      7.049   134.7561 3.1195e+01     2.6735      2.554      3.704    21.2347   997.9733 0.0000e+00
      2.612      0.043     1.7919     21.677     40.846  37.685495     1.5392      7.046   134.9763 3.0911e+01     2.6596      2.561      3.716    21.1954   997.9820 0.0000e+00
      2.621      0.042     1.6826     19.400     41.034  37.851561     1.5250      7.042   135.1853 3.0693e+01     2.6515      2.572      3.730    21.1604   997.9896 0.0000e+00
      2.629      0.046     1.5822     16.867     41.341  38.120289     1.5170      7.037   135.3039 3.0511e+01     2.6737      2.579      3.741    21.1382   997.9945 0.0000e+00
      2.636      0.056     1.4779     14.272     41.662  38.395551     1.5286      7.029   135.5496 3.0180e+01     2.6984      2.583      3.746    21.1301   997.9963 0.0000e+00
      2.648      0.066     1.3549     11.848     41.956  38.640574     1.5435      7.022   135.8338 2.9575e+01     2.7537      2.593      3.760    21.1264   997.9972 0.0000e+00
      2.669      0.074     1.2144      9.758     42.227  38.861040     1.5587      7.015   136.1586 2.8795e+01     2.8176      2.615      3.792    21.1208   997.9986 0.0000e+00
      2.697      0.077     1.0510      8.043     42.442  39.029805     1.5729      7.010   136.5518 2.7982e+01     2.8152      2.646      3.837    21.1041   998.0025 0.0000e+00
      2.724      0.077     0.8850      6.706     42.611  39.157526     1.5939      7.008   136.8014 2.7244e+01     2.8227      2.674      3.878    21.0771   998.0086 0.0000e+00
      2.746      0.072     0.7301      5.791     42.751  39.262611     1.7701      7.007   137.0259 2.6704e+01     2.8765      2.696      3.910    21.0452   998.0157 0.0000e+00
      2.760      0.065     0.6002      5.264     42.866  39.348126     2.0821      7.004   137.2864 2.6398e+01     2.8757      2.709      3.928    21.0097   998.0236 0.0000e+00
      2.769      0.056     0.4946      4.991     42.973  39.429678     2.2451      7.001   137.4570 2.6118e+01     2.8118      2.715      3.937    20.9753   998.0311 0.0000e+00
      2.780      0.050     0.4087      4.838     43.050  39.486849     2.3013      6.997   137.6264 2.5703e+01     2.7924      2.725      3.952    20.9425   998.0383 0.0000e+00
      2.795      0.045     0.3530      4.711     43.110  39.531508     2.7097      6.994   137.8718 2.5286e+01     2.8374      2.741      3.976    20.9124   998.0449 0.0000e+00
      2.809      0.041     0.3236      4.559     43.181  39.588732     3.4287      6.992   138.1004 2.5002e+01     2.8645      2.756      3.998    20.8901   998.0498 0.0000e+00
      2.820      0.039     0.3100      4.405     43.279  39.670871     3.8072      6.991   138.3262 2.4796e+01     2.8585      2.765      4.011    20.8720   998.0538 0.0000e+00
      2.828      0.038     0.3019      4.276     43.459  39.826323     3.8273      6.987   138.6231 2.4646e+01     2.8307      2.775      4.024    20.8544   998.0576 0.0000e+00
      2.834      0.041     0.2960      4.140     43.881  40.198622     3.8618      6.982   138.8502 2.4511e+01     2.8224      2.780      4.031    20.8423   998.0602 0.0000e+00
      2.840      0.047     0.2855      3.987     44.574  40.807622     4.3207      6.976   138.9212 2.4244e+01     2.8570      2.783      4.035    20.8360   998.0616 0.0000e+00
      2.851      0.057     0.2741      3.864     45.284  41.412482     5.1700      6.969   139.0519 2.3807e+01     2.8886      2.793      4.051    20.8280   998.0634 0.0000e+00
      2.868      0.067     0.2683      3.807     45.837  41.861532     5.6430      6.961   139.3110 2.3289e+01     2.8764      2.811      4.077    20.8171   998.0659 0.0000e+00
      2.889      0.074     0.2598      3.801     46.239  42.173684     5.7570      6.952   139.4725 2.2766e+01     2.8405      2.832      4.108    20.8043   998.0688 0.0000e+00
      2.912      0.076     0.2491      3.821     46.602  42.456546     6.5997      6.945   139.2842 2.2142e+01     2.9141      2.854      4.139    20.7789   998.0747 0.0000e+00
      2.938      0.073     0.2403      3.845     47.101  42.868870     8.1508      6.941   138.7555 2.1477e+01     3.0777      2.882      4.180    20.7269   998.0862 0.0000e+00
      2.961      0.068     0.2381      3.826     47.676  43.349448     9.0180      6.937   138.0709 2.1079e+01     3.1472      2.908      4.217    20.6576   998.1014 0.0000e+00
      2.973      0.060     0.2386      3.736     48.036  43.632091     9.2653      6.933   137.0288 2.0909e+01     3.1319      2.917      4.231    20.5954   998.1148 0.0000e+00
      2.981      0.050     0.2400      3.567     48.063  43.619468    11.1666      6.929   135.5337 2.0699e+01     3.2533      2.922      4.237    20.5448   998.1255 0.0000e+00
      2.992      0.041     0.2434      3.325     47.830  43.387262    14.6760      6.925   133.8459 2.0405e+01     3.5658      2.933      4.254    20.5031   998.1347 0.0000e+00
      3.005      0.034     0.2427      3.033     47.527  43.110281    16.6445      6.923   131.9375 2.0156e+01     3.7644      2.949      4.278    20.4604   998.1440 0.0000e+00
      3.014      0.030     0.2373      2.730     47.252  42.873771    17.2890      6.920   129.8390 2.0007e+01     3.8192      2.959      4.291    20.4081   998.1551 0.0000e+00
      3.019      0.030     0.2272      2.470     46.952  42.622931    22.4777      6.916   127.7454 1.9908e+01     4.1295      2.962      4.296    20.3655   998.1641 0.0000e+00
      3.023      0.035     0.2110      2.281     46.709  42.426648    31.9736      6.910   125.7248 1.9832e+01     4.6327      2.965      4.301    20.3439   998.1685 0.0000e+00
      3.028      0.045     0.1922      2.148     47.012  42.722778    37.1590      6.901   123.9066 1.9698e+01     4.8892      2.968      4.304    20.3418   998.1689 0.0000e+00
      3.036      0.059     0.1712      2.066     48.198  43.790643    37.6541      6.892   122.2813 1.9365e+01     4.9702      2.973      4.311    20.3582   998.1654 0.0000e+00
      3.053      0.071     0.1539      2.035     49.524  44.924956    37.9598      6.882   120.7002 1.8776e+01     5.4478      2.990      4.337    20.3863   998.1595 0.0000e+00
      3.079      0.078     0.1433      2.052     50.088  45.325656    38.4530      6.873   119.1582 1.8041e+01     6.2726      3.019      4.378    20.4094   998.1546 0.0000e+00
      3.110      0.079     0.1340      2.089     49.992  45.142882    38.6928      6.867   117.7479 1.7355e+01     6.6842      3.051      4.425    20.4412   998.1481 0.0000e+00
      3.137      0.076     0.1294      2.133     49.892  45.000934    38.3103      6.863   116.6404 1.6902e+01     6.6562      3.080      4.468    20.4522   998.1464 0.0000e+00
      3.153      0.069     0.1271      2.177     49.994  45.069815    33.7416      6.860   115.9199 1.6697e+01     6.2286      3.096      4.490    20.3703   998.1643 0.0000e+00
      3.161      0.063     0.1296      2.182     50.099  45.150203    25.3549      6.855   115.4884 1.6512e+01     5.4470      3.099      4.496    20.2323   998.1934 0.0000e+00
      3.171      0.058     0.1327      2.157     50.534  45.528379    20.7709      6.850   115.2098 1.6196e+01     5.0058      3.107      4.507    20.1246   998.2156 0.0000e+00
      3.184      0.054     0.1348      2.135     51.264  46.149639    20.3142      6.846   115.0462 1.5816e+01     4.9239      3.122      4.528    20.0829   998.2242 0.0000e+00
      3.201      0.052     0.1397      2.109     51.519  46.311539    19.9550      6.843   114.8869 1.5367e+01     4.9164      3.136      4.549    20.0707   998.2270 0.0000e+00
      3.221      0.049     0.1396      2.067     51.414  46.152330    16.4454      6.841   114.4880 1.4905e+01     4.9144      3.159      4.581    20.0533   998.2306 0.0000e+00
      3.237      0.044     0.1366      2.034     51.355  46.066181    10.0103      6.839   114.0093 1.4677e+01     4.8350      3.180      4.612    20.0500   998.2315 0.0000e+00
      3.244      0.041     0.1358      2.013     51.400  46.095420     6.5043      6.835   113.5735 1.4630e+01     4.7427      3.183      4.616    20.0246   998.2373 0.0000e+00
      3.246      0.042     0.1351      1.981     51.796  46.442330     6.2031      6.830   113.0042 1.4545e+01     4.6831      3.182      4.615    19.9379   998.2551 0.0000e+00
      3.250      0.046     0.1314      1.938     52.759  47.275936     6.3773      6.822   112.3743 1.4396e+01     4.9992      3.188      4.623    19.8640   998.2702 0.0000e+00
      3.260      0.053     0.1294      1.902     53.990  48.299655     6.7554      6.814   111.8084 1.4065e+01     5.6810      3.193      4.630    19.8385   998.2754 0.0000e+00
      3.279      0.063     0.1290      1.872     55.247  49.293713     6.9598      6.806   111.3239 1.3490e+01     6.0441      3.212      4.658    19.8335   998.2766 0.0000e+00
      3.304      0.071     0.1268      1.843     56.747  50.466689     6.9408      6.797   110.8179 1.2996e+01     6.0789      3.244      4.704    19.8322   998.2771 0.0000e+00
      3.326      0.074     0.1233      1.813     58.112  51.493618     6.4744      6.790   110.3371 1.2667e+01     6.3970      3.263      4.733    19.8188   998.2802 0.0000e+00
      3.344      0.072     0.1214      1.788     59.175  52.245864     5.6037      6.785   109.8126 1.2252e+01     7.0061      3.277      4.753    19.7449   998.2959 0.0000e+00
      3.364      0.067     0.1200      1.778     60.540  53.273163     5.1262      6.781   109.1221 1.1834e+01     7.3811      3.300      4.786    19.6142   998.3228 0.0000e+00
      3.381      0.062     0.1184      1.783     62.433  54.766773     5.0539      6.777   108.6991 1.1577e+01     7.5555      3.318      4.813    19.4749   998.3515 0.0000e+00
      3.392      0.057     0.1171      1.801     64.473  56.391953     4.6857      6.775   108.5699 1.1335e+01     8.5910      3.326      4.824    19.3023   998.3866 0.0000e+00
      3.404      0.054     0.1152      1.823     66.110  57.674958     4.0116      6.774   108.3349 1.0974e+01    10.4292      3.337      4.840    19.1333   998.4203 0.0000e+00
      3.419      0.050     0.1152      1.840     67.237  58.524971     3.6488      6.773   108.0082 1.0596e+01    11.3966      3.354      4.864    18.9956   998.4478 0.0000e+00
      3.432      0.048     0.1157      1.857     68.188  59.234956     3.6199      6.770   107.7174 1.0285e+01    11.5040      3.366      4.882    18.8555   998.4759 0.0000e+00
      3.445      0.047     0.1172      1.870     69.151  59.968347     3.6453      6.767   107.4000 9.9943e+00    12.0883      3.378      4.899    18.7251   998.5019 0.0000e+00
      3.457      0.046     0.1197      1.880     70.411  60.974085     3.7039      6.764   106.9238 9.7259e+00    13.1527      3.391      4.917    18.6128   998.5242 0.0000e+00
      3.467      0.046     0.1203      1.898     72.474  62.688853     3.7302      6.760   106.3479 9.5343e+00    13.7229      3.401      4.933    18.5145   998.5433 0.0000e+00
      3.477      0.047     0.1221      1.902     74.868  64.685678     3.7295      6.754   105.7704 9.3954e+00    13.7379      3.409      4.944    18.4271   998.5602 0.0000e+00
      3.487      0.048     0.1233      1.884     76.775  66.240649     3.7652      6.749   105.1040 9.1727e+00    13.6618      3.417      4.957    18.3516   998.5748 0.0000e+00
      3.501      0.052     0.1230      1.865     78.510  67.632977     4.1869      6.742   104.3992 8.8804e+00    13.0652      3.434      4.982    18.2892   998.5870 0.0000e+00
      3.516      0.058     0.1257      1.848     80.888  69.569037     4.9786      6.732   103.8741 8.6720e+00    11.9648      3.450      5.004    18.2451   998.5961 0.0000e+00
      3.529      0.065     0.1261      1.814     84.133  72.229511     5.4224      6.721   103.5740 8.4645e+00    11.3690      3.459      5.017    18.2029   998.6050 0.0000e+00
      3.545      0.070     0.1243      1.784     86.877  74.430916     5.4433      6.711   103.2655 8.1314e+00    11.4328      3.474      5.039    18.1373   998.6179 0.0000e+00
      3.565      0.073     0.1230      1.773     87.512  74.820494     5.2574      6.702   102.7250 7.7163e+00    12.7681      3.495      5.070    18.0695   998.6311 0.0000e+00
      3.588      0.074     0.1232      1.757     86.845  74.141825     4.9263      6.693   102.1155 7.2866e+00    15.2247      3.519      5.104    18.0043   998.6440 0.0000e+00
      3.610      0.071     0.1203      1.737     86.785  74.046970     4.7429      6.683   101.8324 6.8971e+00    16.5561      3.541      5.136    17.9295   998.6592 0.0000e+00
      3.630      0.063     0.1175      1.723     87.325  74.500294     4.7044      6.674   101.5393 6.5905e+00    16.8383      3.560      5.164    17.8359   998.6778 0.0000e+00
      3.645      0.050     0.1188      1.707     87.374  74.535554     4.4873      6.667   100.2924 6.3665e+00    18.6694      3.576      5.186    17.7335   998.6966 0.0000e+00
      3.656      0.037     0.1171      1.674     87.081  74.282557     4.0939      6.661    98.2857 6.2022e+00    21.9499      3.587      5.202    17.6646   998.7086 0.0000e+00
      3.664      0.026     0.1156      1.633     87.023  74.239409     3.8754      6.656    96.5496 6.1333e+00    23.7304      3.597      5.215    17.6501   998.7113 0.0000e+00
      3.666      0.018     0.1148      1.597     87.188  74.395423     3.8482      6.652    95.3046 6.1417e+00    23.8768      3.598      5.218    17.6554   998.7108 0.0000e+00
      3.665      0.013     0.1143      1.558     87.751  74.897087     3.8006      6.648    94.1586 6.1097e+00    23.6873      3.592      5.210    17.6478   998.7120 0.0000e+00
      3.665      0.012     0.1121      1.520     88.855  75.853406     3.7071      6.644    92.9325 6.0232e+00    23.3728      3.594      5.212    17.6454   998.7122 0.0000e+00
      3.669      0.012     0.1084      1.496     90.052  76.863974     3.6542      6.640    91.6651 5.9178e+00    23.2530      3.598      5.219    17.6493   998.7116 0.0000e+00
      3.675      0.013     0.1070      1.479     90.931  77.576024     3.6718      6.636    90.3636 5.7905e+00    23.2541      3.602      5.224    17.6574   998.7102 0.0000e+00
      3.681      0.013     0.1039      1.459     91.307  77.848191     3.7639      6.632    89.0698 5.6849e+00    23.1893      3.611      5.237    17.6728   998.7075 0.0000e+00
      3.685      0.012     0.1009      1.435     91.681  78.119385     3.9009      6.628    88.1528 5.6300e+00    23.0603      3.615      5.244    17.6852   998.7058 0.0000e+00
      3.686      0.012     0.0995      1.417     92.180  78.501471     3.9682      6.623    87.6219 5.6042e+00    22.9395      3.615      5.243    17.6792   998.7074 0.0000e+00
      3.687      0.011     0.0989      1.407     92.252  78.524371     3.9791      6.617    87.0392 5.6047e+00    22.8759      3.616      5.244    17.6540   998.7123 0.0000e+00
      3.688      0.009     0.0976      1.401     92.429  78.650722     4.0837      6.611    86.0973 5.6295e+00    22.7169      3.616      5.245    17.6250   998.7176 0.0000e+00
      3.690      0.006     0.0955      1.380     92.638  78.820686     4.2797      6.606    84.6656 5.6156e+00    22.4266      3.616      5.245    17.5987   998.7224 0.0000e+00
      3.696      0.003     0.0946      1.354     91.562  77.907955     4.3888      6.601    83.3231 5.5629e+00    22.2827      3.624      5.257    17.5761   998.7269 0.0000e+00
      3.701      0.002     0.0936      1.335     90.121  76.709870     4.3983      6.596    82.4276 5.5956e+00    22.3204      3.634      5.271    17.5534   998.7308 0.0000e+00
      3.697      0.002     0.0944      1.319     90.457  77.055110     4.3856      6.590    81.7534 5.7044e+00    22.3905      3.627      5.261    17.5365   998.7339 0.0000e+00
      3.691      0.003     0.0923      1.309     91.851  78.266602     4.2256      6.584    81.2804 5.7749e+00    23.0324      3.617      5.246    17.5385   998.7339 0.0000e+00
      3.688      0.005     0.0901      1.295     93.163  79.337244     3.9391      6.578    80.7515 5.7720e+00    24.2476      3.614      5.241    17.5364   998.7338 0.0000e+00
      3.691      0.008     0.0897      1.282     94.869  80.713567     3.7902      6.571    79.8330 5.6931e+00    24.8924      3.616      5.244    17.5417   998.7318 0.0000e+00
      3.699      0.012     0.0874      1.278     96.690  82.185163     3.7787      6.566    78.7788 5.5865e+00    24.9949      3.628      5.262    17.5961   998.7224 0.0000e+00
      3.707      0.017     0.0878      1.278     97.386  82.689600     3.7478      6.561    78.2445 5.5190e+00    25.6179      3.638      5.276    17.6222   998.7185 0.0000e+00
      3.710      0.025     0.0865      1.284     97.985  83.122988     3.6938      6.557    78.4487 5.5016e+00    26.6903      3.640      5.279    17.5777   998.7267 0.0000e+00
      3.709      0.036     0.0854      1.291    100.148  84.879974     3.6716      6.554    78.4080 5.4947e+00    27.2453      3.637      5.276    17.5327   998.7353 0.0000e+00
      3.710      0.047     0.0857      1.287    102.430  86.627356     3.6795      6.550    77.0642 5.3624e+00    27.2153      3.633      5.268    17.5014   998.7420 0.0000e+00
      3.724      0.059     0.0854      1.269    103.546  87.262066     3.7464      6.547    75.0217 5.0021e+00    26.4919      3.646      5.287    17.4468   998.7519 0.0000e+00
      3.752      0.069     0.0860      1.246    103.978  87.336116     3.8730      6.542    73.2429 4.5720e+00    25.1517      3.681      5.338    17.4029   998.7596 0.0000e+00
      3.781      0.076     0.0870      1.239    104.183  87.331411     3.9532      6.539    71.5599 4.2472e+00    24.3810      3.710      5.381    17.3984   998.7618 0.0000e+00
      3.802      0.078     0.0866      1.257    104.295  87.332230     3.9787      6.537    69.8152 4.0150e+00    24.2521      3.729      5.408    17.3151   998.7777 0.0000e+00
      3.819      0.074     0.0860      1.283    104.160  87.155003     4.0258      6.537    68.3237 3.8502e+00    23.7255      3.747      5.434    17.1239   998.8117 0.0000e+00
      3.832      0.069     0.0838      1.295    103.592  86.588413     4.0982      6.536    67.0351 3.6887e+00    22.7325      3.758      5.451    16.9686   998.8390 0.0000e+00
      3.846      0.065     0.0831      1.290    103.096  86.017452     4.1428      6.533    65.6780 3.4572e+00    22.1751      3.769      5.467    16.8944   998.8518 0.0000e+00
      3.864      0.061     0.0854      1.309    103.186  85.914472     4.1576      6.530    64.1315 3.2151e+00    22.0656      3.790      5.496    16.8603   998.8578 0.0000e+00
      3.884      0.058     0.0870      1.341    103.406  85.979386     4.2074      6.528    62.5325 3.0079e+00    21.7366      3.810      5.526    16.8363   998.8620 0.0000e+00
      3.901      0.055     0.0893      1.353    103.389  85.911377     4.3025      6.528    61.0582 2.8229e+00    21.2128      3.826      5.550    16.8041   998.8675 0.0000e+00
      3.913      0.052     0.0864      1.359    103.283  85.792032     4.3622      6.527    59.8141 2.6879e+00    20.9105      3.839      5.570    16.7212   998.8814 0.0000e+00
      3.923      0.049     0.0886      1.361    103.112  85.618061     4.3752      6.526    58.7613 2.5914e+00    20.7692      3.848      5.580    16.6097   998.9006 0.0000e+00
      3.932      0.048     0.0929      1.356    102.674  85.207688     4.3987      6.525    57.4488 2.4880e+00    19.6348      3.855      5.591    16.5579   998.9095 0.0000e+00
      3.942      0.050     0.0920      1.347    102.110  84.647789     4.4387      6.524    55.6471 2.3780e+00    17.5506      3.865      5.606    16.5418   998.9122 0.0000e+00
      3.956      0.055     0.0931      1.334    101.502  84.001976     4.4592      6.523    53.0663 2.2635e+00    16.4125      3.879      5.625    16.5294   998.9142 0.0000e+00
      3.971      0.061     0.0933      1.319    100.346  82.870663     4.4559      6.523    49.5612 2.1515e+00    16.2626      3.896      5.650    16.5139   998.9169 0.0000e+00
      3.987      0.067     0.0927      1.319     99.315  81.784361     4.4516      6.523    46.0476 2.0327e+00    15.9681      3.909      5.670    16.4986   998.9194 0.0000e+00
      4.006      0.072     0.0921      1.308     99.043  81.300773     4.4757      6.522    43.3648 1.8830e+00    14.8504      3.926      5.694    16.4584   998.9258 0.0000e+00
      4.028      0.074     0.0920      1.274     98.502  80.649478     4.5310      6.521    41.0427 1.7290e+00    13.2368      3.951      5.729    16.3742   998.9401 0.0000e+00
      4.048      0.074     0.0896      1.259     97.728  79.825326     4.5733      6.520    38.3622 1.5924e+00    12.4506      3.971      5.759    16.3025   998.9515 0.0000e+00
      4.067      0.072     0.0910      1.264     97.637  79.541702     4.5890      6.519    35.4772 1.4700e+00    12.3900      3.988      5.784    16.1813   998.9710 0.0000e+00
      4.086      0.068     0.0918      1.262     98.127  79.764395     4.5909      6.518    32.6598 1.3603e+00    12.3734      4.007      5.812    16.0181   998.9982 0.0000e+00
      4.102      0.061     0.0868      1.273     98.513  79.973266     4.5873      6.518    29.9377 1.2589e+00    12.3801      4.023      5.835    15.9330   999.0118 0.0000e+00
      4.118      0.053     0.0864      1.298     98.386  79.840676     4.5798      6.518    27.2568 1.1578e+00    12.3730      4.038      5.857    15.8462   999.0253 0.0000e+00
      4.133      0.046     0.0887      1.310     98.105  79.624267     4.5700      6.517    24.7668 1.0734e+00    12.3208      4.055      5.881    15.7201   999.0456 0.0000e+00
      4.144      0.041     0.0873      1.323     98.040  79.583058     4.5728      6.517    22.7178 1.0354e+00    11.9123      4.065      5.896    15.6272   999.0606 0.0000e+00
      4.149      0.039     0.0878      1.350     97.895  79.469649     4.5966      6.517    20.9818 1.0161e+00    11.1375      4.068      5.901    15.5709   999.0698 0.0000e+00
      4.154      0.040     0.0917      1.373     97.137  78.825519     4.6148      6.519    19.3491 9.7520e-01    10.6874      4.072      5.906    15.5631   999.0709 0.0000e+00
      4.162      0.045     0.0909      1.379     95.917  77.710348     4.6196      6.524    17.6892 9.1187e-01    10.5989      4.081      5.919    15.5814   999.0679 0.0000e+00
      4.175      0.055     0.0916      1.366     94.913  76.671693     4.6549      6.528    15.7977 8.3579e-01    10.3301      4.093      5.935    15.5835   999.0677 0.0000e+00
      4.191      0.065     0.0942      1.347     94.240  75.870913     4.7120      6.528    13.6860 7.5123e-01     9.8953      4.108      5.957    15.5869   999.0672 0.0000e+00
      4.210      0.075     0.0960      1.328     93.713  75.214551     4.7370      6.523    11.6885 6.6942e-01     9.6676      4.129      5.988    15.5916   999.0664 0.0000e+00
      4.231      0.081     0.0968      1.308     93.482  74.840689     4.7325      6.508     9.8866 5.9872e-01     9.5755      4.150      6.019    15.5281   999.0758 0.0000e+00
      4.254      0.082     0.0955      1.287     93.430  74.657332     4.7267      6.492     8.0745 5.3570e-01     9.1752      4.171      6.050    15.3901   999.0971 0.0000e+00
      4.279      0.078     0.0945      1.288     93.388  74.523689     4.7353      6.488     5.9530 4.8148e-01     8.5310      4.197      6.087    15.2430   999.1198 0.0000e+00
      4.302      0.071     0.0932      1.302     93.518  74.560171     4.7423      6.493     3.6820 4.3112e-01     8.1765      4.219      6.121    15.1182   999.1387 0.0000e+00
      4.321      0.062     0.0930      1.311     93.678  74.653201     4.7323      6.497     1.7811 3.9314e-01     8.1015      4.239      6.149    15.0172   999.1541 0.0000e+00
      4.333      0.053     0.0896      1.320     93.741  74.694566     4.7283      6.499     0.0919 3.7632e-01     8.0170      4.253      6.167    14.9415   999.1657 0.0000e+00
      4.341      0.045     0.0908      1.324     93.721  74.678741     4.7370      6.501    -1.5996 3.6175e-01     7.9420      4.256      6.172    14.8909   999.1731 0.0000e+00
      4.349      0.039     0.0928      1.321     93.614  74.589044     4.7334      6.502    -3.0971 3.4622e-01     7.9481      4.264      6.185    14.8543   999.1787 0.0000e+00
      4.359      0.037     0.0924      1.318     93.521  74.500350     4.7187      6.503    -4.2491 3.2978e-01     7.9599      4.276      6.203    14.8367   999.1813 0.0000e+00
      4.369      0.038     0.0938      1.311     93.068  74.115095     4.6899      6.504    -5.1167 3.0994e-01     7.7572      4.285      6.215    14.8358   999.1816 0.0000e+00
      4.377      0.040     0.0937      1.288     91.796  73.046912     4.6367      6.504    -6.0164 2.9416e-01     7.3967      4.293      6.225    14.8386   999.1812 0.0000e+00
      4.386      0.041     0.0936      1.253     90.726  72.077204     4.6040      6.505    -7.1249 2.7339e-01     7.2063      4.300      6.237    14.8373   999.1814 0.0000e+00
      4.397      0.043     0.0933      1.220     90.733  71.928534     4.5983      6.504    -8.1949 2.5418e-01     7.1921      4.310      6.252    14.8286   999.1828 0.0000e+00
      4.412      0.047     0.0934      1.210     90.827  71.885141     4.5940      6.500    -8.9739 2.4786e-01     7.1919      4.328      6.277    14.8177   999.1844 0.0000e+00
      4.424      0.052     0.0916      1.214     89.763  70.980157     4.5434      6.498    -9.5735 2.4584e-01     7.0402      4.341      6.296    14.7989   999.1867 0.0000e+00
      4.433      0.058     0.0891      1.208     87.343  68.997617     4.4457      6.498   -10.1962 2.3609e-01     6.7352      4.344      6.302    14.7296   999.1963 0.0000e+00
      4.446      0.063     0.0861      1.198     84.718  66.797082     4.3931      6.499   -10.8243 2.1621e-01     6.5515      4.358      6.320    14.6231   999.2123 0.0000e+00
      4.466      0.067     0.0853      1.188     82.845  65.162127     4.3834      6.499   -11.3174 1.8989e-01     6.4915      4.379      6.351    14.5528   999.2228 0.0000e+00
      4.487      0.069     0.0875      1.182     81.762  64.167707     4.3200      6.499   -11.7699 1.6453e-01     6.2054      4.400      6.382    14.5364   999.2250 0.0000e+00
      4.508      0.068     0.0860      1.197     81.429  63.799480     4.2070      6.497   -12.3375 1.4874e-01     5.6816      4.422      6.413    14.5116   999.2276 0.0000e+00
      4.527      0.062     0.0855      1.214     81.639  63.887856     4.1448      6.497   -12.8463 1.3441e-01     5.4011      4.440      6.440    14.4247   999.2392 0.0000e+00
      4.544      0.054     0.0854      1.214     81.885  64.028526     4.1397      6.497   -13.1902 1.2488e-01     5.3707      4.457      6.464    14.3180   999.2540 0.0000e+00
      4.555      0.048     0.0836      1.210     81.279  63.529881     4.1454      6.497   -13.5702 1.2438e-01     5.0847      4.470      6.482    14.2281   999.2664 0.0000e+00
      4.563      0.045     0.0860      1.207     79.001  61.735757     4.1443      6.497   -13.9990 1.2628e-01     4.5650      4.475      6.490    14.1637   999.2754 0.0000e+00
      4.569      0.046     0.0881      1.202     75.705  59.114206     4.1349      6.498   -14.2442 1.2899e-01     4.2984      4.481      6.499    14.1228   999.2814 0.0000e+00
      4.578      0.050     0.0872      1.207     72.711  56.680684     4.1104      6.498   -14.3842 1.2875e-01     4.2534      4.488      6.509    14.0861   999.2867 0.0000e+00
      4.592      0.055     0.0869      1.220     70.471  54.806090     3.9177      6.498   -14.5734 1.2560e-01     4.0200      4.500      6.526    14.0733   999.2885 0.0000e+00
      4.611      0.060     0.0872      1.225     69.332  53.793615     3.5735      6.499   -14.7246 1.2375e-01     3.6072      4.522      6.558    14.0789   999.2870 0.0000e+00
      4.632      0.063     0.0860      1.225     68.680  53.206172     3.3811      6.503   -14.8360 1.2363e-01     3.3587      4.543      6.589    14.0520   999.2894 0.0000e+00
      4.649      0.063     0.0867      1.219     67.201  52.023079     3.3517      6.512   -14.9745 1.2365e-01     3.3422      4.560      6.613    13.9813   999.2984 0.0000e+00
      4.663      0.063     0.0887      1.216     65.261  50.478514     3.2874      6.518   -15.1083 1.2363e-01     3.2762      4.573      6.632    13.8819   999.3112 0.0000e+00
      4.676      0.062     0.0885      1.222     63.709  49.204277     3.1762      6.517   -15.1627 1.2358e-01     3.0855      4.586      6.650    13.7764   999.3253 0.0000e+00
      4.690      0.062     0.0891      1.216     62.574  48.239833     3.1169      6.515   -15.1162 1.2357e-01     2.9705      4.599      6.668    13.7156   999.3337 0.0000e+00
      4.707      0.061     0.0885      1.197     61.745  47.518678     3.1073      6.515   -14.8911 1.2362e-01     2.9338      4.616      6.693    13.7092   999.3340 0.0000e+00
      4.725      0.059     0.0876      1.190     61.276  47.089826     3.0867      6.515   -14.5054 1.2367e-01     2.8385      4.635      6.722    13.6819   999.3370 0.0000e+00
      4.743      0.055     0.0896      1.189     61.139  46.928570     3.0591      6.518   -14.0659 1.2366e-01     2.7039      4.652      6.746    13.6147   999.3457 0.0000e+00
      4.759      0.049     0.0890      1.177     61.075  46.839040     3.0501      6.518   -13.5359 1.2363e-01     2.6491      4.668      6.770    13.5407   999.3552 0.0000e+00
      4.770      0.043     0.0867      1.162     61.099  46.832874     3.0563      6.512   -12.9145 1.2362e-01     2.6676      4.679      6.787    13.4707   999.3643 0.0000e+00
      4.776      0.036     0.0866      1.162     61.226  46.917484     3.0558      6.513   -12.1456 1.2360e-01     2.6658      4.683      6.792    13.4180   999.3711 0.0000e+00
      4.783      0.030     0.0876      1.169     61.306  46.972953     3.0359      6.520   -11.2937 1.2359e-01     2.6607      4.690      6.802    13.3720   999.3772 0.0000e+00
      4.791      0.027     0.0863      1.172     61.259  46.931975     3.0061      6.522   -10.6164 1.2361e-01     2.6708      4.699      6.815    13.3365   999.3818 0.0000e+00
      4.797      0.029     0.0843      1.177     60.687  46.485510     2.9994      6.522    -9.8934 1.2364e-01     2.6888      4.704      6.824    13.3195   999.3840 0.0000e+00
      4.801      0.037     0.0849      1.172     59.435  45.512100     3.0063      6.525    -8.9189 1.2365e-01     2.7155      4.708      6.829    13.3098   999.3854 0.0000e+00
      4.806      0.047     0.0860      1.144     58.227  44.561078     3.0029      6.530    -8.0395 1.2365e-01     2.6989      4.711      6.834    13.3071   999.3859 0.0000e+00
      4.817      0.059     0.0856      1.116     57.632  44.067498     2.9931      6.533    -7.5207 1.2367e-01     2.6510      4.720      6.846    13.3044   999.3863 0.0000e+00
      4.835      0.069     0.0862      1.101     57.421  43.862203     2.9831      6.535    -7.2064 1.2368e-01     2.6282      4.739      6.874    13.2971   999.3872 0.0000e+00
      4.860      0.077     0.0871      1.091     57.309  43.729763     2.9691      6.536    -6.6480 1.2365e-01     2.6199      4.766      6.913    13.2889   999.3878 0.0000e+00
      4.886      0.081     0.0834      1.084     57.286  43.672571     2.7978      6.538    -5.6731 1.2367e-01     2.5512      4.794      6.953    13.2654   999.3905 0.0000e+00
      4.909      0.079     0.0815      1.083     57.328  43.678627     2.4634      6.539    -4.4530 1.2371e-01     2.3870      4.816      6.985    13.2295   999.3951 0.0000e+00
      4.929      0.072     0.0809      1.113     57.345  43.675963     2.2725      6.540    -3.3394 1.2371e-01     2.2731      4.835      7.012    13.1919   999.4000 0.0000e+00
      4.946      0.064     0.0801      1.222     57.315  43.640342     2.2490      6.540    -2.7056 1.2372e-01     2.2551      4.852      7.037    13.1474   999.4059 0.0000e+00
      4.960      0.054     0.0796      1.449     57.323  43.628911     2.1545      6.539    -2.2964 1.2372e-01     2.2029      4.865      7.056    13.1089   999.4108 0.0000e+00
      4.972      0.045     0.0793      1.786     57.401  43.664719     1.9704      6.539    -1.6614 1.2372e-01     2.1004      4.875      7.071    13.0883   999.4135 0.0000e+00
      4.984      0.037     0.0797      2.222     57.462  43.692294     1.8534      6.538    -0.7925 1.2371e-01     2.0314      4.888      7.090    13.0787   999.4148 0.0000e+00
      4.993      0.029     0.0865      2.772     57.492  43.708302     1.8309      6.536     0.2942 1.2370e-01     2.0248      4.898      7.104    13.0694   999.4160 0.0000e+00
      4.998      0.024     0.1038      3.416     57.524  43.731276     1.8974      6.533     1.6697 1.2367e-01     2.0537      4.901      7.110    13.0544   999.4179 0.0000e+00
      5.002      0.024     0.1295      4.088     57.507  43.716078     2.0259      6.533     3.3620 1.2365e-01     2.0852      4.906      7.116    13.0306   999.4210 0.0000e+00
      5.005      0.029     0.1607      4.765     57.423  43.651533     2.0924      6.536     5.0101 1.2368e-01     2.0778      4.910      7.121    13.0103   999.4237 0.0000e+00
      5.006      0.038     0.2011      5.461     57.340  43.585834     2.0942      6.536     6.1101 1.2376e-01     2.0293      4.908      7.118    13.0080   999.4239 0.0000e+00
      5.014      0.050     0.2516      6.165     57.321  43.556680     2.0910      6.535     6.9394 1.2375e-01     2.0242      4.913      7.125    13.0099   999.4238 0.0000e+00
      5.033      0.061     0.3013      6.840     57.346  43.553000     2.0712      6.533     7.8959 1.2367e-01     2.2119      4.934      7.157    13.0055   999.4244 0.0000e+00
      5.056      0.068     0.3504      7.443     57.353  43.541321     2.0375      6.533     8.8132 1.2363e-01     2.5290      4.960      7.193    13.0052   999.4245 0.0000e+00
      5.078      0.070     0.4022      7.928     57.369  43.542446     2.0209      6.534     9.5125 1.2366e-01     2.6798      4.979      7.221    13.0088   999.4241 0.0000e+00
      5.099      0.068     0.4553      8.293     57.412  43.566584     2.0098      6.537    10.2416 1.2370e-01     2.6593      5.001      7.253    12.9942   999.4260 0.0000e+00
      5.117      0.061     0.5065      8.609     57.432  43.579179     1.9720      6.542    11.1766 1.2373e-01     2.7397      5.021      7.283    12.9673   999.4295 0.0000e+00
      5.129      0.052     0.5522      8.926     57.421  43.567732     1.9198      6.545    12.2127 1.2372e-01     2.9633      5.029      7.294    12.9545   999.4311 0.0000e+00
      5.139      0.045     0.5894      9.266     57.417  43.555166     1.8979      6.546    13.3050 1.2366e-01     3.1017      5.039      7.308    12.9470   999.4322 0.0000e+00
      5.149      0.040     0.6129      9.703     57.431  43.554233     1.8895      6.539    14.4034 1.2361e-01     3.1024      5.052      7.328    12.9364   999.4336 0.0000e+00
      5.156      0.037     0.6348     10.278     57.443  43.556428     1.8532      6.524    15.5121 1.2361e-01     3.1032      5.057      7.334    12.9364   999.4337 0.0000e+00
      5.164      0.035     0.6599     10.997     57.480  43.581703     1.8060      6.524    16.6437 1.2361e-01     3.1110      5.064      7.343    12.9376   999.4335 0.0000e+00
      5.176      0.032     0.6806     11.832     57.517  43.605844     1.7860      6.535    17.7616 1.2361e-01     3.0988      5.077      7.363    12.9262   999.4350 0.0000e+00
      5.186      0.028     0.7132     12.659     57.505  43.594317     1.7851      6.544    18.8752 1.2367e-01     3.1193      5.087      7.378    12.9127   999.4368 0.0000e+00
      5.192      0.027     0.7557     13.376     57.472  43.569327     1.7348      6.546    19.9562 1.2367e-01     3.1942      5.091      7.384    12.9090   999.4373 0.0000e+00
      5.197      0.028     0.8077     13.948     57.453  43.557677     1.6378      6.546    20.8511 1.2365e-01     3.2503      5.097      7.393    12.9084   999.4374 0.0000e+00
      5.200      0.031     0.8753     14.390     57.476  43.580453     1.5830      6.546    21.6937 1.2365e-01     3.2404      5.101      7.398    12.9035   999.4380 0.0000e+00
      5.205      0.037     0.9384     14.704     57.488  43.590729     1.5751      6.531    22.7441 1.2359e-01     3.3048      5.100      7.397    12.9009   999.4383 0.0000e+00
      5.215      0.047     0.9921     14.841     57.451  43.554930     1.4636      6.505    23.7427 1.2354e-01     3.8982      5.113      7.415    12.9015   999.4382 0.0000e+00
      5.230      0.058     1.0341     14.822     57.428  43.528586     1.2322      6.497    24.4757 1.2354e-01     4.8433      5.130      7.440    12.9023   999.4383 0.0000e+00
      5.246      0.068     1.0651     14.747     57.434  43.526183     1.1009      6.507    25.2410 1.2357e-01     5.2938      5.141      7.457    12.9095   999.4374 0.0000e+00
      5.267      0.077     1.0914     14.672     57.440  43.525863     1.0899      6.520    26.1127 1.2359e-01     5.3795      5.163      7.489    12.9148   999.4369 0.0000e+00
      5.290      0.081     1.1011     14.592     57.440  43.524708     0.9865      6.528    26.8416 1.2357e-01     6.1424      5.189      7.528    12.9025   999.4385 0.0000e+00
      5.312      0.080     1.0961     14.504     57.422  43.512216     0.7782      6.533    27.5148 1.2358e-01     7.5363      5.208      7.554    12.8934   999.4397 0.0000e+00
      5.335      0.075     1.0895     14.453     57.412  43.501816     0.6521      6.534    28.3153 1.2363e-01     8.3045      5.232      7.589    12.8910   999.4402 0.0000e+00
      5.359      0.066     1.0847     14.493     57.454  43.525956     0.6243      6.534    29.1211 1.2366e-01     8.3527      5.259      7.628    12.8828   999.4413 0.0000e+00
      5.374      0.056     1.0791     14.645     57.495  43.550096     0.6248      6.529    29.8586 1.2364e-01     8.3160      5.273      7.648    12.8827   999.4414 0.0000e+00
      5.382      0.046     1.0712     14.881     57.488  43.539697     0.6308      6.519    30.6070 1.2362e-01     8.3191      5.277      7.655    12.8883   999.4407 0.0000e+00
      5.391      0.038     1.0655     15.156     57.477  43.527208     0.6101      6.508    31.3726 1.2366e-01     8.3576      5.286      7.667    12.8846   999.4412 0.0000e+00
      5.400      0.033     1.0682     15.424     57.482  43.526073     0.5826      6.497    32.1463 1.2371e-01     8.3554      5.297      7.682    12.8752   999.4424 0.0000e+00
      5.406      0.033     1.0804     15.639     57.485  43.525970     0.5669      6.487    32.9062 1.2370e-01     8.3249      5.302      7.689    12.8691   999.4433 0.0000e+00
      5.412      0.037     1.0995     15.771     57.484  43.525961     0.5597      6.484    33.5061 1.2365e-01     8.3179      5.306      7.695    12.8649   999.4438 0.0000e+00
      5.420      0.043     1.1210     15.839     57.483  43.525969     0.5648      6.488    34.0651 1.2362e-01     8.3353      5.316      7.708    12.8625   999.4441 0.0000e+00
      5.432      0.050     1.1417     15.879     57.485  43.526074     0.5768      6.494    34.7598 1.2363e-01     8.3710      5.327      7.726    12.8574   999.4448 0.0000e+00
      5.446      0.058     1.1595     15.898     57.488  43.527219     0.5830      6.499    35.3667 1.2367e-01     8.3568      5.340      7.743    12.8527   999.4454 0.0000e+00
      5.463      0.064     1.1680     15.907     57.505  43.539814     0.5966      6.500    35.8109 1.2369e-01     8.1970      5.356      7.768    12.8562   999.4451 0.0000e+00
      5.483      0.069     1.1716     15.920     57.522  43.551359     0.6206      6.500    36.2593 1.2372e-01     7.9790      5.378      7.800    12.8587   999.4448 0.0000e+00
      5.502      0.070     1.1751     15.942     57.507  43.539814     0.6294      6.501    36.7434 1.2376e-01     7.9161      5.397      7.828    12.8545   999.4455 0.0000e+00
      5.521      0.069     1.1761     15.975     57.497  43.527219     0.6339      6.502    37.2764 1.2371e-01     7.9613      5.413      7.852    12.8549   999.4455 0.0000e+00
      5.540      0.066     1.1763     16.031     57.507  43.526065     0.6060      6.500    37.8857 1.2363e-01     7.9349      5.433      7.881    12.8554   999.4455 0.0000e+00
      5.556      0.062     1.1771     16.116     57.514  43.525847     0.5426      6.497    38.4320 1.2362e-01     7.8590      5.451      7.906    12.8526   999.4460 0.0000e+00
      5.569      0.058     1.1791     16.217     57.515  43.524580     0.5184      6.497    38.8912 1.2367e-01     7.8306      5.461      7.921    12.8546   999.4458 0.0000e+00
      5.583      0.053     1.1809     16.330     57.503  43.510736     0.5218      6.497    39.3941 1.2373e-01     7.8858      5.473      7.939    12.8507   999.4463 0.0000e+00
      5.598      0.048     1.1848     16.433     57.477  43.485442     0.4971      6.496    40.0384 1.2370e-01     7.9694      5.490      7.963    12.8396   999.4478 0.0000e+00
      5.611      0.044     1.1927     16.525     57.465  43.472733     0.4532      6.496    40.7446 1.2365e-01     8.0226      5.503      7.982    12.8351   999.4485 0.0000e+00
      5.621      0.042     1.1991     16.629     57.485  43.484069     0.4337      6.496    41.3082 1.2367e-01     8.0386      5.513      7.996    12.8360   999.4484 0.0000e+00
      5.630      0.042     1.2089     16.729     57.505  43.495510     0.4352      6.494    41.7767 1.2367e-01     8.0306      5.521      8.008    12.8307   999.4491 0.0000e+00
      5.637      0.047     1.2171     16.808     57.493  43.484069     0.4352      6.492    42.1924 1.2367e-01     8.0570      5.528      8.018    12.8246   999.4498 0.0000e+00
      5.645      0.055     1.2218     16.838     57.477  43.472724     0.4345      6.490    42.5497 1.2371e-01     8.1606      5.535      8.027    12.8227   999.4501 0.0000e+00
      5.658      0.066     1.2317     16.822     57.490  43.485328     0.4353      6.489    42.9131 1.2373e-01     8.2671      5.545      8.042    12.8198   999.4506 0.0000e+00
      5.678      0.076     1.2383     16.797     57.518  43.509468     0.4360      6.488    43.2305 1.2372e-01     8.2968      5.567      8.074    12.8154   999.4512 0.0000e+00
      5.704      0.081     1.2458     16.763     57.514  43.510613     0.4346      6.486    43.5484 1.2368e-01     8.3223      5.594      8.113    12.8116   999.4518 0.0000e+00
      5.731      0.081     1.2484     16.730     57.496  43.499180     0.4008      6.483    43.9175 1.2368e-01     8.5436      5.620      8.151    12.8141   999.4516 0.0000e+00
      5.756      0.075     1.2444     16.687     57.499  43.498235     0.3215      6.481    44.3371 1.2368e-01     8.8753      5.647      8.190    12.8178   999.4512 0.0000e+00
      5.776      0.065     1.2443     16.617     57.503  43.499181     0.2650      6.479    44.9220 1.2364e-01     9.0228      5.668      8.221    12.8175   999.4514 0.0000e+00
      5.787      0.055     1.2403     16.549     57.516  43.510611     0.2557      6.478    45.5692 1.2361e-01     9.0486      5.676      8.233    12.8231   999.4508 0.0000e+00
      5.794      0.045     1.2379     16.485     57.512  43.509456     0.2612      6.478    46.0528 1.2366e-01     9.1870      5.681      8.240    12.8274   999.4502 0.0000e+00
      5.803      0.039     1.2368     16.426     57.482  43.485213     0.2705      6.478    46.3817 1.2371e-01     9.4182      5.690      8.253    12.8215   999.4509 0.0000e+00
      5.813      0.036     1.2292     16.390     57.468  43.471464     0.2722      6.477    46.7928 1.2368e-01     9.5176      5.700      8.268    12.8180   999.4515 0.0000e+00
      5.823      0.034     1.2248     16.367     57.469  43.470215     0.2649      6.476    47.4102 1.2363e-01     9.5041      5.710      8.282    12.8225   999.4510 0.0000e+00
      5.832      0.031     1.2201     16.355     57.471  43.470100     0.2515      6.476    47.9953 1.2360e-01     9.6154      5.719      8.294    12.8256   999.4506 0.0000e+00
      5.841      0.028     1.2147     16.368     57.474  43.470075     0.2317      6.475    48.4469 1.2356e-01     9.8472      5.728      8.308    12.8222   999.4511 0.0000e+00
      5.848      0.024     1.2131     16.389     57.477  43.469917     0.2164      6.473    48.8263 1.2353e-01     9.9798      5.736      8.320    12.8184   999.4516 0.0000e+00
      5.853      0.023     1.2115     16.409     57.477  43.468184     0.2048      6.473    49.2268 1.2358e-01     9.9728      5.741      8.326    12.8174   999.4518 0.0000e+00
      5.855      0.025     1.2096     16.441     57.452  43.449120     0.1956      6.473    49.6762 1.2364e-01     9.9923      5.742      8.328    12.8164   999.4519 0.0000e+00
      5.858      0.030     1.2115     16.473     57.425  43.429905     0.1926      6.473    50.0440 1.2364e-01    10.0845      5.744      8.330    12.8138   999.4522 0.0000e+00
      5.865      0.039     1.2138     16.487     57.421  43.426338     0.1937      6.472    50.4901 1.2363e-01    10.1376      5.749      8.339    12.8113   999.4525 0.0000e+00
      5.876      0.051     1.2141     16.494     57.395  43.405992     0.1997      6.470    51.0256 1.2363e-01    10.1428      5.763      8.358    12.8094   999.4528 0.0000e+00
      5.891      0.064     1.2173     16.508     57.350  43.374387     0.2043      6.468    51.4426 1.2363e-01    10.1468      5.777      8.379    12.8097   999.4529 0.0000e+00
      5.908      0.073     1.2201     16.511     57.330  43.361696     0.2063      6.467    51.7469 1.2363e-01    10.1207      5.790      8.399    12.8127   999.4526 0.0000e+00
      5.933      0.078     1.2210     16.510     57.357  43.379537     0.2066      6.466    52.0382 1.2362e-01    10.0564      5.816      8.436    12.8115   999.4528 0.0000e+00
      5.960      0.078     1.2203     16.524     57.388  43.399608     0.2084      6.465    52.4695 1.2361e-01     9.9920      5.847      8.482    12.8083   999.4533 0.0000e+00
      5.982      0.073     1.2229     16.540     57.409  43.413875     0.2111      6.464    53.0036 1.2367e-01     9.9651      5.868      8.511    12.8131   999.4529 0.0000e+00
      5.998      0.063     1.2226     16.546     57.426  43.425051     0.2036      6.462    53.4199 1.2371e-01     9.9934      5.882      8.531    12.8162   999.4525 0.0000e+00
      6.013      0.050     1.2213     16.538     57.407  43.407744     0.1959      6.462    53.7171 1.2364e-01    10.0715      5.896      8.552    12.8124   999.4531 0.0000e+00
      6.025      0.037     1.2235     16.509     57.394  43.395100     0.1962      6.462    54.1011 1.2359e-01    10.1228      5.911      8.572    12.8087   999.4536 0.0000e+00
      6.032      0.027     1.2246     16.458     57.401  43.399165     0.1991      6.462    54.5361 1.2358e-01    10.1223      5.918      8.583    12.8077   999.4538 0.0000e+00
      6.034      0.022     1.2255     16.399     57.394  43.393397     0.2043      6.461    54.8470 1.2359e-01    10.1303      5.917      8.582    12.8073   999.4538 0.0000e+00
      6.036      0.022     1.2248     16.326     57.388  43.388856     0.2075      6.459    55.1922 1.2359e-01    10.1222      5.919      8.584    12.8031   999.4543 0.0000e+00
      6.039      0.025     1.2235     16.250     57.410  43.407746     0.2025      6.458    55.6117 1.2360e-01    10.0893      5.922      8.589    12.8001   999.4547 0.0000e+00
      6.044      0.032     1.2183     16.211     57.439  43.431309     0.1878      6.458    55.9627 1.2363e-01    10.0929      5.925      8.593    12.8008   999.4546 0.0000e+00
      6.054      0.041     1.2147     16.192     57.420  43.419774     0.1858      6.458    56.4247 1.2368e-01    10.1326      5.935      8.608    12.8006   999.4547 0.0000e+00
      6.068      0.051     1.2098     16.173     57.383  43.395270     0.2039      6.457    56.9816 1.2374e-01    10.1764      5.952      8.633    12.7992   999.4550 0.0000e+00
      6.082      0.060     1.2013     16.175     57.375  43.389024     0.2075      6.455    57.3607 1.2377e-01    10.1974      5.965      8.652    12.8019   999.4547 0.0000e+00
      6.097      0.066     1.1997     16.187     57.404  43.407750     0.2033      6.452    57.5677 1.2375e-01    10.1892      5.977      8.668    12.8037   999.4546 0.0000e+00
      6.116      0.071     1.1996     16.185     57.437  43.431194     0.2052      6.450    57.8488 1.2370e-01    10.1757      5.997      8.698    12.8046   999.4545 0.0000e+00
      6.137      0.072     1.1961     16.170     57.419  43.418498     0.2052      6.449    58.1790 1.2365e-01    10.1656      6.019      8.730    12.8109   999.4539 0.0000e+00
      6.157      0.071     1.1971     16.156     57.371  43.381235     0.2114      6.448    58.4622 1.2361e-01    10.1318      6.038      8.758    12.8105   999.4540 0.0000e+00
      6.177      0.068     1.1992     16.150     57.350  43.361623     0.2106      6.447    58.8640 1.2357e-01    10.0952      6.059      8.788    12.8040   999.4549 0.0000e+00
      6.194      0.061     1.1985     16.152     57.367  43.371857     0.2045      6.445    59.2516 1.2357e-01    10.0513      6.077      8.814    12.8035   999.4550 0.0000e+00
      6.209      0.051     1.1973     16.160     57.377  43.377973     0.2069      6.445    59.5350 1.2357e-01     9.9941      6.089      8.832    12.8076   999.4546 0.0000e+00
      6.220      0.042     1.1956     16.174     57.371  43.372081     0.2044      6.444    59.7952 1.2360e-01     9.9933      6.101      8.848    12.8059   999.4548 0.0000e+00
      6.230      0.033     1.1960     16.213     57.361  43.364108     0.2008      6.443    60.0743 1.2364e-01     9.9762      6.112      8.864    12.7998   999.4556 0.0000e+00
      6.236      0.027     1.1956     16.260     57.332  43.345068     0.1982      6.442    60.4149 1.2366e-01     9.8859      6.116      8.871    12.7982   999.4559 0.0000e+00
      6.239      0.022     1.1970     16.275     57.313  43.332350     0.1982      6.442    60.7299 1.2366e-01     9.8849      6.118      8.874    12.7988   999.4558 0.0000e+00
      6.244      0.020     1.1968     16.264     57.321  43.337336     0.2107      6.442    60.9580 1.2357e-01     9.9636      6.123      8.881    12.7958   999.4562 0.0000e+00
      6.248      0.023     1.1998     16.233     57.331  43.341854     0.2188      6.442    61.1080 1.2347e-01     9.9849      6.129      8.889    12.7952   999.4563 0.0000e+00
      6.252      0.029     1.2062     16.190     57.311  43.323483     0.2183      6.442    61.3387 1.2349e-01     9.9790      6.131      8.892    12.7990   999.4558 0.0000e+00
      6.257      0.038     1.2052     16.134     57.292  43.305692     0.2130      6.442    61.6821 1.2358e-01    10.0227      6.135      8.897    12.8011   999.4556 0.0000e+00
      6.267      0.047     1.2054     16.057     57.310  43.317228     0.2072      6.441    62.0768 1.2361e-01    10.1530      6.145      8.912    12.7995   999.4559 0.0000e+00
      6.282      0.057     1.2023     15.997     57.337  43.335964     0.2080      6.439    62.4974 1.2360e-01    10.2442      6.160      8.934    12.7957   999.4564 0.0000e+00
      6.301      0.067     1.1989     15.963     57.349  43.341741     0.2060      6.438    62.8095 1.2360e-01    10.2405      6.178      8.961    12.7941   999.4566 0.0000e+00
      6.321      0.075     1.1964     15.942     57.330  43.323578     0.1998      6.436    63.0114 1.2360e-01    10.2057      6.199      8.991    12.7908   999.4572 0.0000e+00
      6.341      0.078     1.1883     15.916     57.310  43.306838     0.1941      6.435    63.2180 1.2363e-01    10.1508      6.218      9.018    12.7876   999.4577 0.0000e+00
      6.361      0.076     1.1839     15.867     57.340  43.329833     0.1981      6.433    63.5009 1.2368e-01    10.1338      6.237      9.045    12.7884   999.4576 0.0000e+00
      6.385      0.069     1.1824     15.816     57.364  43.347623     0.2044      6.431    63.8496 1.2373e-01    10.1652      6.261      9.081    12.7855   999.4581 0.0000e+00
      6.407      0.059     1.1807     15.789     57.344  43.331446     0.2267      6.431    64.1654 1.2376e-01    10.2028      6.287      9.119    12.7801   999.4589 0.0000e+00
      6.422      0.049     1.1804     15.780     57.337  43.324722     0.2776      6.430    64.3934 1.2368e-01    10.1948      6.302      9.140    12.7791   999.4591 0.0000e+00
      6.427      0.039     1.1755     15.761     57.344  43.329821     0.3082      6.429    64.6284 1.2360e-01    10.1342      6.304      9.144    12.7797   999.4590 0.0000e+00
      6.431      0.029     1.1706     15.719     57.344  43.329605     0.3182      6.428    64.9411 1.2361e-01    10.1252      6.305      9.143    12.7801   999.4590 0.0000e+00
      6.437      0.023     1.1692     15.671     57.334  43.322102     0.3036      6.428    65.2486 1.2362e-01    10.1844      6.312      9.154    12.7791   999.4592 0.0000e+00
      6.443      0.021     1.1693     15.642     57.306  43.302594     0.2526      6.428    65.5074 1.2364e-01    10.2272      6.319      9.166    12.7762   999.4595 0.0000e+00
      6.448      0.022     1.1687     15.634     57.282  43.284232     0.2135      6.428    65.7468 1.2370e-01    10.2168      6.322      9.169    12.7771   999.4594 0.0000e+00
      6.453      0.024     1.1646     15.620     57.293  43.290572     0.1959      6.428    65.9925 1.2369e-01    10.1576      6.327      9.177    12.7767   999.4595 0.0000e+00
      6.459      0.028     1.1603     15.580     57.328  43.315752     0.1958      6.428    66.2412 1.2363e-01    10.1337      6.334      9.187    12.7765   999.4595 0.0000e+00
      6.465      0.036     1.1580     15.532     57.355  43.334695     0.2123      6.427    66.5168 1.2361e-01    10.1247      6.338      9.194    12.7803   999.4592 0.0000e+00
      6.473      0.047     1.1585     15.501     57.349  43.329127     0.2217      6.425    66.9159 1.2361e-01    10.0486      6.346      9.205    12.7793   999.4593 0.0000e+00
      6.484      0.059     1.1583     15.457     57.327  43.311920     0.2138      6.425    67.3669 1.2360e-01     9.9669      6.357      9.220    12.7769   999.4596 0.0000e+00
      6.500      0.069     1.1548     15.391     57.337  43.317125     0.1953      6.424    67.6671 1.2364e-01     9.9234      6.371      9.240    12.7761   999.4598 0.0000e+00
      6.523      0.078     1.1495     15.312     57.357  43.328566     0.1880      6.422    67.8792 1.2366e-01     9.9167      6.396      9.276    12.7740   999.4601 0.0000e+00
      6.548      0.083     1.1493     15.223     57.356  43.323258     0.2041      6.422    68.1244 1.2356e-01     9.9182      6.423      9.315    12.7737   999.4603 0.0000e+00
      6.572      0.085     1.1462     15.127     57.353  43.316441     0.2243      6.422    68.3948 1.2354e-01     9.9089      6.446      9.349    12.7740   999.4604 0.0000e+00
      6.594      0.083     1.1402     15.023     57.350  43.309623     0.2246      6.420    68.6528 1.2362e-01     9.9014      6.466      9.379    12.7714   999.4608 0.0000e+00
      6.614      0.075     1.1355     14.927     57.345  43.304313     0.1897      6.419    68.8354 1.2363e-01     9.8613      6.486      9.407    12.7678   999.4614 0.0000e+00
      6.634      0.063     1.1277     14.815     57.361  43.315744     0.1500      6.418    68.9680 1.2359e-01     9.7840      6.505      9.435    12.7643   999.4620 0.0000e+00
      6.652      0.049     1.1221     14.645     57.369  43.320835     0.1438      6.417    69.0507 1.2356e-01     9.7542      6.524      9.464    12.7595   999.4626 0.0000e+00
      6.666      0.035     1.1128     14.439     57.344  43.302369     0.1488      6.416    69.2333 1.2355e-01     9.7627      6.541      9.487    12.7549   999.4632 0.0000e+00
      6.671      0.022     1.1065     14.229     57.314  43.282956     0.1508      6.416    69.5411 1.2358e-01     9.7226      6.544      9.491    12.7547   999.4633 0.0000e+00
      6.669      0.011     1.1005     14.044     57.301  43.276616     0.1674      6.416    69.8473 1.2360e-01     9.6959      6.540      9.484    12.7546   999.4632 0.0000e+00
      6.667      0.004     1.0863     13.904     57.316  43.289211     0.1939      6.415    70.1818 1.2360e-01     9.7344      6.538      9.482    12.7522   999.4635 0.0000e+00
      6.666      0.001     1.0705     13.794     57.342  43.308250     0.2108      6.413    70.4021 1.2363e-01     9.7628      6.537      9.482    12.7531   999.4634 0.0000e+00
      6.666      0.001     1.0540     13.713     57.355  43.316326     0.2144      6.412    70.5329 1.2363e-01     9.7442      6.536      9.480    12.7559   999.4631 0.0000e+00
      6.668      0.002     1.0395     13.689     57.363  43.323351     0.2116      6.412    70.8165 1.2364e-01     9.7061      6.539      9.484    12.7593   999.4626 0.0000e+00
      6.670      0.004     1.0296     13.722     57.366  43.329700     0.2030      6.412    71.1638 1.2369e-01     9.6946      6.542      9.488    12.7614   999.4624 0.0000e+00
      6.671      0.009     1.0224     13.785     57.362  43.329606     0.1972      6.412    71.4622 1.2366e-01     9.7041      6.543      9.489    12.7605   999.4626 0.0000e+00
      6.671      0.017     1.0143     13.852     57.354  43.322218     0.2024      6.411    71.7575 1.2360e-01     9.6906      6.543      9.489    12.7573   999.4630 0.0000e+00
      6.671      0.029     1.0129     13.891     57.334  43.303867     0.2051      6.411    71.8956 1.2363e-01     9.6615      6.541      9.487    12.7571   999.4629 0.0000e+00
      6.676      0.044     1.0165     13.902     57.330  43.298205     0.2044      6.410    72.0135 1.2367e-01     9.6470      6.544      9.492    12.7642   999.4621 0.0000e+00
      6.690      0.058     1.0210     13.907     57.359  43.317245     0.2029      6.409    72.4078 1.2365e-01     9.6797      6.558      9.511    12.7677   999.4616 0.0000e+00
      6.712      0.069     1.0277     13.914     57.401  43.343590     0.2034      6.408    72.7919 1.2364e-01     9.7293      6.581      9.545    12.7643   999.4622 0.0000e+00
      6.738      0.075     1.0304     13.909     57.435  43.362744     0.2025      6.406    72.9580 1.2367e-01     9.6889      6.608      9.586    12.7613   999.4628 0.0000e+00
      6.763      0.076     1.0303     13.884     57.436  43.358340     0.1838      6.405    73.1254 1.2374e-01     9.5521      6.634      9.622    12.7599   999.4630 0.0000e+00
      6.783      0.071     1.0305     13.866     57.434  43.353841     0.1589      6.404    73.3526 1.2374e-01     9.4524      6.654      9.650    12.7574   999.4634 0.0000e+00
      6.798      0.064     1.0317     13.880     57.460  43.371841     0.1436      6.402    73.5536 1.2367e-01     9.4987      6.667      9.670    12.7519   999.4642 0.0000e+00
      6.810      0.055     1.0321     13.896     57.483  43.385478     0.1556      6.401    73.7501 1.2366e-01     9.5877      6.678      9.685    12.7456   999.4650 0.0000e+00
      6.823      0.048     1.0293     13.896     57.499  43.391724     0.1901      6.401    74.0071 1.2365e-01     9.5782      6.691      9.703    12.7410   999.4657 0.0000e+00
      6.837      0.042     1.0267     13.882     57.496  43.383867     0.2143      6.401    74.2524 1.2363e-01     9.5153      6.706      9.726    12.7391   999.4660 0.0000e+00
      6.847      0.038     1.0293     13.821     57.461  43.353972     0.2150      6.400    74.4788 1.2358e-01     9.4820      6.717      9.742    12.7385   999.4661 0.0000e+00
      6.855      0.034     1.0315     13.707     57.456  43.347742     0.1898      6.398    74.7654 1.2359e-01     9.5038      6.722      9.749    12.7356   999.4665 0.0000e+00
      6.862      0.030     1.0301     13.580     57.490  43.372030     0.1610      6.398    75.0506 1.2361e-01     9.5498      6.728      9.759    12.7291   999.4673 0.0000e+00
      6.869      0.026     1.0314     13.415     57.518  43.393642     0.1521      6.398    75.2595 1.2354e-01     9.5459      6.737      9.771    12.7236   999.4681 0.0000e+00
      6.875      0.024     1.0272     13.175     57.550  43.418562     0.1523      6.398    75.3983 1.2358e-01     9.4886      6.743      9.780    12.7216   999.4683 0.0000e+00
      6.880      0.027     1.0163     12.920     57.549  43.419359     0.1635      6.397    75.5240 1.2370e-01     9.4466      6.747      9.786    12.7188   999.4687 0.0000e+00
      6.885      0.034     1.0080     12.692     57.527  43.403276     0.1917      6.395    75.6620 1.2371e-01     9.4645      6.753      9.794    12.7175   999.4689 0.0000e+00
      6.891      0.044     0.9985     12.459     57.543  43.414596     0.2155      6.393    75.8617 1.2365e-01     9.5086      6.757      9.800    12.7187   999.4687 0.0000e+00
      6.901      0.054     0.9775     12.254     57.567  43.429229     0.2173      6.393    76.0456 1.2360e-01     9.5217      6.763      9.810    12.7193   999.4688 0.0000e+00
      6.918      0.064     0.9561     12.096     57.606  43.453205     0.1882      6.393    76.1647 1.2361e-01     9.5562      6.782      9.836    12.7206   999.4687 0.0000e+00
      6.942      0.072     0.9433     11.971     57.694  43.513993     0.1492      6.392    76.3551 1.2368e-01     9.6313      6.809      9.875    12.7215   999.4686 0.0000e+00
      6.965      0.075     0.9228     11.900     57.804  43.592741     0.1364      6.390    76.6274 1.2369e-01     9.6773      6.831      9.907    12.7216   999.4688 0.0000e+00
      6.985      0.074     0.9072     11.860     57.878  43.643376     0.1460      6.389    76.8764 1.2365e-01     9.7187      6.849      9.934    12.7191   999.4692 0.0000e+00
      7.006      0.069     0.8977     11.812     58.021  43.745230     0.1522      6.389    77.0424 1.2361e-01     9.7703      6.871      9.966    12.7126   999.4700 0.0000e+00
      7.024      0.064     0.8857     11.733     58.532  44.125774     0.1596      6.386    77.1705 1.2357e-01     9.8101      6.891      9.995    12.7071   999.4709 0.0000e+00
      7.036      0.060     0.8827     11.590     59.285  44.688580     0.1838      6.384    77.3071 1.2359e-01     9.8715      6.900     10.008    12.7041   999.4713 0.0000e+00
      7.047      0.056     0.8806     11.349     59.740  45.025640     0.2023      6.384    77.4036 1.2363e-01     9.9232      6.907     10.018    12.7001   999.4719 0.0000e+00
      7.062      0.051     0.8773     10.987     59.750  45.026131     0.2091      6.383    77.4777 1.2366e-01     9.9437      6.924     10.043    12.6943   999.4727 0.0000e+00
      7.078      0.046     0.8728     10.493     59.572  44.885005     0.2142      6.382    77.6003 1.2366e-01     9.9884      6.943     10.071    12.6898   999.4735 0.0000e+00
      7.091      0.042     0.8628      9.903     59.437  44.779812     0.2127      6.382    77.6811 1.2364e-01    10.0699      6.955     10.087    12.6875   999.4742 0.0000e+00
      7.101      0.041     0.8458      9.269     59.426  44.770253     0.2071      6.382    77.6801 1.2363e-01    10.1101      6.964     10.101    12.6823   999.4750 0.0000e+00
      7.108      0.041     0.8194      8.583     59.678  44.959931     0.2073      6.380    77.6743 1.2362e-01    10.1133      6.972     10.112    12.6748   999.4760 0.0000e+00
      7.112      0.046     0.7825      7.830     60.377  45.485661     0.2156      6.377    77.6979 1.2365e-01    10.1418      6.974     10.114    12.6692   999.4765 0.0000e+00
      7.120      0.054     0.7355      7.028     61.122  46.046618     0.2205      6.374    77.7078 1.2374e-01    10.1597      6.979     10.122    12.6659   999.4770 0.0000e+00
      7.136      0.062     0.6900      6.205     61.351  46.217629     0.2150      6.372    77.5351 1.2376e-01    10.1666      6.996     10.146    12.6656   999.4771 0.0000e+00
      7.159      0.068     0.6395      5.437     61.271  46.156270     0.2001      6.370    77.1589 1.2369e-01    10.1924      7.020     10.182    12.6661   999.4770 0.0000e+00
      7.183      0.072     0.5825      4.793     61.241  46.130291     0.1967      6.367    76.6860 1.2359e-01    10.4716      7.046     10.219    12.6652   999.4776 0.0000e+00
      7.204      0.072     0.5232      4.282     61.281  46.157532     0.2091      6.365    76.2056 1.2353e-01    10.9856      7.066     10.249    12.6642   999.4783 0.0000e+00
      7.220      0.066     0.4594      3.889     61.386  46.231620     0.2109      6.364    75.9105 1.2352e-01    11.2616      7.080     10.269    12.6640   999.4784 0.0000e+00
      7.235      0.058     0.4001      3.619     61.521  46.327530     0.2013      6.363    75.7850 1.2354e-01    11.2861      7.095     10.290    12.6622   999.4786 0.0000e+00
      7.249      0.049     0.3524      3.450     61.659  46.428093     0.1964      6.361    75.6345 1.2358e-01    11.3470      7.111     10.314    12.6599   999.4789 0.0000e+00
      7.261      0.041     0.3157      3.320     61.750  46.494931     0.2048      6.360    75.4685 1.2363e-01    11.4739      7.122     10.329    12.6580   999.4792 0.0000e+00
      7.270      0.034     0.2854      3.189     61.758  46.500598     0.2160      6.360    75.3261 1.2371e-01    11.5424      7.130     10.342    12.6536   999.4799 0.0000e+00
      7.278      0.028     0.2659      3.045     61.750  46.496613     0.2187      6.360    75.1169 1.2375e-01    11.5522      7.139     10.354    12.6480   999.4806 0.0000e+00
      7.284      0.023     0.2554      2.882     61.847  46.573758     0.2120      6.360    74.8318 1.2370e-01    11.5275      7.144     10.361    12.6450   999.4810 0.0000e+00
      7.288      0.021     0.2471      2.694     62.225  46.861804     0.2041      6.360    74.5464 1.2366e-01    11.2765      7.147     10.366    12.6442   999.4812 0.0000e+00
      7.291      0.021     0.2371      2.495     62.908  47.375569     0.2101      6.359    74.3329 1.2369e-01    10.8771      7.149     10.369    12.6439   999.4813 0.0000e+00
      7.295      0.022     0.2267      2.322     64.193  48.340110     0.2149      6.358    74.2298 1.2369e-01    10.6633      7.153     10.375    12.6450   999.4811 0.0000e+00
      7.301      0.024     0.2148      2.185     66.587  50.140461     0.2095      6.357    74.2461 1.2365e-01    10.6255      7.160     10.385    12.6493   999.4806 0.0000e+00
      7.309      0.025     0.2006      2.054     70.063  52.756451     0.2063      6.356    74.2722 1.2366e-01    10.7803      7.168     10.396    12.6539   999.4803 0.0000e+00
      7.317      0.025     0.1847      1.940     75.504  56.847860     0.2017      6.356    74.2011 1.2369e-01    11.0930      7.175     10.407    12.6531   999.4806 0.0000e+00
      7.324      0.024     0.1708      1.863     81.689  61.487409     0.1976      6.355    74.1604 1.2369e-01    11.2597      7.183     10.418    12.6488   999.4814 0.0000e+00
      7.330      0.022     0.1632      1.814     84.369  63.481880     0.2000      6.354    74.2101 1.2373e-01    11.2887      7.188     10.426    12.6470   999.4827 0.0000e+00
      7.334      0.020     0.1521      1.784     81.610  61.390002     0.2050      6.352    74.2859 1.2372e-01    11.4105      7.192     10.430    12.6468   999.4837 0.0000e+00
      7.337      0.018     0.1431      1.776     76.085  57.229073     0.2052      6.351    74.3020 1.2361e-01    11.6182      7.195     10.436    12.6457   999.4857 0.0000e+00
      7.342      0.017     0.1377      1.756     73.940  55.621052     0.1947      6.350    74.3191 1.2352e-01    11.7032      7.200     10.443    12.6350   999.4902 0.0000e+00
      7.347      0.016     0.1346      1.693     75.520  56.817452     0.1900      6.349    74.4931 1.2355e-01    11.7162      7.205     10.449    12.6158   999.4934 0.0000e+00
      7.352      0.014     0.1318      1.636     76.373  57.462580     0.2181      6.349    74.5994 1.2360e-01    12.0382      7.210     10.457    12.6061   999.4937 0.0000e+00
      7.356      0.012     0.1320      1.592     75.841  57.067977     0.2572      6.349    74.4860 1.2361e-01    12.6146      7.214     10.464    12.6032   999.4907 0.0000e+00
      7.358      0.009     0.1333      1.529     74.555  56.112786     0.2717      6.349    74.4982 1.2361e-01    12.9168      7.217     10.467    12.6080   999.4895 0.0000e+00
      7.360      0.006     0.1249      1.477     73.310  55.189904     0.2717      6.349    74.6605 1.2363e-01    12.9069      7.218     10.469    12.6168   999.4902 0.0000e+00
      7.360      0.004     0.1208      1.480     72.787  54.804553     0.2662      6.348    74.6420 1.2363e-01    12.7566      7.218     10.469    12.6161   999.4900 0.0000e+00
      7.360      0.002     0.1197      1.547     72.808  54.820783     0.2579      6.348    74.5324 1.2360e-01    12.5413      7.218     10.469    12.6178   999.4898 0.0000e+00
      7.360      0.001     0.1133      1.682     72.716  54.750836     0.2580      6.348    74.5401 1.2361e-01    12.4673      7.218     10.469    12.6281   999.4880 0.0000e+00
      7.361      0.001     0.1079      1.884     72.084  54.276473     0.2682      6.348    74.5623 1.2363e-01    12.5169      7.219     10.470    12.6409   999.4858 0.0000e+00
      7.361      0.001     0.1084      2.122     71.682  53.977164     0.2850      6.348    74.5431 1.2362e-01    12.8134      7.219     10.470    12.6468   999.4850 0.0000e+00
      7.361      0.001     0.1136      2.374     71.782  54.054326     0.3050      6.347    74.5668 1.2363e-01    13.3649      7.219     10.470    12.6444   999.4853 0.0000e+00
      7.362      0.001     0.1226      2.611     71.883  54.129440     0.3200      6.346    74.5904 1.2365e-01    13.6796      7.219     10.471    12.6435   999.4856 0.0000e+00
      7.362      0.001     0.1394      2.799     71.623  53.932413     0.3273      6.346    74.6555 1.2366e-01    13.7020      7.220     10.472    12.6448   999.4850 0.0000e+00
      7.362      0.001     0.1571      2.930     70.642  53.196738     0.3318      6.346    74.7523 1.2366e-01    13.6679      7.220     10.472    12.6477   999.4845 0.0000e+00
      7.362      0.000     0.1764      3.005     69.425  52.286018     0.3143      6.346    74.7281 1.2359e-01    13.3989      7.220     10.471    12.6502   999.4844 0.0000e+00
      7.362 1.8628e-08     0.1959      3.022     68.621  51.687585     0.2805      6.346    74.7071 1.2354e-01    12.9065      7.220     10.472    12.6472   999.4847 0.0000e+00
      7.362 2.0491e-07     0.2091      2.964     68.096  51.297124     0.2614      6.345    74.7565 1.2360e-01    12.6312      7.220     10.472    12.6457   999.4849 0.0000e+00
      7.362 2.0494e-07     0.2195      2.854     67.776  51.058669     0.2565      6.343    74.7233 1.2365e-01    12.5929      7.220     10.472    12.6491   999.4840 0.0000e+00
      7.363 1.8963e-08     0.2240      2.754     67.906  51.154724     0.2642      6.342    74.6493 1.2367e-01    12.6079      7.220     10.472    12.6535   999.4829 0.0000e+00
      7.363 5.3881e-09     0.2270      2.686     68.207  51.378657     0.2764      6.342    74.7232 1.2367e-01    12.6484      7.220     10.472    12.6592   999.4821 0.0000e+00
      7.363 4.0796e-08     0.2219      2.626     68.090  51.288920     0.2740      6.341    74.9272 1.2362e-01    12.6566      7.220     10.472    12.6636   999.4814 0.0000e+00
      7.363 4.4708e-07     0.2114      2.556     67.734  51.022532     0.2615      6.341    75.0510 1.2355e-01    12.6412      7.220     10.472    12.6647   999.4811 0.0000e+00
      7.363      0.000     0.2034      2.493     67.551  50.889165     0.2558      6.340    75.1019 1.2353e-01    12.5287      7.220     10.472    12.6638   999.4812 0.0000e+00
      7.362      0.000     0.1993      2.464     67.704  51.010326     0.2653      6.339    75.1984 1.2355e-01    12.3449      7.220     10.472    12.6606   999.4819 0.0000e+00
      7.362      0.001     0.1958      2.471     67.885  51.153550     0.2811      6.339    75.2724 1.2362e-01    12.2542      7.220     10.472    12.6584   999.4820 0.0000e+00
      7.362      0.002     0.1896      2.476     67.716  51.032858     0.2819      6.339    75.3071 1.2369e-01    12.2509      7.220     10.471    12.6600   999.4817 0.0000e+00
      7.363      0.002     0.1845      2.463     67.429  50.821476     0.2661      6.338    75.3599 1.2369e-01    12.2717      7.220     10.472    12.6635   999.4811 0.0000e+00
      7.364      0.002     0.1812      2.441     67.171  50.630400     0.2465      6.336    75.4808 1.2367e-01    12.3092      7.222     10.475    12.6685   999.4806 0.0000e+00
      7.366      0.002     0.1841      2.439     67.168  50.628147     0.2439      6.334    75.5639 1.2370e-01    12.3775      7.223     10.477    12.6740   999.4801 0.0000e+00
      7.366      0.002     0.1841      2.465     67.475  50.857761     0.2616      6.334    75.5905 1.2372e-01    12.4420      7.223     10.477    12.6790   999.4793 0.0000e+00
      7.366      0.001     0.1834      2.495     67.744  51.056435     0.2696      6.334    75.7168 1.2370e-01    12.4003      7.223     10.477    12.6830   999.4788 0.0000e+00
      7.366      0.000     0.1806      2.523     68.005  51.251743     0.2628      6.334    75.8004 1.2362e-01    12.2671      7.223     10.477    12.6850   999.4784 0.0000e+00
      7.366 2.0321e-08     0.1798      2.567     68.254  51.440618     0.2570      6.333    75.8274 1.2354e-01    12.1745      7.223     10.477    12.6853   999.4783 0.0000e+00
      7.366 2.2353e-07     0.1833      2.617     68.159  51.370955     0.2601      6.331    75.9569 1.2355e-01    12.1664      7.224     10.478    12.6832   999.4789 0.0000e+00
      7.366 2.2355e-07     0.1855      2.664     67.724  51.044676     0.2664      6.331    76.0756 1.2361e-01    12.2015      7.223     10.476    12.6798   999.4792 0.0000e+00
      7.366 2.0489e-08     0.1865      2.713     67.397  50.798674     0.2634      6.331    76.1443 1.2364e-01    12.2384      7.223     10.477    12.6779   999.4795 0.0000e+00
      7.366 3.6947e-09     0.1905      2.737     67.328  50.746807     0.2589      6.331    76.1856 1.2361e-01    12.2523      7.224     10.478    12.6796   999.4796 0.0000e+00
      7.366 -9.990e-29     0.1948 -9.990e-29 -9.990e-29 -9.990e-29 -9.990e-29 -9.990e-29 -9.990e-29 1.2359e-01 -9.990e-29      7.224     10.477    12.6818   999.4793 0.0000e+00
      7.367 -9.990e-29     0.1969 -9.990e-29 -9.990e-29 -9.990e-29 -9.990e-29 -9.990e-29 -9.990e-29 1.2363e-01 -9.990e-29      7.224     10.478    12.6837   999.4788 0.0000e+00
      7.367 -9.990e-29     0.2024 -9.990e-29 -9.990e-29 -9.990e-29 -9.990e-29 -9.990e-29 -9.990e-29 1.2370e-01 -9.990e-29      7.224     10.478    12.6841   999.4786 0.0000e+00
      7.367 -9.990e-29     0.2047 -9.990e-29 -9.990e-29 -9.990e-29 -9.990e-29 -9.990e-29 -9.990e-29 1.2374e-01 -9.990e-29      7.225     10.479    12.6827   999.4788 0.0000e+00
