* Sea-Bird SBE19plus  Data File:
* FileName = C:\DATA\092719_fcr_0005.hex
* Software version 2.8.0.119 SB_Terminal.dll
* Temperature SN = 7809
* Conductivity SN = 7809
* System UpLoad Time = Sep 28 2019 13:26:10
* <ApplicationData>
* <Seaterm232>
* <SoftwareVersion>2.8.0.119</SoftwareVersion>
* <BuildDate>07-Nov-2018</BuildDate>
* </Seaterm232>
* </ApplicationData>
* cast   5 27 Sep 2019 13:01:37 samples 4572 to 5118, avg = 1, stop = mag switch
# nquan = 16
# nvalues = 482                         
# units = specified
# name 0 = depFM: Depth [fresh water, m]
# name 1 = dz/dtM: Descent Rate [m/s]
# name 2 = sbeox0ML/L: Oxygen, SBE 43 [ml/l]
# name 3 = sbeox0PS: Oxygen, SBE 43 [% saturation]
# name 4 = specc: Specific Conductance [uS/cm]
# name 5 = c0uS/cm: Conductivity [uS/cm]
# name 6 = flECO-AFL: Fluorescence, WET Labs ECO-AFL/FL [mg/m^3]
# name 7 = ph: pH
# name 8 = orp: Oxidation Reduction Potential [mV]
# name 9 = par/sat/log: PAR/Logarithmic, Satlantic
# name 10 = turbWETntu0: Turbidity, WET Labs ECO [NTU]
# name 11 = prdM: Pressure, Strain Gauge [db]
# name 12 = prdE: Pressure, Strain Gauge [psi]
# name 13 = tv290C: Temperature [ITS-90, deg C]
# name 14 = density00: Density [density, kg/m^3]
# name 15 = flag:  0.000e+00
# span 0 =     -0.551,      3.053       
# span 1 =     -0.208,      0.269       
# span 2 =     4.1462,     6.8138       
# span 3 =     69.107,    112.286       
# span 4 =      1.504,     39.752       
# span 5 =   1.448525,  38.200921       
# span 6 =    -1.7704,     4.4687       
# span 7 =      6.385,      8.478       
# span 8 =    23.4391,   148.9447       
# span 9 = 1.4284e+01, 2.1306e+03       
# span 10 =    -0.8317,   893.8638      
# span 11 =     -0.541,      2.994      
# span 12 =     -0.784,      4.343      
# span 13 =    21.2810,    23.1960      
# span 14 =   997.4993,   997.9646      
# span 15 = 0.0000e+00, 0.0000e+00      
# interval = seconds: 0.25
# start_time = Sep 27 2019 13:01:37 [Instrument's time stamp, header]
# bad_flag = -9.990e-29
# <Sensors count="9" >
#   <sensor Channel="1" >
#     <!-- Count, Temperature -->
#     <TemperatureSensor SensorID="58" >
#       <SerialNumber>7809</SerialNumber>
#       <CalibrationDate>24-Mar-19</CalibrationDate>
#       <A0>1.21792325e-003</A0>
#       <A1>2.81669265e-004</A1>
#       <A2>-1.60333336e-006</A2>
#       <A3>1.98414625e-007</A3>
#       <Slope>1.00000000</Slope>
#       <Offset>0.0000</Offset>
#     </TemperatureSensor>
#   </sensor>
#   <sensor Channel="2" >
#     <!-- Frequency 0, Conductivity -->
#     <ConductivitySensor SensorID="3" >
#       <SerialNumber>7809</SerialNumber>
#       <CalibrationDate>24-Mar-19</CalibrationDate>
#       <UseG_J>1</UseG_J>
#       <!-- Cell const and series R are applicable only for wide range sensors. -->
#       <SeriesR>0.0000</SeriesR>
#       <CellConst>2000.0000</CellConst>
#       <ConductivityType>0</ConductivityType>
#       <Coefficients equation="0" >
#         <A>0.00000000e+000</A>
#         <B>0.00000000e+000</B>
#         <C>0.00000000e+000</C>
#         <D>0.00000000e+000</D>
#         <M>0.0</M>
#         <CPcor>-9.57000000e-008</CPcor>
#       </Coefficients>
#       <Coefficients equation="1" >
#         <G>-1.00589325e+000</G>
#         <H>1.26816302e-001</H>
#         <I>-1.51560448e-004</I>
#         <J>2.67137274e-005</J>
#         <CPcor>-9.57000000e-008</CPcor>
#         <CTcor>3.2500e-006</CTcor>
#         <!-- WBOTC not applicable unless ConductivityType = 1. -->
#         <WBOTC>0.00000000e+000</WBOTC>
#       </Coefficients>
#       <Slope>1.00000000</Slope>
#       <Offset>0.00000</Offset>
#     </ConductivitySensor>
#   </sensor>
#   <sensor Channel="3" >
#     <!-- Count, Pressure, Strain Gauge -->
#     <PressureSensor SensorID="46" >
#       <SerialNumber>7809</SerialNumber>
#       <CalibrationDate>11-Mar-19</CalibrationDate>
#       <PA0>4.56561833e-002</PA0>
#       <PA1>4.85095118e-004</PA1>
#       <PA2>-2.88327090e-012</PA2>
#       <PTEMPA0>-5.48784562e+001</PTEMPA0>
#       <PTEMPA1>5.53756816e+001</PTEMPA1>
#       <PTEMPA2>-5.86727098e-001</PTEMPA2>
#       <PTCA0>5.25246745e+005</PTCA0>
#       <PTCA1>1.22304214e+001</PTCA1>
#       <PTCA2>-3.56745036e-001</PTCA2>
#       <PTCB0>2.51668750e+001</PTCB0>
#       <PTCB1>3.75000000e-004</PTCB1>
#       <PTCB2>0.00000000e+000</PTCB2>
#       <Offset>0.000000</Offset>
#     </PressureSensor>
#   </sensor>
#   <sensor Channel="4" >
#     <!-- A/D voltage 0, Oxygen, SBE 43 -->
#     <OxygenSensor SensorID="38" >
#       <SerialNumber>0434</SerialNumber>
#       <CalibrationDate>13-Apr-19</CalibrationDate>
#       <Use2007Equation>1</Use2007Equation>
#       <CalibrationCoefficients equation="0" >
#         <!-- Coefficients for Owens-Millard equation. -->
#         <Boc>0.0000</Boc>
#         <Soc>0.0000e+000</Soc>
#         <offset>0.0000</offset>
#         <Pcor>0.00e+000</Pcor>
#         <Tcor>0.0000</Tcor>
#         <Tau>0.0</Tau>
#       </CalibrationCoefficients>
#       <CalibrationCoefficients equation="1" >
#         <!-- Coefficients for Sea-Bird equation - SBE calibration in 2007 and later. -->
#         <Soc>4.2007e-001</Soc>
#         <offset>-0.6109</offset>
#         <A>-4.3656e-003</A>
#         <B> 1.7017e-004</B>
#         <C>-2.5341e-006</C>
#         <D0> 2.5826e+000</D0>
#         <D1> 1.92634e-004</D1>
#         <D2>-4.64803e-002</D2>
#         <E> 3.6000e-002</E>
#         <Tau20> 1.1800</Tau20>
#         <H1>-3.3000e-002</H1>
#         <H2> 5.0000e+003</H2>
#         <H3> 1.4500e+003</H3>
#       </CalibrationCoefficients>
#     </OxygenSensor>
#   </sensor>
#   <sensor Channel="5" >
#     <!-- A/D voltage 1, PAR/Logarithmic, Satlantic -->
#     <PARLog_SatlanticSensor SensorID="76" >
#       <SerialNumber>1122</SerialNumber>
#       <CalibrationDate>08-May-2019</CalibrationDate>
#       <a0>9.7456e-001</a0>
#       <a1>8.1640e-001</a1>
#       <Im>1.3589e+000</Im>
#       <Multiplier>1.0000e+000</Multiplier>
#     </PARLog_SatlanticSensor>
#   </sensor>
#   <sensor Channel="6" >
#     <!-- A/D voltage 2, pH -->
#     <pH_Sensor SensorID="43" >
#       <SerialNumber>0363</SerialNumber>
#       <CalibrationDate>15-Apr-19</CalibrationDate>
#       <Slope>4.5952</Slope>
#       <Offset>2.5370</Offset>
#     </pH_Sensor>
#   </sensor>
#   <sensor Channel="7" >
#     <!-- A/D voltage 3, Oxidation Reduction Potential -->
#     <OxidationReductionPotentialSensor SensorID="41" >
#       <SerialNumber>0363</SerialNumber>
#       <CalibrationDate>15-Apr-19</CalibrationDate>
#       <B>2.499480</B>
#       <M>-0.496195</M>
#       <Offset>0.0</Offset>
#     </OxidationReductionPotentialSensor>
#   </sensor>
#   <sensor Channel="8" >
#     <!-- A/D voltage 4, Fluorometer, WET Labs ECO-AFL/FL -->
#     <FluoroWetlabECO_AFL_FL_Sensor SensorID="20" >
#       <SerialNumber>FLNTURT-2496</SerialNumber>
#       <CalibrationDate>08-May-2019</CalibrationDate>
#       <ScaleFactor>5.00000000e+001</ScaleFactor>
#       <!-- Dark output -->
#       <Vblank>0.0550</Vblank>
#     </FluoroWetlabECO_AFL_FL_Sensor>
#   </sensor>
#   <sensor Channel="9" >
#     <!-- A/D voltage 5, Turbidity Meter, WET Labs, ECO-NTU -->
#     <TurbidityMeter SensorID="67" >
#       <SerialNumber>FLNTURT-2496</SerialNumber>
#       <CalibrationDate>08-May-2019</CalibrationDate>
#       <ScaleFactor>189.000000</ScaleFactor>
#       <!-- Dark output -->
#       <DarkVoltage>0.071000</DarkVoltage>
#     </TurbidityMeter>
#   </sensor>
# </Sensors>
# datcnv_date = Sep 28 2019 13:33:40, 7.26.7.129 [datcnv_vars = 15]
# datcnv_in = C:\DATA\092719_fcr_20.hex C:\DATA\SBE19plusV2_7809.xmlcon
# datcnv_skipover = 0
# datcnv_ox_hysteresis_correction = yes
# datcnv_ox_tau_correction = yes
# filter_date = Sep 28 2019 13:35:46, 7.26.7.129
# filter_in = C:\DATA\092719_fcr_20.cnv
# filter_low_pass_tc_A = 0.030
# filter_low_pass_tc_B = 0.150
# filter_low_pass_A_vars = sbeox0ML/L prdM prdE tv290C density00
# filter_low_pass_B_vars = depFM dz/dtM sbeox0PS specc c0uS/cm flECO-AFL ph orp par/sat/log turbWETntu0
# alignctd_date = Sep 28 2019 13:36:15, 7.26.7.129
# alignctd_in = C:\DATA\092719_fcr_20.cnv
# alignctd_adv = dz/dtM 1.000, sbeox0PS 1.000, specc 1.000, c0uS/cm 1.000, flECO-AFL 1.000, ph 1.000, orp 1.000, turbWETntu0 1.000                                                                                                   
# file_type = ascii
*END*
     -0.549     -0.001     5.7700     96.519      1.605   1.546306    -0.0800      6.465    23.4391 2.2891e+02    -0.2724     -0.539     -0.782    23.1960   997.4993 0.0000e+00
     -0.550     -0.001     5.7718     96.528      1.564   1.506486    -0.0809      6.415    73.7452 2.0777e+02    -0.2700     -0.540     -0.783    23.1818   997.5027 0.0000e+00
     -0.550     -0.001     5.7762     96.548      1.504   1.448525    -0.0932      6.385    94.9866 1.8368e+02    -0.3172     -0.539     -0.782    23.1677   997.5060 0.0000e+00
     -0.550     -0.001     5.7759     96.549      1.536   1.479124    -0.0979      6.390    96.0564 1.8245e+02    -0.3844     -0.540     -0.783    23.1614   997.5076 0.0000e+00
     -0.551     -0.001     5.7754     96.507      1.685   1.623017    -0.0774      6.406    93.4775 2.4085e+02    -0.4272     -0.540     -0.784    23.1555   997.5090 0.0000e+00
     -0.551      0.000     5.7772     96.487      1.929   1.857721    -0.0712      6.421    92.5424 7.1082e+02    -0.4738     -0.540     -0.784    23.1478   997.5108 0.0000e+00
     -0.551      0.000     5.7788     96.519      2.245   2.162571    -0.0917      6.428    95.5909 1.5844e+03    -0.5222     -0.540     -0.783    23.1442   997.5116 0.0000e+00
     -0.551      0.000     5.7811     96.554      2.617   2.520940    -0.1347      6.437    95.4045 2.0924e+03    -0.6847     -0.540     -0.783    23.1456   997.5114 0.0000e+00
     -0.551      0.003     5.7752     96.569      3.796   3.656155    -0.1928      6.479    85.3850 2.1306e+03    -0.8317     -0.541     -0.784    23.1475   997.5109 0.0000e+00
     -0.551      0.013     5.7728     96.564     10.904  10.502150    -0.2305      6.664    75.1112 2.1170e+03     0.8783     -0.540     -0.784    23.1494   997.5106 0.0000e+00
     -0.551      0.038     5.7771     96.559     24.840  23.921681    -0.2693      7.069    80.0247 2.0357e+03    21.5968     -0.540     -0.784    23.1517   997.5099 0.0000e+00
     -0.550      0.081     5.7785     96.573     35.450  34.134160    -0.6535      7.558    96.6126 1.5616e+03   249.6086     -0.540     -0.783    23.1536   997.5097 0.0000e+00
     -0.543      0.131     5.7796     96.583     38.695  37.247934    -1.3735      7.942   109.4457 8.3276e+02   667.5041     -0.540     -0.783    23.1557   997.5088 0.0000e+00
     -0.510      0.179     5.7788     96.581     39.389  37.899070    -1.7704      8.170   108.6245 5.5752e+02   893.6793     -0.517     -0.751    23.1570   997.5096 0.0000e+00
     -0.439      0.219     5.7777     96.612     39.723  38.198389    -1.7497      8.300    93.9107 7.4655e+02   893.8638     -0.440     -0.638    23.1514   997.5173 0.0000e+00
     -0.348      0.249     5.7806     96.741     39.748  38.200921    -1.0191      8.391    78.6695 9.0027e+02   670.1600     -0.336     -0.487    23.1402   997.5239 0.0000e+00
     -0.267      0.269     5.7831     97.030     39.682  38.120089     0.3434      8.449    73.8810 8.9924e+02   256.8240     -0.252     -0.366    23.1283   997.5270 0.0000e+00
     -0.207      0.268     5.7839     97.489     39.686  38.109717     1.0959      8.473    75.1610 9.0192e+02    31.2905     -0.200     -0.289    23.1061   997.5328 0.0000e+00
     -0.152      0.246     5.7881     98.049     39.728  38.138964     1.1858      8.478    76.8518 8.8484e+02    10.7240     -0.157     -0.227    23.0743   997.5406 0.0000e+00
     -0.084      0.214     5.7971     98.628     39.752  38.156304     1.3872      8.471    78.2349 6.6249e+02     8.1889     -0.086     -0.125    23.0469   997.5474 0.0000e+00
     -0.013      0.184     5.8165     99.165     39.726  38.128938     1.7456      8.459    79.3225 5.2095e+02     6.8001     -0.001     -0.001    23.0253   997.5529 0.0000e+00
      0.034      0.157     5.8478     99.597     39.656  38.061989     1.9476      8.442    80.5376 5.5407e+02     6.1236      0.043      0.062    23.0067   997.5575 0.0000e+00
      0.058      0.127     5.8855     99.878     39.572  37.981604     1.9732      8.418    82.1717 4.3986e+02     6.0716      0.057      0.083    22.9914   997.5612 0.0000e+00
      0.075      0.093     5.9211     99.851     39.445  37.855258     1.9686      8.392    85.0553 4.2012e+02     6.0731      0.073      0.106    22.9850   997.5629 0.0000e+00
      0.093      0.062     5.9560     99.365     39.274  37.676921     1.9445      8.369    90.9680 7.0667e+02     6.0101      0.090      0.129    22.9843   997.5631 0.0000e+00
      0.112      0.040     5.9815     98.606     39.155  37.539189     1.9164      8.349   104.6199 9.5344e+02     5.9327      0.113      0.164    22.9842   997.5632 0.0000e+00
      0.122      0.027     6.0008     97.752     39.102  37.459427     1.9055      8.329   122.1779 9.6264e+02     5.8907      0.125      0.181    22.9859   997.5627 0.0000e+00
      0.122      0.020     6.0079     96.657     39.082  37.410710     1.9081      8.308   130.1505 9.0924e+02     5.8311      0.121      0.175    22.9836   997.5633 0.0000e+00
      0.116      0.015     5.9724     95.244     39.092  37.394445     1.9393      8.289   122.6344 8.5729e+02     5.8013      0.113      0.163    22.9665   997.5673 0.0000e+00
      0.114      0.014     5.9239     93.675     39.108  37.389682     1.9968      8.274   106.8434 8.4818e+02     5.8260      0.108      0.156    22.9327   997.5751 0.0000e+00
      0.119      0.018     5.8848     92.169     39.152  37.416559     2.0305      8.262    97.1902 7.8160e+02     5.8676      0.115      0.167    22.8934   997.5844 0.0000e+00
      0.129      0.026     5.8254     91.006     39.216  37.465492     2.0352      8.251    95.3995 5.3397e+02     5.8777      0.128      0.186    22.8552   997.5935 0.0000e+00
      0.139      0.032     5.7380     90.362     39.233  37.473511     2.0273      8.237    95.0010 3.8304e+02     5.8501      0.136      0.199    22.8205   997.6018 0.0000e+00
      0.147      0.032     5.6437     90.123     39.216  37.450033     2.0136      8.217    94.8673 5.8955e+02     5.8283      0.143      0.208    22.7951   997.6077 0.0000e+00
      0.157      0.024     5.5475     90.042     39.205  37.435516     2.0163      8.195    94.9011 9.6872e+02     5.8438      0.154      0.223    22.7758   997.6123 0.0000e+00
      0.167      0.010     5.4734     89.934     39.197  37.424936     2.0339      8.175    95.2381 1.1631e+03     5.8736      0.164      0.238    22.7611   997.6159 0.0000e+00
      0.173     -0.008     5.4399     89.687     39.158  37.385575     2.0186      8.157    95.8444 1.2901e+03     5.8613      0.172      0.249    22.7505   997.6183 0.0000e+00
      0.171     -0.028     5.4328     89.238     39.113  37.340452     1.9791      8.142    96.4673 1.4641e+03     5.8259      0.172      0.249    22.7418   997.6204 0.0000e+00
      0.159     -0.047     5.4318     88.539     39.097  37.323685     1.9636      8.125    97.0907 1.5273e+03     5.8055      0.158      0.230    22.7369   997.6214 0.0000e+00
      0.139     -0.061     5.4279     87.549     39.084  37.309787     1.9610      8.105    97.7027 1.4813e+03     5.8122      0.137      0.200    22.7341   997.6220 0.0000e+00
      0.115     -0.067     5.4148     86.333     39.074  37.299366     1.9042      8.081    98.1032 1.2421e+03     5.8082      0.113      0.162    22.7312   997.6225 0.0000e+00
      0.092     -0.065     5.3878     84.999     39.101  37.324638     1.7887      8.056    98.2328 7.2311e+02     5.7896      0.087      0.127    22.7289   997.6229 0.0000e+00
      0.072     -0.057     5.3487     83.636     39.139  37.361453     1.7175      8.037    98.4088 3.7795e+02     5.8170      0.068      0.099    22.7269   997.6233 0.0000e+00
      0.060     -0.045     5.2865     82.301     39.141  37.363638     1.7111      8.025    98.9418 5.7740e+02     5.8771      0.056      0.081    22.7251   997.6238 0.0000e+00
      0.054     -0.030     5.2109     81.081     39.128  37.351057     1.7197      8.015    99.7726 9.3775e+02     5.9269      0.052      0.076    22.7227   997.6243 0.0000e+00
      0.051     -0.015     5.1290     80.224     39.112  37.336283     1.7266      8.000   100.5379 1.0344e+03     5.9270      0.052      0.075    22.7217   997.6245 0.0000e+00
      0.046     -0.005     5.0445     79.897     39.082  37.311954     1.7248      7.983   100.7959 1.0648e+03     5.8785      0.043      0.063    22.7244   997.6239 0.0000e+00
      0.045     -0.001     4.9648     79.956     39.075  37.310799     1.7150      7.968   100.8267 1.2278e+03     5.8320      0.040      0.058    22.7246   997.6238 0.0000e+00
      0.052     -0.001     4.8840     80.180     39.083  37.322338     1.7124      7.953   100.9969 1.3863e+03     5.8574      0.051      0.074    22.7226   997.6243 0.0000e+00
      0.058     -0.003     4.8260     80.472     39.082  37.324521     1.7277      7.936   101.2194 1.4040e+03     5.8903      0.062      0.089    22.7236   997.6241 0.0000e+00
      0.057     -0.006     4.8120     80.849     39.091  37.337206     1.7354      7.920   101.4510 1.0757e+03     5.8359      0.059      0.086    22.7293   997.6227 0.0000e+00
      0.049     -0.007     4.8199     81.364     39.101  37.348756     1.7187      7.905   101.6470 5.0599e+02     5.7897      0.046      0.068    22.7374   997.6208 0.0000e+00
      0.042     -0.004     4.8348     82.047     39.086  37.337231     1.6993      7.890   101.8684 1.9405e+02     5.8236      0.039      0.057    22.7426   997.6195 0.0000e+00
      0.038      0.006     4.8513     82.889     39.071  37.324806     1.6753      7.876   102.2344 1.6326e+02     5.9179      0.037      0.053    22.7457   997.6188 0.0000e+00
      0.037      0.022     4.8722     83.849     39.069  37.325483     1.6271      7.861   102.5454 1.5392e+02     6.0119      0.033      0.048    22.7503   997.6177 0.0000e+00
      0.045      0.037     4.9023     84.911     39.085  37.345418     1.5934      7.845   102.6175 1.4944e+02     6.0427      0.040      0.059    22.7546   997.6167 0.0000e+00
      0.061      0.046     4.9429     86.006     39.112  37.375424     1.5974      7.828   102.7615 1.5441e+02     6.0278      0.058      0.084    22.7567   997.6163 0.0000e+00
      0.082      0.047     4.9956     86.946     39.106  37.370910     1.6318      7.813   103.0815 1.5831e+02     5.9954      0.079      0.115    22.7592   997.6158 0.0000e+00
      0.103      0.041     5.0526     87.575     39.089  37.354323     1.6886      7.800   103.2184 1.8122e+02     5.9466      0.105      0.151    22.7623   997.6152 0.0000e+00
      0.116      0.031     5.1167     87.902     39.100  37.365291     1.7210      7.788   103.2110 3.4692e+02     5.8967      0.118      0.172    22.7686   997.6138 0.0000e+00
      0.117      0.019     5.1872     88.031     39.111  37.376581     1.7203      7.770   103.3364 6.1520e+02     5.8187      0.117      0.170    22.7761   997.6121 0.0000e+00
      0.113      0.010     5.2477     87.989     39.096  37.363873     1.7315      7.751   103.5308 1.0594e+03     5.7569      0.111      0.160    22.7774   997.6117 0.0000e+00
      0.108      0.007     5.2853     87.704     39.070  37.338588     1.7701      7.739   103.7541 1.3891e+03     5.8040      0.103      0.149    22.7762   997.6119 0.0000e+00
      0.108      0.011     5.3011     87.117     39.057  37.324764     1.8051      7.731   104.1437 1.1231e+03     5.8639      0.103      0.150    22.7761   997.6120 0.0000e+00
      0.113      0.017     5.3087     86.312     39.058  37.323671     1.8071      7.722   104.5416 8.1667e+02     5.8586      0.111      0.160    22.7772   997.6118 0.0000e+00
      0.121      0.023     5.3080     85.528     39.063  37.325378     1.7862      7.714   104.7791 7.7074e+02     5.8719      0.117      0.169    22.7797   997.6112 0.0000e+00
      0.132      0.025     5.2926     84.960     39.087  37.345398     1.7602      7.705   105.0362 7.7711e+02     5.8933      0.129      0.187    22.7796   997.6113 0.0000e+00
      0.142      0.025     5.2564     84.687     39.121  37.375300     1.7359      7.692   105.4988 8.5265e+02     5.8872      0.141      0.204    22.7772   997.6118 0.0000e+00
      0.147      0.022     5.2012     84.722     39.117  37.369538     1.7271      7.676   105.9853 9.2876e+02     5.8966      0.145      0.210    22.7745   997.6125 0.0000e+00
      0.149      0.016     5.1502     85.005     39.087  37.339208     1.7229      7.658   106.3582 9.2625e+02     5.8761      0.145      0.211    22.7697   997.6137 0.0000e+00
      0.152      0.008     5.1155     85.376     39.076  37.325951     1.7114      7.642   106.7379 9.2091e+02     5.8356      0.149      0.216    22.7652   997.6147 0.0000e+00
      0.156      0.000     5.0985     85.627     39.090  37.336200     1.7091      7.630   106.9624 8.5419e+02     5.8334      0.155      0.223    22.7640   997.6151 0.0000e+00
      0.158     -0.007     5.1020     85.599     39.091  37.336166     1.7213      7.622   107.0933 7.8874e+02     5.8492      0.157      0.226    22.7622   997.6155 0.0000e+00
      0.154     -0.015     5.1228     85.255     39.079  37.325551     1.7365      7.613   107.2881 8.9768e+02     5.8629      0.152      0.220    22.7587   997.6163 0.0000e+00
      0.148     -0.024     5.1507     84.705     39.089  37.334803     1.7628      7.602   107.5111 1.0134e+03     5.8999      0.144      0.209    22.7555   997.6170 0.0000e+00
      0.139     -0.030     5.1697     84.098     39.076  37.321077     1.8061      7.592   107.8102 9.6979e+02     6.0023      0.138      0.201    22.7506   997.6181 0.0000e+00
      0.129     -0.031     5.1695     83.569     39.042  37.286542     1.8355      7.582   108.0659 7.2053e+02     6.0858      0.127      0.185    22.7487   997.6185 0.0000e+00
      0.118     -0.028     5.1451     83.241     39.055  37.298083     1.8395      7.572   108.2792 5.0107e+02     6.0902      0.116      0.168    22.7518   997.6177 0.0000e+00
      0.108     -0.022     5.1087     83.112     39.093  37.333670     1.8286      7.563   108.5829 6.6802e+02     6.0218      0.105      0.153    22.7516   997.6177 0.0000e+00
      0.102     -0.016     5.0701     83.043     39.097  37.335973     1.8083      7.553   108.8991 1.1125e+03     5.9146      0.099      0.143    22.7491   997.6183 0.0000e+00
      0.101     -0.009     5.0346     82.902     39.089  37.325932     1.7937      7.544   109.0903 1.3329e+03     5.8752      0.099      0.143    22.7460   997.6190 0.0000e+00
      0.104     -0.003     5.0151     82.623     39.104  37.339209     1.7910      7.536   109.2599 1.1681e+03     5.8728      0.103      0.149    22.7441   997.6195 0.0000e+00
      0.106     -0.001     5.0112     82.156     39.136  37.369551     1.7751      7.526   109.5737 9.8192e+02     5.8860      0.105      0.152    22.7442   997.6195 0.0000e+00
      0.107     -0.004     5.0105     81.491     39.141  37.375416     1.7410      7.516   109.7863 9.3549e+02     5.9035      0.104      0.150    22.7425   997.6199 0.0000e+00
      0.107     -0.011     5.0026     80.672     39.111  37.346659     1.7160      7.507   109.6798 1.0247e+03     5.8556      0.106      0.154    22.7395   997.6206 0.0000e+00
      0.105     -0.016     4.9878     79.787     39.103  37.339219     1.7158      7.498   109.6627 1.1660e+03     5.8308      0.105      0.152    22.7380   997.6209 0.0000e+00
      0.098     -0.017     4.9595     78.968     39.112  37.348939     1.7299      7.491   109.9239 9.8894e+02     5.8655      0.099      0.143    22.7379   997.6210 0.0000e+00
      0.088     -0.013     4.9185     78.317     39.099  37.337232     1.7299      7.482   110.1705 5.9614e+02     5.8823      0.087      0.126    22.7381   997.6209 0.0000e+00
      0.078     -0.004     4.8675     77.854     39.085  37.324626     1.7159      7.472   110.4071 3.6403e+02     5.8706      0.073      0.106    22.7389   997.6206 0.0000e+00
      0.076      0.006     4.8105     77.503     39.083  37.323471     1.7089      7.460   110.7201 3.6174e+02     5.8552      0.071      0.103    22.7394   997.6204 0.0000e+00
      0.083      0.014     4.7589     77.155     39.081  37.323262     1.7139      7.447   111.0293 4.4004e+02     5.8268      0.080      0.115    22.7403   997.6203 0.0000e+00
      0.096      0.019     4.7188     76.746     39.074  37.322107     1.7339      7.435   111.3059 5.3267e+02     5.7567      0.095      0.138    22.7402   997.6204 0.0000e+00
      0.108      0.019     4.6930     76.265     39.054  37.309515     1.7595      7.425   111.5696 6.9875e+02     5.6629      0.108      0.158    22.7422   997.6199 0.0000e+00
      0.113      0.016     4.6742     75.728     39.039  37.297974     1.7626      7.419   111.7231 8.5220e+02     5.6114      0.113      0.164    22.7436   997.6197 0.0000e+00
      0.112      0.011     4.6545     75.168     39.051  37.309515     1.7547      7.416   111.8701 9.3789e+02     5.6252      0.111      0.161    22.7428   997.6198 0.0000e+00
      0.109      0.007     4.6294     74.641     39.065  37.322105     1.7511      7.412   112.1430 7.8493e+02     5.6982      0.105      0.154    22.7523   997.6176 0.0000e+00
      0.107      0.006     4.5988     74.175     39.066  37.323249     1.7366      7.407   112.2697 5.4549e+02     5.8057      0.103      0.150    22.7636   997.6149 0.0000e+00
      0.110      0.008     4.5660     73.750     39.066  37.323343     1.7181      7.402   112.3688 7.1489e+02     5.8435      0.106      0.154    22.7660   997.6143 0.0000e+00
      0.115      0.010     4.5305     73.332     39.065  37.323238     1.7095      7.394   112.5678 1.0890e+03     5.8271      0.113      0.163    22.7640   997.6149 0.0000e+00
      0.121      0.011     4.4982     72.899     39.062  37.321979     1.7362      7.385   112.6102 1.0910e+03     5.9029      0.119      0.173    22.7630   997.6151 0.0000e+00
      0.124      0.010     4.4708     72.447     39.045  37.308131     1.7984      7.378   112.7092 7.6822e+02     6.0389      0.122      0.177    22.7638   997.6149 0.0000e+00
      0.126      0.008     4.4461     72.020     39.018  37.282752     1.8454      7.374   112.9050 5.3396e+02     6.1284      0.124      0.180    22.7635   997.6150 0.0000e+00
      0.127      0.007     4.4209     71.670     39.005  37.269017     1.8543      7.370   112.9987 5.3772e+02     6.1648      0.125      0.182    22.7645   997.6148 0.0000e+00
      0.126      0.008     4.3950     71.389     39.006  37.269017     1.8453      7.366   113.1544 6.8369e+02     6.2170      0.123      0.179    22.7684   997.6139 0.0000e+00
      0.126      0.009     4.3666     71.168     39.021  37.282750     1.8491      7.359   113.3239 7.5103e+02     6.3336      0.122      0.177    22.7720   997.6130 0.0000e+00
      0.129      0.009     4.3385     70.983     39.046  37.308119     1.8567      7.349   113.2419 7.6601e+02     6.3952      0.126      0.182    22.7719   997.6131 0.0000e+00
      0.135      0.008     4.3196     70.818     39.059  37.321854     1.8498      7.339   113.1088 9.1203e+02     6.3395      0.132      0.192    22.7687   997.6138 0.0000e+00
      0.141      0.005     4.3016     70.653     39.055  37.321863     1.8443      7.332   113.1771 9.1161e+02     6.2495      0.139      0.202    22.7661   997.6144 0.0000e+00
      0.142      0.001     4.2897     70.467     39.036  37.308231     1.8424      7.328   113.3799 7.8029e+02     6.1914      0.142      0.206    22.7677   997.6141 0.0000e+00
      0.139     -0.001     4.2784     70.313     39.008  37.283996     1.8434      7.325   113.6683 7.1445e+02     6.1611      0.137      0.199    22.7686   997.6139 0.0000e+00
      0.134     -0.002     4.2684     70.228     39.005  37.282738     1.8480      7.321   113.9105 5.2489e+02     6.1136      0.130      0.189    22.7693   997.6137 0.0000e+00
      0.131     -0.002     4.2599     70.184     39.014  37.293019     1.8464      7.318   114.0709 4.3059e+02     6.0756      0.126      0.184    22.7764   997.6120 0.0000e+00
      0.132      0.000     4.2453     70.115     39.002  37.281364     1.8404      7.315   114.1458 6.7369e+02     6.0617      0.129      0.187    22.7831   997.6105 0.0000e+00
      0.135      0.003     4.2354     69.989     38.990  37.268764     1.8370      7.311   114.2142 9.4224e+02     6.0762      0.132      0.192    22.7854   997.6100 0.0000e+00
      0.137      0.005     4.2306     69.820     38.989  37.267619     1.8405      7.308   114.2948 1.1118e+03     6.1197      0.134      0.196    22.7870   997.6096 0.0000e+00
      0.138      0.006     4.2298     69.617     38.988  37.267516     1.8480      7.306   114.3466 1.1157e+03     6.1292      0.136      0.197    22.7892   997.6090 0.0000e+00
      0.139      0.005     4.2265     69.357     38.988  37.267516     1.8576      7.302   114.4962 8.3194e+02     6.1585      0.135      0.196    22.7888   997.6091 0.0000e+00
      0.140      0.003     4.2183     69.107     38.990  37.267630     1.8700      7.296   114.6412 7.7901e+02     6.2441      0.137      0.199    22.7869   997.6096 0.0000e+00
      0.142     -0.002     4.2078     69.478     39.003  37.268890     1.8858      7.290   114.6362 8.5719e+02     6.3128      0.139      0.202    22.7865   997.6097 0.0000e+00
      0.142     -0.010     4.1960     71.689     39.038  37.282732     1.9009      7.286   114.6074 7.3263e+02     6.3334      0.140      0.204    22.7876   997.6094 0.0000e+00
      0.142     -0.016     4.1816     76.527     39.084  37.308020     1.8617      7.284   114.7244 6.8641e+02     6.1989      0.142      0.205    22.7893   997.6089 0.0000e+00
      0.137     -0.020     4.1567     83.518     39.112  37.320717     1.7670      7.280   114.9316 7.3743e+02     5.9635      0.137      0.199    22.7905   997.6087 0.0000e+00
      0.125     -0.020     4.1462     91.273     39.108  37.309273     1.7098      7.273   115.1346 8.3368e+02     5.8472      0.124      0.179    22.7780   997.6116 0.0000e+00
      0.113     -0.015     4.2602     98.425     39.101  37.296589     1.7081      7.263   115.3716 8.5664e+02     5.8415      0.109      0.157    22.7462   997.6190 0.0000e+00
      0.108     -0.009     4.5678    104.328     39.103  37.294302     1.7465      7.253   115.5599 8.0862e+02     5.9604      0.103      0.149    22.7184   997.6255 0.0000e+00
      0.109     -0.001     5.0244    108.731     39.096  37.281618     1.8100      7.245   115.6045 7.7952e+02     6.1713      0.105      0.153    22.7032   997.6290 0.0000e+00
      0.116      0.005     5.5284    111.386     39.093  37.270176     1.8428      7.240   115.6527 6.6302e+02     6.2940      0.114      0.164    22.6937   997.6313 0.0000e+00
      0.122      0.008     5.9699    112.286     39.116  37.282882     1.8478      7.236   115.7123 4.5861e+02     6.3291      0.121      0.175    22.6873   997.6329 0.0000e+00
      0.126      0.004     6.3291    111.802     39.148  37.308282     1.8793      7.232   115.7223 3.1983e+02     6.3008      0.125      0.181    22.6827   997.6339 0.0000e+00
      0.126     -0.007     6.6042    110.540     39.164  37.323385     1.9374      7.226   115.6886 2.7499e+02     6.2139      0.124      0.179    22.6758   997.6355 0.0000e+00
      0.125     -0.034     6.7666    109.084     39.174  37.338544     1.9693      7.222   115.6490 3.9675e+02     6.1307      0.123      0.179    22.6637   997.6384 0.0000e+00
      0.120     -0.078     6.8138    107.752     39.189  37.364633     1.9707      7.222   115.7595 6.2276e+02     6.0814      0.119      0.173    22.6503   997.6415 0.0000e+00
      0.112     -0.130     6.7722    106.627     39.193  37.384941     1.9537      7.223   115.9915 6.4696e+02     6.0104      0.112      0.161    22.6414   997.6435 0.0000e+00
      0.087     -0.175     6.6817    105.749     39.181  37.393684     1.9115      7.223   116.2176 5.2131e+02     5.8952      0.102      0.148    22.6422   997.6434 0.0000e+00
      0.022     -0.203     6.5861    105.094     39.171  37.406900     1.8685      7.220   116.4280 3.9887e+02     5.8357      0.037      0.054    22.6505   997.6411 0.0000e+00
     -0.075     -0.208     6.5046    104.616     39.161  37.417820     1.8413      7.213   116.6423 4.1749e+02     5.8481     -0.080     -0.117    22.6645   997.6372 0.0000e+00
     -0.160     -0.190     6.4313    104.274     39.128  37.398790     1.8255      7.205   116.9164 7.8439e+02     5.8808     -0.171     -0.249    22.6871   997.6316 0.0000e+00
     -0.209     -0.153     6.3764    103.969     39.093  37.367252     1.7897      7.196   117.1604 1.2824e+03     5.9037     -0.216     -0.313    22.7144   997.6250 0.0000e+00
     -0.226     -0.104     6.3350    103.638     39.084  37.353877     1.7207      7.191   117.2699 1.5084e+03     5.8957     -0.227     -0.331    22.7426   997.6184 0.0000e+00
     -0.226     -0.057     6.3020    103.318     39.099  37.364014     1.6759      7.189   117.3806 1.5258e+03     5.8497     -0.224     -0.325    22.7729   997.6113 0.0000e+00
     -0.221     -0.025     6.2823    103.044     39.102  37.362860     1.6735      7.187   117.5523 1.5281e+03     5.8066     -0.215     -0.311    22.7924   997.6068 0.0000e+00
     -0.221     -0.008     6.2660    102.804     39.082  37.339925     1.6911      7.181   117.7106 1.5120e+03     5.8327     -0.212     -0.307    22.7905   997.6072 0.0000e+00
     -0.229     -0.002     6.2454    102.608     39.087  37.340602     1.7154      7.170   117.9188 1.5031e+03     5.9032     -0.225     -0.327    22.7809   997.6093 0.0000e+00
     -0.236      0.002     6.2257    102.472     39.121  37.371038     1.7242      7.158   118.1763 1.4691e+03     5.9378     -0.235     -0.341    22.7748   997.6107 0.0000e+00
     -0.235      0.006     6.2110    102.402     39.139  37.390545     1.7282      7.153   118.1565 1.3059e+03     5.9241     -0.231     -0.335    22.7713   997.6116 0.0000e+00
     -0.230      0.004     6.1961    102.412     39.131  37.386037     1.7893      7.159   117.5077 1.2249e+03     5.8354     -0.224     -0.325    22.7669   997.6127 0.0000e+00
     -0.223     -0.013     6.1849    102.462     39.121  37.380014     1.9001      7.167   116.3537 1.4075e+03     5.6847     -0.222     -0.321    22.7599   997.6143 0.0000e+00
     -0.211     -0.039     6.1776    102.492     39.120  37.381209     1.9586      7.173   115.7334 1.5514e+03     5.6423     -0.207     -0.301    22.7551   997.6156 0.0000e+00
     -0.208     -0.061     6.1715    102.470     39.138  37.400490     1.9068      7.173   116.7194 1.5498e+03     5.7815     -0.189     -0.275    22.7597   997.6146 0.0000e+00
     -0.237     -0.060     6.1726    102.348     39.159  37.422718     1.2559      7.163   118.2083 1.4404e+03     6.8440     -0.220     -0.320    22.7668   997.6127 0.0000e+00
     -0.293     -0.029     6.1770    102.062     39.130  37.396069     0.0707      7.152   118.3343 1.0537e+03     8.7549     -0.292     -0.423    22.7701   997.6116 0.0000e+00
     -0.340      0.025     6.1787    101.596     39.069  37.332176    -0.5704      7.148   117.6411 6.5899e+02     9.8128     -0.349     -0.505    22.7730   997.6107 0.0000e+00
     -0.343      0.090     6.1779    100.951     39.036  37.284929    -0.6259      7.152   117.2262 7.8689e+02     9.9008     -0.361     -0.523    22.7746   997.6103 0.0000e+00
     -0.285      0.153     6.1726    100.155     39.046  37.269105    -0.5838      7.157   117.0177 1.2520e+03     9.7870     -0.297     -0.430    22.7773   997.6099 0.0000e+00
     -0.187      0.197     6.1546     99.340     39.075  37.267764    -0.0268      7.160   117.0117 1.5174e+03     8.8302     -0.177     -0.257    22.7802   997.6098 0.0000e+00
     -0.096      0.209     6.1268     98.672     39.100  37.268677     0.9940      7.162   117.1542 1.5435e+03     7.1147     -0.080     -0.117    22.7764   997.6111 0.0000e+00
     -0.037      0.188     6.0906     98.266     39.125  37.280114     1.5533      7.162   117.1064 1.5228e+03     6.1857     -0.028     -0.041    22.7586   997.6155 0.0000e+00
     -0.006      0.145     6.0434     98.212     39.129  37.279075     1.6115      7.162   117.0363 1.5179e+03     6.1179      0.001      0.001    22.7204   997.6246 0.0000e+00
      0.009      0.097     5.9948     98.534     39.107  37.256108     1.6460      7.162   117.1667 1.5256e+03     6.0653      0.010      0.015    22.6779   997.6345 0.0000e+00
      0.019      0.061     5.9561     99.120     39.109  37.256317     1.7025      7.161   117.3058 1.5138e+03     5.9429      0.017      0.024    22.6488   997.6413 0.0000e+00
      0.029      0.039     5.9313     99.806     39.134  37.281600     1.7307      7.157   117.3421 1.3361e+03     5.8838      0.028      0.040    22.6336   997.6449 0.0000e+00
      0.039      0.028     5.9267    100.462     39.154  37.307915     1.7266      7.154   117.3471 1.0731e+03     5.9073      0.038      0.055    22.6305   997.6458 0.0000e+00
      0.045      0.024     5.9498    101.007     39.154  37.320599     1.7225      7.151   117.4517 9.4070e+02     5.9980      0.047      0.067    22.6288   997.6461 0.0000e+00
      0.047      0.026     5.9895    101.427     39.128  37.308015     1.7164      7.146   117.6610 1.0057e+03     6.1286      0.046      0.066    22.6254   997.6470 0.0000e+00
      0.048      0.033     6.0335    101.708     39.093  37.282739     1.7135      7.141   117.8990 1.2504e+03     6.2089      0.045      0.065    22.6250   997.6471 0.0000e+00
      0.052      0.041     6.0743    101.807     39.079  37.268900     1.7135      7.137   118.0925 1.2381e+03     6.2795      0.048      0.071    22.6340   997.6449 0.0000e+00
      0.063      0.047     6.1046    101.699     39.088  37.267633     1.7334      7.135   118.1080 9.2904e+02     6.3268      0.056      0.082    22.6533   997.6405 0.0000e+00
      0.084      0.049     6.1278    101.423     39.103  37.267407     1.7724      7.135   117.9994 7.3864e+02     6.2890      0.080      0.116    22.6715   997.6364 0.0000e+00
      0.108      0.047     6.1451    101.108     39.114  37.266148     1.7860      7.138   117.9834 6.5749e+02     6.2488      0.111      0.161    22.6831   997.6338 0.0000e+00
      0.123      0.039     6.1512    100.896     39.106  37.252393     1.7854      7.139   118.0010 8.1770e+02     6.2673      0.125      0.182    22.6843   997.6335 0.0000e+00
      0.128      0.028     6.1463    100.818     39.088  37.228034     1.8077      7.140   118.0408 1.1322e+03     6.2837      0.127      0.184    22.6680   997.6374 0.0000e+00
      0.127      0.018     6.1294    100.865     39.096  37.225519     1.8382      7.142   118.1213 1.1602e+03     6.2824      0.125      0.181    22.6442   997.6430 0.0000e+00
      0.126      0.012     6.1076    101.013     39.104  37.221965     1.8425      7.144   118.1993 1.0677e+03     6.2848      0.123      0.178    22.6303   997.6462 0.0000e+00
      0.127      0.011     6.0961    101.201     39.078  37.185047     1.8340      7.144   118.3819 1.0376e+03     6.2796      0.123      0.179    22.6250   997.6475 0.0000e+00
      0.131      0.012     6.0922    101.396     39.062  37.159972     1.8222      7.143   118.6079 8.9850e+02     6.2850      0.128      0.186    22.6181   997.6490 0.0000e+00
      0.137      0.013     6.0965    101.583     39.079  37.172675     1.8039      7.141   118.7805 7.0954e+02     6.2845      0.135      0.195    22.6037   997.6524 0.0000e+00
      0.143      0.011     6.1097    101.707     39.113  37.211684     1.7949      7.139   119.0056 6.5274e+02     6.3067      0.141      0.205    22.5874   997.6563 0.0000e+00
      0.148      0.008     6.1232    101.747     39.143  37.250788     1.7823      7.137   119.2647 8.1350e+02     6.3571      0.146      0.212    22.5731   997.6596 0.0000e+00
      0.149      0.004     6.1363    101.776     39.148  37.264645     1.7814      7.135   119.4185 9.6616e+02     6.3366      0.147      0.213    22.5577   997.6632 0.0000e+00
      0.147      0.002     6.1503    101.803     39.126  37.252292     1.8018      7.135   119.4028 8.8614e+02     6.2556      0.144      0.209    22.5496   997.6650 0.0000e+00
      0.143      0.005     6.1583    101.797     39.091  37.228389     1.8039      7.135   119.2464 8.4321e+02     6.1636      0.140      0.203    22.5600   997.6626 0.0000e+00
      0.142      0.010     6.1548    101.791     39.086  37.229543     1.7895      7.135   119.2481 8.6242e+02     6.0758      0.138      0.201    22.5790   997.6583 0.0000e+00
      0.144      0.017     6.1554    101.815     39.125  37.266254     1.7840      7.135   119.4244 8.2769e+02     6.0138      0.139      0.202    22.5903   997.6557 0.0000e+00
      0.151      0.027     6.1585    101.854     39.155  37.291417     1.7976      7.135   119.5705 8.5292e+02     6.0703      0.146      0.212    22.5978   997.6538 0.0000e+00
      0.161      0.036     6.1541    101.867     39.145  37.279875     1.8241      7.134   119.7246 8.6507e+02     6.2341      0.158      0.228    22.6121   997.6505 0.0000e+00
      0.173      0.041     6.1523    101.824     39.120  37.253654     1.8427      7.133   119.7391 8.4047e+02     6.3225      0.170      0.247    22.6237   997.6479 0.0000e+00
      0.186      0.043     6.1540    101.713     39.096  37.228277     1.8502      7.132   119.6598 8.6873e+02     6.2873      0.181      0.264    22.6217   997.6485 0.0000e+00
      0.199      0.043     6.1585    101.521     39.096  37.226936     1.8805      7.129   119.7977 1.1137e+03     6.1692      0.196      0.284    22.6148   997.6501 0.0000e+00
      0.210      0.038     6.1603    101.290     39.110  37.237438     1.9404      7.126   120.0292 1.5269e+03     6.0737      0.207      0.302    22.6111   997.6510 0.0000e+00
      0.219      0.031     6.1579    101.098     39.101  37.228300     1.9754      7.123   120.1361 1.5704e+03     6.0834      0.214      0.312    22.6087   997.6517 0.0000e+00
      0.228      0.024     6.1523    100.988     39.114  37.243395     1.9747      7.121   120.1444 1.3004e+03     6.0902      0.225      0.326    22.6066   997.6521 0.0000e+00
      0.233      0.018     6.1401    100.948     39.159  37.293007     1.9667      7.121   120.0433 1.1399e+03     6.0570      0.230      0.334    22.6038   997.6528 0.0000e+00
      0.235      0.015     6.1244    100.961     39.176  37.320370     1.9654      7.121   120.0320 9.2944e+02     6.0754      0.231      0.335    22.5995   997.6538 0.0000e+00
      0.235      0.015     6.1117    101.014     39.164  37.320360     1.9676      7.122   120.2663 8.7996e+02     6.1163      0.230      0.334    22.5970   997.6544 0.0000e+00
      0.235      0.017     6.1060    101.124     39.132  37.292891     1.9675      7.123   120.4663 1.1808e+03     6.0928      0.229      0.333    22.6002   997.6537 0.0000e+00
      0.239      0.020     6.1019    101.258     39.088  37.242153     1.9546      7.122   120.5581 1.2526e+03     5.9873      0.233      0.338    22.6099   997.6514 0.0000e+00
      0.247      0.020     6.1024    101.325     39.077  37.214678     1.9255      7.121   120.6020 1.1552e+03     5.8573      0.241      0.349    22.6252   997.6479 0.0000e+00
      0.258      0.017     6.1022    101.325     39.091  37.214566     1.9100      7.123   120.5663 1.2892e+03     5.8316      0.254      0.369    22.6440   997.6435 0.0000e+00
      0.267      0.012     6.1077    101.318     39.121  37.240776     1.9142      7.125   120.5571 1.2338e+03     5.9064      0.265      0.384    22.6532   997.6415 0.0000e+00
      0.271      0.007     6.1217    101.365     39.152  37.277684     1.9161      7.126   120.6626 1.1018e+03     5.9422      0.268      0.388    22.6376   997.6451 0.0000e+00
      0.266      0.007     6.1278    101.473     39.144  37.279979     1.9241      7.125   120.8954 1.1570e+03     5.9371      0.262      0.380    22.6093   997.6517 0.0000e+00
      0.257      0.012     6.1289    101.583     39.124  37.268542     1.9493      7.124   121.0493 1.0138e+03     5.9759      0.251      0.364    22.5895   997.6563 0.0000e+00
      0.254      0.018     6.1273    101.632     39.119  37.266358     1.9693      7.123   120.9747 8.0759e+02     6.0495      0.245      0.355    22.5861   997.6570 0.0000e+00
      0.263      0.024     6.1283    101.562     39.106  37.253569     1.9762      7.123   120.9394 8.1071e+02     6.1064      0.253      0.367    22.5985   997.6542 0.0000e+00
      0.282      0.030     6.1349    101.346     39.092  37.240864     1.9713      7.124   121.0532 8.3229e+02     6.0743      0.277      0.402    22.6160   997.6502 0.0000e+00
      0.299      0.034     6.1412    101.062     39.087  37.239689     1.9534      7.125   121.2322 7.4397e+02     5.9235      0.301      0.435    22.6277   997.6476 0.0000e+00
      0.305      0.036     6.1451    100.784     39.083  37.239375     1.9428      7.124   121.5544 7.7470e+02     5.7908      0.300      0.435    22.6291   997.6472 0.0000e+00
      0.305      0.037     6.1431    100.519     39.079  37.237065     1.9548      7.119   122.0236 8.3393e+02     5.8132      0.297      0.431    22.6240   997.6485 0.0000e+00
      0.310      0.040     6.1272    100.336     39.056  37.211770     1.9859      7.113   122.5173 7.1219e+02     6.0302      0.304      0.440    22.6255   997.6482 0.0000e+00
      0.319      0.046     6.1065    100.285     39.045  37.187422     2.0159      7.108   122.8776 6.0156e+02     6.3502      0.310      0.449    22.6316   997.6467 0.0000e+00
      0.334      0.053     6.0915    100.311     39.080  37.196554     2.0223      7.103   123.0243 5.4290e+02     6.5362      0.324      0.469    22.6367   997.6457 0.0000e+00
      0.355      0.056     6.0722    100.377     39.105  37.195194     2.0203      7.103   123.1729 5.3235e+02     6.5425      0.349      0.507    22.6407   997.6448 0.0000e+00
      0.376      0.053     6.0592    100.457     39.093  37.170940     2.0273      7.105   123.4697 5.8848e+02     6.4586      0.371      0.538    22.6385   997.6454 0.0000e+00
      0.391      0.047     6.0611    100.547     39.081  37.157184     2.0286      7.109   123.7737 6.3321e+02     6.3420      0.387      0.561    22.6229   997.6491 0.0000e+00
      0.400      0.039     6.0667    100.701     39.081  37.155820     2.0187      7.112   124.0954 6.2666e+02     6.2800      0.394      0.572    22.5863   997.6577 0.0000e+00
      0.403      0.032     6.0760    100.931     39.085  37.154448     2.0122      7.116   124.4337 5.9173e+02     6.2982      0.395      0.573    22.5458   997.6671 0.0000e+00
      0.407      0.030     6.0838    101.184     39.081  37.140589     2.0449      7.118   124.7668 6.9615e+02     6.4960      0.398      0.577    22.5307   997.6706 0.0000e+00
      0.412      0.033     6.0863    101.401     39.070  37.115187     2.1109      7.120   125.2837 8.1186e+02     6.8365      0.404      0.585    22.5330   997.6701 0.0000e+00
      0.420      0.039     6.0956    101.556     39.074  37.101190     2.1503      7.123   125.7794 7.0073e+02     7.0073      0.410      0.595    22.5330   997.6702 0.0000e+00
      0.433      0.045     6.1117    101.689     39.088  37.098275     2.1572      7.125   125.9413 5.9753e+02     6.9878      0.423      0.613    22.5281   997.6713 0.0000e+00
      0.449      0.050     6.1296    101.824     39.083  37.079920     2.1594      7.127   126.0365 5.7582e+02     6.9611      0.441      0.639    22.5147   997.6744 0.0000e+00
      0.465      0.054     6.1465    101.924     39.020  37.006181     2.2034      7.129   126.2425 5.7491e+02     7.0126      0.457      0.663    22.4944   997.6792 0.0000e+00
      0.478      0.057     6.1572    101.985     38.945  36.904903     2.2896      7.131   126.4533 7.6104e+02     7.1508      0.470      0.681    22.4699   997.6850 0.0000e+00
      0.489      0.059     6.1666    102.017     38.960  36.870918     2.3349      7.133   126.6928 8.8202e+02     7.2234      0.478      0.693    22.4456   997.6907 0.0000e+00
      0.504      0.060     6.1793    102.025     39.052  36.912565     2.3349      7.133   126.9866 6.9547e+02     7.2025      0.492      0.715    22.4303   997.6943 0.0000e+00
      0.522      0.061     6.1853    102.063     39.136  36.964075     2.3507      7.133   127.2523 5.0869e+02     7.2255      0.513      0.745    22.4228   997.6960 0.0000e+00
      0.539      0.061     6.1926    102.143     39.166  36.985888     2.3868      7.133   127.4967 4.4560e+02     7.2720      0.529      0.768    22.3884   997.7040 0.0000e+00
      0.554      0.061     6.2050    102.258     39.157  36.985873     2.4074      7.133   127.6187 4.6518e+02     7.2738      0.543      0.788    22.3107   997.7220 0.0000e+00
      0.570      0.059     6.2104    102.445     39.125  36.963909     2.4091      7.133   127.5225 5.4919e+02     7.2468      0.560      0.812    22.2454   997.7372 0.0000e+00
      0.586      0.056     6.2174    102.711     39.068  36.910759     2.4507      7.133   127.3655 5.3589e+02     7.2733      0.575      0.834    22.2104   997.7453 0.0000e+00
      0.600      0.053     6.2240    102.992     39.014  36.851032     2.5380      7.133   127.2698 4.4578e+02     7.3976      0.589      0.854    22.2034   997.7469 0.0000e+00
      0.612      0.049     6.2267    103.227     38.994  36.812998     2.5894      7.132   127.3114 4.1843e+02     7.4712      0.600      0.872    22.2235   997.7424 0.0000e+00
      0.624      0.043     6.2363    103.402     39.035  36.831713     2.6032      7.129   127.4388 4.1619e+02     7.4417      0.612      0.888    22.2369   997.7393 0.0000e+00
      0.636      0.036     6.2542    103.516     39.105  36.886866     2.6441      7.128   127.6048 4.0570e+02     7.3689      0.625      0.906    22.2393   997.7388 0.0000e+00
      0.647      0.028     6.2740    103.565     39.128  36.908565     2.7111      7.130   127.7698 4.0915e+02     7.2804      0.636      0.922    22.2281   997.7414 0.0000e+00
      0.654      0.020     6.2922    103.563     39.114  36.903651     2.7548      7.133   127.8862 3.9696e+02     7.2554      0.642      0.931    22.1978   997.7484 0.0000e+00
      0.656      0.015     6.3061    103.519     39.090  36.890945     2.7651      7.135   127.9790 3.8299e+02     7.2637      0.644      0.934    22.1682   997.7552 0.0000e+00
      0.655      0.013     6.3154    103.421     39.075  36.881890     2.7828      7.138   128.0320 3.8128e+02     7.2827      0.643      0.932    22.1531   997.7586 0.0000e+00
      0.654      0.015     6.3178    103.311     39.057  36.857653     2.8130      7.143   128.0960 3.9131e+02     7.3535      0.640      0.929    22.1542   997.7583 0.0000e+00
      0.657      0.022     6.3152    103.257     39.002  36.788307     2.8190      7.146   128.1515 3.9820e+02     7.3985      0.642      0.931    22.1673   997.7554 0.0000e+00
      0.663      0.031     6.3118    103.268     38.981  36.741619     2.8107      7.145   128.1862 3.7461e+02     7.4013      0.649      0.941    22.1849   997.7514 0.0000e+00
      0.673      0.040     6.3035    103.290     39.005  36.737431     2.8175      7.145   128.1713 3.5941e+02     7.4199      0.658      0.954    22.1945   997.7492 0.0000e+00
      0.688      0.046     6.2958    103.283     39.026  36.737630     2.8580      7.147   128.0582 3.5998e+02     7.3941      0.673      0.976    22.1847   997.7516 0.0000e+00
      0.705      0.051     6.2955    103.269     39.045  36.743996     2.9195      7.150   128.1085 3.5348e+02     7.3188      0.693      1.007    22.1597   997.7573 0.0000e+00
      0.717      0.051     6.3019    103.253     39.060  36.750908     2.9450      7.152   128.3498 3.4336e+02     7.2957      0.705      1.023    22.1231   997.7657 0.0000e+00
      0.727      0.049     6.3098    103.203     39.070  36.757723     2.9500      7.153   128.4807 3.3653e+02     7.3109      0.711      1.031    22.0833   997.7749 0.0000e+00
      0.740      0.045     6.3109    103.144     39.072  36.762915     2.9884      7.153   128.4863 3.4479e+02     7.3398      0.726      1.053    22.0590   997.7804 0.0000e+00
      0.754      0.044     6.3111    103.104     39.054  36.750220     3.0451      7.153   128.5036 3.4776e+02     7.3823      0.742      1.076    22.0462   997.7835 0.0000e+00
      0.763      0.044     6.3135    103.056     39.035  36.731179     3.0719      7.153   128.6033 3.4904e+02     7.3997      0.748      1.086    22.0357   997.7859 0.0000e+00
      0.771      0.044     6.3095    102.971     39.035  36.723105     3.0782      7.152   128.7459 3.6337e+02     7.4181      0.754      1.094    22.0334   997.7864 0.0000e+00
      0.782      0.043     6.3038    102.846     39.039  36.716069     3.1649      7.149   128.9368 3.7408e+02     7.4406      0.766      1.111    22.0401   997.7849 0.0000e+00
      0.796      0.042     6.3017    102.702     39.044  36.709562     3.3129      7.147   129.1908 3.7807e+02     7.4434      0.781      1.132    22.0488   997.7830 0.0000e+00
      0.808      0.041     6.2994    102.547     39.053  36.707881     3.3764      7.147   129.3220 3.5134e+02     7.4187      0.792      1.150    22.0473   997.7834 0.0000e+00
      0.819      0.039     6.2957    102.360     39.047  36.695726     3.3779      7.149   129.3187 3.0465e+02     7.4043      0.805      1.166    22.0348   997.7863 0.0000e+00
      0.829      0.034     6.2896    102.175     39.042  36.689540     3.4270      7.153   129.3222 2.9077e+02     7.3993      0.813      1.180    22.0202   997.7896 0.0000e+00
      0.837      0.029     6.2816    102.045     39.047  36.696560     3.5100      7.158   129.2788 3.1214e+02     7.3267      0.820      1.191    22.0037   997.7935 0.0000e+00
      0.844      0.027     6.2759    101.990     39.065  36.717127     3.5500      7.162   129.3103 3.4252e+02     7.2473      0.829      1.202    21.9895   997.7967 0.0000e+00
      0.849      0.030     6.2638    102.038     39.091  36.747803     3.5541      7.163   129.5309 3.5978e+02     7.2257      0.833      1.207    21.9821   997.7984 0.0000e+00
      0.852      0.036     6.2511    102.168     39.083  36.750099     3.5685      7.158   129.7085 3.4541e+02     7.2297      0.834      1.210    21.9801   997.7989 0.0000e+00
      0.858      0.043     6.2434    102.313     39.070  36.744904     3.5766      7.153   129.8232 3.1645e+02     7.2628      0.839      1.216    21.9844   997.7979 0.0000e+00
      0.870      0.050     6.2374    102.433     39.077  36.748475     3.5656      7.151   129.8853 3.0289e+02     7.2988      0.850      1.232    21.9902   997.7965 0.0000e+00
      0.891      0.056     6.2405    102.529     39.063  36.729804     3.5570      7.154   129.8571 3.0009e+02     7.2710      0.873      1.266    21.9946   997.7957 0.0000e+00
      0.911      0.061     6.2484    102.609     39.050  36.709563     3.5508      7.159   129.9126 2.8839e+02     7.1892      0.897      1.301    22.0121   997.7919 0.0000e+00
      0.926      0.065     6.2565    102.654     39.047  36.694147     3.5337      7.164   130.0405 2.7411e+02     7.0955      0.908      1.318    22.0258   997.7888 0.0000e+00
      0.938      0.063     6.2647    102.637     39.037  36.670339     3.5154      7.167   130.1126 2.6897e+02     7.0232      0.918      1.332    22.0161   997.7910 0.0000e+00
      0.953      0.054     6.2713    102.598     39.057  36.675572     3.5119      7.171   130.0967 2.5947e+02     7.0033      0.933      1.353    22.0083   997.7929 0.0000e+00
      0.973      0.044     6.2774    102.637     39.084  36.693922     3.5173      7.175   130.0197 2.5170e+02     6.9867      0.953      1.383    22.0007   997.7948 0.0000e+00
      0.990      0.036     6.2836    102.799     39.093  36.701781     3.5288      7.178   129.9560 2.5401e+02     6.8553      0.976      1.416    21.9825   997.7990 0.0000e+00
      0.996      0.030     6.2842    103.028     39.094  36.707126     3.5463      7.180   130.0148 2.5393e+02     6.6590      0.981      1.423    21.9624   997.8035 0.0000e+00
      0.993      0.025     6.2810    103.240     39.077  36.695073     3.5550      7.181   130.2139 2.5750e+02     6.5791      0.972      1.409    21.9436   997.8078 0.0000e+00
      0.991      0.020     6.2833    103.406     39.062  36.683004     3.5566      7.181   130.2989 2.6355e+02     6.5776      0.968      1.404    21.9338   997.8099 0.0000e+00
      0.998      0.016     6.2950    103.535     39.067  36.688149     3.5657      7.182   130.1819 2.5274e+02     6.5104      0.977      1.418    21.9350   997.8097 0.0000e+00
      1.010      0.016     6.3106    103.636     39.075  36.693815     3.5872      7.184   130.0041 2.3720e+02     6.3889      0.993      1.440    21.9419   997.8083 0.0000e+00
      1.019      0.020     6.3229    103.701     39.071  36.688030     3.6078      7.185   129.8693 2.3740e+02     6.3211      1.002      1.453    21.9481   997.8069 0.0000e+00
      1.019      0.024     6.3326    103.695     39.067  36.681672     3.6240      7.187   129.9285 2.5058e+02     6.3470      1.000      1.450    21.9505   997.8063 0.0000e+00
      1.017      0.029     6.3399    103.584     39.069  36.680414     3.6362      7.188   130.2041 2.5876e+02     6.3735      0.995      1.442    21.9515   997.8061 0.0000e+00
      1.022      0.040     6.3468    103.404     39.064  36.672809     3.6341      7.185   130.5347 2.4411e+02     6.3470      0.998      1.448    21.9481   997.8069 0.0000e+00
      1.035      0.060     6.3516    103.250     39.044  36.653195     3.6250      7.177   130.7421 2.2964e+02     6.3538      1.015      1.472    21.9450   997.8076 0.0000e+00
      1.051      0.081     6.3533    103.184     39.029  36.633682     3.6205      7.168   130.7321 2.2961e+02     6.3903      1.030      1.494    21.9431   997.8080 0.0000e+00
      1.071      0.095     6.3460    103.169     39.032  36.627279     3.6237      7.164   130.5862 2.2411e+02     6.4930      1.043      1.514    21.9365   997.8096 0.0000e+00
      1.104      0.098     6.3331    103.151     39.054  36.639236     3.6283      7.164   130.5267 2.0989e+02     6.6785      1.078      1.564    21.9338   997.8104 0.0000e+00
      1.147      0.089     6.3214    103.149     39.073  36.651297     3.6251      7.168   130.5288 1.9572e+02     6.7650      1.129      1.638    21.9353   997.8103 0.0000e+00
      1.180      0.073     6.3196    103.178     39.070  36.646160     3.6187      7.175   130.5260 1.9038e+02     6.7525      1.165      1.690    21.9282   997.8121 0.0000e+00
      1.194      0.054     6.3229    103.270     39.064  36.640590     3.6034      7.183   130.5793 1.8921e+02     6.6587      1.174      1.703    21.9131   997.8155 0.0000e+00
      1.194      0.034     6.3210    103.404     39.069  36.647424     3.5791      7.188   130.5715 1.8774e+02     6.4834      1.172      1.700    21.9006   997.8184 0.0000e+00
      1.189      0.020     6.3231    103.504     39.086  36.665321     3.5592      7.192   130.5170 1.9164e+02     6.3371      1.166      1.690    21.8938   997.8199 0.0000e+00
      1.186      0.015     6.3231    103.534     39.086  36.666560     3.5450      7.195   130.5223 1.9520e+02     6.2651      1.160      1.682    21.8917   997.8204 0.0000e+00
      1.190      0.016     6.3289    103.480     39.082  36.662406     3.5454      7.195   130.5494 1.9240e+02     6.2683      1.165      1.690    21.8928   997.8201 0.0000e+00
      1.200      0.020     6.3400    103.381     39.099  36.678567     3.5726      7.196   130.5869 1.8571e+02     6.3106      1.176      1.707    21.8948   997.8196 0.0000e+00
      1.210      0.021     6.3453    103.301     39.092  36.671549     3.6139      7.198   130.6312 1.8003e+02     6.3502      1.188      1.723    21.8982   997.8190 0.0000e+00
      1.218      0.020     6.3479    103.234     39.058  36.641015     3.6279      7.199   130.6548 1.7732e+02     6.3547      1.197      1.736    21.8997   997.8187 0.0000e+00
      1.222      0.017     6.3439    103.160     39.042  36.626750     3.6119      7.199   130.7865 1.7436e+02     6.3320      1.199      1.739    21.8987   997.8189 0.0000e+00
      1.222      0.015     6.3353    103.121     39.042  36.626031     3.6109      7.199   131.0185 1.7417e+02     6.2723      1.200      1.740    21.8994   997.8188 0.0000e+00
      1.222      0.014     6.3312    103.136     39.053  36.632322     3.6247      7.198   131.0516 1.7826e+02     6.1895      1.198      1.737    21.8991   997.8189 0.0000e+00
      1.224      0.014     6.3283    103.151     39.064  36.639330     3.6237      7.197   130.9291 1.7804e+02     6.1506      1.197      1.738    21.8994   997.8187 0.0000e+00
      1.232      0.015     6.3214    103.133     39.073  36.647289     3.6159      7.197   130.9134 1.7365e+02     6.1291      1.207      1.751    21.9023   997.8182 0.0000e+00
      1.239      0.017     6.3184    103.085     39.088  36.665071     3.6168      7.198   130.9479 1.7335e+02     6.1266      1.218      1.766    21.9018   997.8183 0.0000e+00
      1.243      0.020     6.3221    103.019     39.083  36.663916     3.6261      7.200   130.9154 1.7571e+02     6.1536      1.220      1.769    21.8963   997.8195 0.0000e+00
      1.244      0.025     6.3245    102.958     39.047  36.633333     3.6321      7.200   130.9509 1.7551e+02     6.1601      1.219      1.768    21.8899   997.8210 0.0000e+00
      1.248      0.034     6.3228    102.938     39.026  36.612669     3.6293      7.199   131.0332 1.7256e+02     6.1716      1.223      1.774    21.8900   997.8210 0.0000e+00
      1.255      0.049     6.3194    102.996     39.023  36.604488     3.6275      7.198   131.0503 1.6950e+02     6.3264      1.230      1.783    21.8949   997.8200 0.0000e+00
      1.265      0.067     6.3141    103.138     39.026  36.597877     3.6265      7.196   131.1573 1.6656e+02     6.6221      1.238      1.795    21.9003   997.8187 0.0000e+00
      1.285      0.083     6.3092    103.332     39.038  36.596195     3.6261      7.194   131.2944 1.6016e+02     6.7977      1.255      1.821    21.9044   997.8179 0.0000e+00
      1.315      0.093     6.3068    103.501     39.041  36.584135     3.6235      7.193   131.3318 1.5178e+02     6.7784      1.288      1.869    21.9046   997.8181 0.0000e+00
      1.350      0.095     6.3109    103.545     39.049  36.578982     3.6201      7.192   131.3510 1.4582e+02     6.6514      1.326      1.924    21.8987   997.8195 0.0000e+00
      1.379      0.090     6.3219    103.435     39.082  36.597343     3.6197      7.191   131.4412 1.4157e+02     6.4739      1.356      1.966    21.8857   997.8226 0.0000e+00
      1.402      0.078     6.3376    103.207     39.112  36.615704     3.6110      7.189   131.5621 1.3718e+02     6.3684      1.377      1.997    21.8667   997.8270 0.0000e+00
      1.418      0.062     6.3535    102.894     39.115  36.610550     3.6100      7.188   131.6940 1.3357e+02     6.3594      1.392      2.019    21.8473   997.8314 0.0000e+00
      1.429      0.046     6.3585    102.504     39.106  36.598489     3.6250      7.188   131.9173 1.3093e+02     6.3659      1.402      2.034    21.8314   997.8350 0.0000e+00
      1.438      0.034     6.3522    102.041     39.106  36.596816     3.6278      7.188   132.0250 1.2980e+02     6.2828      1.412      2.048    21.8158   997.8385 0.0000e+00
      1.443      0.024     6.3396    101.615     39.096  36.590316     3.6181      7.188   131.9633 1.2935e+02     6.1417      1.416      2.054    21.8019   997.8417 0.0000e+00
      1.447      0.016     6.3209    101.359     39.083  36.583383     3.6110      7.188   132.0321 1.2790e+02     6.1013      1.419      2.059    21.7917   997.8440 0.0000e+00
      1.450      0.011     6.2990    101.247     39.069  36.576462     3.6110      7.189   132.1680 1.2753e+02     6.1220      1.422      2.063    21.7857   997.8454 0.0000e+00
      1.452      0.009     6.2680    101.212     39.057  36.570113     3.5841      7.191   132.1440 1.2832e+02     6.0313      1.426      2.068    21.7846   997.8457 0.0000e+00
      1.452      0.010     6.2360    101.261     39.052  36.570103     3.5197      7.192   132.0857 1.2901e+02     5.8895      1.425      2.067    21.7888   997.8447 0.0000e+00
      1.452      0.015     6.2217    101.401     39.057  36.576345     3.4829      7.194   132.1522 1.2888e+02     5.8498      1.423      2.064    21.7970   997.8428 0.0000e+00
      1.455      0.021     6.2160    101.602     39.063  36.582110     3.4855      7.196   132.2588 1.2756e+02     5.9123      1.424      2.067    21.8056   997.8409 0.0000e+00
      1.460      0.029     6.2119    101.826     39.058  36.576330     3.5258      7.198   132.2568 1.2600e+02     6.1207      1.430      2.075    21.8127   997.8394 0.0000e+00
      1.470      0.039     6.2141    102.006     39.056  36.569936     3.5878      7.199   132.2140 1.2419e+02     6.4023      1.442      2.091    21.8175   997.8383 0.0000e+00
      1.483      0.049     6.2234    102.114     39.061  36.568273     3.6117      7.199   132.2574 1.2187e+02     6.5321      1.456      2.110    21.8207   997.8376 0.0000e+00
      1.497      0.059     6.2360    102.179     39.054  36.556203     3.6149      7.197   132.3514 1.1907e+02     6.5430      1.469      2.128    21.8212   997.8377 0.0000e+00
      1.511      0.068     6.2520    102.195     39.054  36.550942     3.6266      7.194   132.4902 1.1632e+02     6.5671      1.480      2.146    21.8184   997.8383 0.0000e+00
      1.529      0.074     6.2648    102.117     39.077  36.568125     3.6313      7.189   132.6450 1.1336e+02     6.5945      1.497      2.170    21.8132   997.8395 0.0000e+00
      1.550      0.079     6.2706    101.927     39.088  36.573530     3.6193      7.184   132.7601 1.0931e+02     6.5791      1.519      2.203    21.8045   997.8416 0.0000e+00
      1.574      0.082     6.2761    101.669     39.074  36.552815     3.6032      7.180   132.8493 1.0504e+02     6.5442      1.543      2.239    21.7954   997.8438 0.0000e+00
      1.598      0.082     6.2792    101.438     39.038  36.508085     3.6370      7.176   132.9490 1.0149e+02     6.5329      1.569      2.274    21.7897   997.8451 0.0000e+00
      1.620      0.079     6.2755    101.257     39.018  36.476990     3.7157      7.172   133.1054 9.8431e+01     6.5405      1.590      2.306    21.7843   997.8465 0.0000e+00
      1.640      0.073     6.2640    101.066     39.048  36.494194     3.7568      7.166   133.2784 9.5722e+01     6.5709      1.609      2.334    21.7791   997.8477 0.0000e+00
      1.656      0.064     6.2460    100.836     39.093  36.525660     3.7524      7.159   133.4924 9.3614e+01     6.5727      1.624      2.357    21.7703   997.8498 0.0000e+00
      1.671      0.054     6.2326    100.561     39.115  36.540062     3.7402      7.154   133.7992 9.1677e+01     6.5297      1.638      2.375    21.7549   997.8532 0.0000e+00
      1.686      0.043     6.2266    100.248     39.118  36.541380     3.7489      7.150   133.9759 8.9959e+01     6.4118      1.655      2.401    21.7387   997.8569 0.0000e+00
      1.699      0.033     6.2162     99.902     39.115  36.541595     3.7881      7.146   133.9079 8.8922e+01     6.2279      1.669      2.420    21.7239   997.8604 0.0000e+00
      1.704      0.023     6.2043     99.522     39.111  36.542655     3.8154      7.144   133.8384 8.8272e+01     6.1745      1.672      2.425    21.7103   997.8634 0.0000e+00
      1.706      0.017     6.1883     99.196     39.117  36.554205     3.8186      7.144   133.9951 8.8129e+01     6.2245      1.673      2.426    21.7008   997.8656 0.0000e+00
      1.706      0.012     6.1684     99.032     39.111  36.554309     3.8269      7.145   134.2544 8.8322e+01     6.2428      1.674      2.428    21.6993   997.8659 0.0000e+00
      1.706      0.011     6.1479     99.056     39.096  36.543922     3.8469      7.147   134.3055 8.8060e+01     6.2975      1.672      2.425    21.7040   997.8649 0.0000e+00
      1.709      0.014     6.1210     99.222     39.106  36.555566     3.8694      7.151   134.1835 8.7624e+01     6.3616      1.674      2.427    21.7116   997.8633 0.0000e+00
      1.714      0.019     6.0970     99.456     39.117  36.568154     3.8810      7.155   134.0702 8.7347e+01     6.3299      1.681      2.437    21.7198   997.8614 0.0000e+00
      1.720      0.027     6.0858     99.680     39.116  36.569185     3.9706      7.157   134.0536 8.6548e+01     6.3399      1.687      2.446    21.7262   997.8600 0.0000e+00
      1.726      0.039     6.0881     99.891     39.115  36.568032     4.1554      7.156   134.1546 8.5461e+01     6.4829      1.692      2.455    21.7306   997.8590 0.0000e+00
      1.733      0.054     6.0993    100.126     39.103  36.554202     4.2683      7.154   134.3458 8.4573e+01     6.5839      1.698      2.463    21.7341   997.8582 0.0000e+00
      1.745      0.068     6.1159    100.348     39.080  36.528920     4.2957      7.149   134.5580 8.2768e+01     6.6119      1.708      2.477    21.7372   997.8575 0.0000e+00
      1.766      0.079     6.1293    100.492     39.072  36.516227     4.3400      7.144   134.7425 7.9586e+01     6.6238      1.730      2.509    21.7393   997.8572 0.0000e+00
      1.795      0.085     6.1400    100.537     39.092  36.527672     4.4131      7.138   135.0278 7.6209e+01     6.5972      1.761      2.554    21.7393   997.8574 0.0000e+00
      1.823      0.085     6.1565    100.506     39.113  36.540347     4.4596      7.132   135.2533 7.3487e+01     6.5520      1.791      2.597    21.7359   997.8583 0.0000e+00
      1.848      0.079     6.1725    100.423     39.119  36.542517     4.4687      7.127   135.2323 7.1503e+01     6.5355      1.814      2.632    21.7319   997.8593 0.0000e+00
      1.867      0.066     6.1823    100.292     39.130  36.553910     4.4192      7.124   135.2047 6.9951e+01     6.4968      1.833      2.659    21.7256   997.8608 0.0000e+00
      1.882      0.051     6.1858    100.097     39.125  36.551152     4.3033      7.123   135.3494 6.8733e+01     6.3789      1.847      2.678    21.7143   997.8634 0.0000e+00
      1.892      0.038     6.1844     99.827     39.080  36.509180     4.2289      7.126   135.5192 6.8129e+01     6.3224      1.856      2.691    21.7038   997.8658 0.0000e+00
      1.898      0.028     6.1798     99.505     39.063  36.490726     4.2220      7.131   135.6230 6.7899e+01     6.3377      1.861      2.701    21.7002   997.8666 0.0000e+00
      1.902      0.020     6.1719     99.209     39.097  36.518443     4.2190      7.135   135.7430 6.7642e+01     6.3017      1.866      2.705    21.7021   997.8662 0.0000e+00
      1.904      0.015     6.1600     99.021     39.106  36.526936     4.1496      7.140   135.8526 6.7242e+01     6.2150      1.868      2.708    21.7045   997.8656 0.0000e+00
      1.907      0.012     6.1428     98.944     39.106  36.529942     4.0162      7.143   135.9157 6.6681e+01     6.1090      1.871      2.713    21.7079   997.8649 0.0000e+00
      1.911      0.011     6.1217     98.908     39.131  36.554797     3.9327      7.145   135.9041 6.6389e+01     6.0688      1.874      2.719    21.7038   997.8658 0.0000e+00
      1.913      0.012     6.1019     98.863     39.151  36.573576     3.9205      7.147   135.8843 6.6297e+01     6.0897      1.876      2.721    21.6927   997.8684 0.0000e+00
      1.914      0.013     6.0905     98.839     39.141  36.566576     3.9205      7.149   136.0195 6.5953e+01     6.1980      1.877      2.723    21.6949   997.8678 0.0000e+00
      1.917      0.015     6.0867     98.835     39.107  36.533634     3.9250      7.150   136.2484 6.5524e+01     6.4276      1.880      2.726    21.7032   997.8659 0.0000e+00
      1.921      0.020     6.0864     98.788     39.072  36.492630     3.9307      7.150   136.5879 6.4948e+01     6.5387      1.884      2.732    21.7033   997.8660 0.0000e+00
      1.927      0.028     6.0821     98.741     39.043  36.451626     3.9282      7.147   137.0273 6.4328e+01     6.5261      1.890      2.741    21.7025   997.8662 0.0000e+00
      1.932      0.040     6.0788     98.727     39.024  36.418672     3.9565      7.142   137.4307 6.3847e+01     6.5701      1.894      2.747    21.7069   997.8653 0.0000e+00
      1.940      0.055     6.0828     98.649     39.030  36.411524     4.0214      7.137   137.8510 6.2892e+01     6.6112      1.899      2.755    21.7085   997.8649 0.0000e+00
      1.954      0.069     6.0786     98.471     39.060  36.428653     4.0621      7.133   138.2378 6.1127e+01     6.5975      1.913      2.776    21.6966   997.8676 0.0000e+00
      1.977      0.079     6.0757     98.230     39.076  36.435345     4.0671      7.130   138.4940 5.8866e+01     6.5673      1.937      2.810    21.6763   997.8722 0.0000e+00
      2.005      0.085     6.0822     97.909     39.076  36.428950     4.0898      7.129   138.6253 5.6591e+01     6.5736      1.966      2.851    21.6553   997.8771 0.0000e+00
      2.033      0.086     6.0797     97.509     39.066  36.414800     4.1465      7.128   138.7074 5.4646e+01     6.6090      1.996      2.895    21.6384   997.8810 0.0000e+00
      2.057      0.082     6.0680     97.082     39.042  36.391199     4.1800      7.126   138.7977 5.3181e+01     6.6023      2.020      2.930    21.6258   997.8839 0.0000e+00
      2.075      0.073     6.0559     96.659     39.049  36.397480     4.1752      7.122   138.9422 5.2147e+01     6.5582      2.037      2.953    21.6151   997.8864 0.0000e+00
      2.090      0.062     6.0374     96.260     39.084  36.427278     4.1138      7.120   139.0792 5.1198e+01     6.4677      2.049      2.972    21.6059   997.8885 0.0000e+00
      2.104      0.050     6.0116     95.945     39.095  36.434113     4.0094      7.118   139.0771 5.0253e+01     6.3607      2.062      2.992    21.6000   997.8899 0.0000e+00
      2.118      0.039     5.9844     95.714     39.079  36.416648     3.9529      7.117   139.0882 4.9562e+01     6.3467      2.078      3.013    21.6010   997.8897 0.0000e+00
      2.128      0.029     5.9590     95.529     39.068  36.406522     3.9343      7.117   139.2139 4.9170e+01     6.3641      2.088      3.028    21.6015   997.8896 0.0000e+00
      2.133      0.021     5.9321     95.405     39.102  36.438621     3.9153      7.117   139.3065 4.9016e+01     6.3412      2.093      3.037    21.5967   997.8908 0.0000e+00
      2.134      0.015     5.9135     95.338     39.153  36.487392     3.8963      7.117   139.3479 4.9114e+01     6.2667      2.095      3.039    21.5912   997.8920 0.0000e+00
      2.133      0.013     5.9019     95.307     39.153  36.488433     3.8776      7.116   139.4561 4.9250e+01     6.1509      2.091      3.033    21.5878   997.8927 0.0000e+00
      2.134      0.013     5.8885     95.317     39.113  36.451212     3.8714      7.115   139.5821 4.9122e+01     6.0883      2.091      3.033    21.5880   997.8926 0.0000e+00
      2.138      0.016     5.8814     95.368     39.077  36.418189     3.8818      7.114   139.6661 4.8795e+01     6.0667      2.096      3.040    21.5901   997.8922 0.0000e+00
      2.144      0.023     5.8779     95.447     39.063  36.406509     3.9170      7.113   139.8695 4.8390e+01     6.1197      2.102      3.048    21.5913   997.8920 0.0000e+00
      2.151      0.034     5.8755     95.552     39.096  36.436935     3.9585      7.110   140.2353 4.7968e+01     6.2705      2.109      3.059    21.5913   997.8920 0.0000e+00
      2.158      0.048     5.8758     95.652     39.132  36.468707     3.9757      7.105   140.5611 4.7631e+01     6.3491      2.117      3.071    21.5918   997.8920 0.0000e+00
      2.166      0.062     5.8799     95.706     39.141  36.473304     3.9870      7.100   140.7106 4.6931e+01     6.3165      2.121      3.078    21.5934   997.8916 0.0000e+00
      2.182      0.075     5.8839     95.742     39.166  36.492502     4.0254      7.095   140.7526 4.5373e+01     6.2367      2.135      3.097    21.5943   997.8914 0.0000e+00
      2.209      0.085     5.8907     95.762     39.190  36.510409     4.0762      7.092   140.8111 4.3409e+01     6.1378      2.165      3.140    21.5948   997.8915 0.0000e+00
      2.239      0.090     5.8995     95.707     39.180  36.499397     4.0989      7.087   140.9015 4.1729e+01     6.0713      2.197      3.187    21.5935   997.8919 0.0000e+00
      2.266      0.089     5.9013     95.562     39.167  36.486297     4.0909      7.082   140.9854 4.0280e+01     6.0551      2.223      3.224    21.5872   997.8935 0.0000e+00
      2.291      0.080     5.9043     95.332     39.159  36.478952     4.0062      7.080   141.0518 3.8943e+01     6.0408      2.247      3.259    21.5803   997.8951 0.0000e+00
      2.312      0.065     5.9085     95.029     39.154  36.474065     3.8546      7.080   141.1011 3.7993e+01     5.9965      2.270      3.292    21.5760   997.8962 0.0000e+00
      2.326      0.049     5.9050     94.711     39.172  36.490685     3.7663      7.081   141.1512 3.7492e+01     5.9453      2.283      3.312    21.5734   997.8968 0.0000e+00
      2.333      0.034     5.8960     94.442     39.171  36.489488     3.7542      7.082   141.2279 3.7275e+01     5.9140      2.290      3.321    21.5723   997.8971 0.0000e+00
      2.337      0.024     5.8825     94.262     39.139  36.459583     3.7602      7.083   141.4263 3.7211e+01     5.9123      2.293      3.325    21.5717   997.8973 0.0000e+00
      2.338      0.019     5.8618     94.156     39.124  36.446468     3.7605      7.083   141.5715 3.7176e+01     5.8925      2.294      3.327    21.5715   997.8973 0.0000e+00
      2.339      0.017     5.8408     94.097     39.136  36.457864     3.7487      7.084   141.6070 3.6964e+01     5.8390      2.293      3.326    21.5714   997.8973 0.0000e+00
      2.344      0.017     5.8232     94.101     39.149  36.470431     3.7396      7.085   141.8542 3.6520e+01     5.8215      2.298      3.333    21.5716   997.8973 0.0000e+00
      2.352      0.020     5.8123     94.156     39.149  36.471470     3.7362      7.085   142.2380 3.6114e+01     5.8447      2.308      3.347    21.5723   997.8971 0.0000e+00
      2.359      0.030     5.8074     94.243     39.147  36.470415     3.7425      7.082   142.7200 3.5920e+01     5.8579      2.314      3.357    21.5733   997.8969 0.0000e+00
      2.362      0.045     5.8019     94.362     39.134  36.457678     3.7555      7.075   143.2078 3.5804e+01     5.8829      2.316      3.360    21.5733   997.8970 0.0000e+00
      2.367      0.065     5.8032     94.464     39.123  36.444409     3.7549      7.068   143.4042 3.5409e+01     5.8844      2.319      3.363    21.5732   997.8971 0.0000e+00
      2.380      0.085     5.8072     94.486     39.121  36.436924     3.7527      7.063   143.5458 3.4312e+01     5.8432      2.328      3.377    21.5741   997.8969 0.0000e+00
      2.409      0.102     5.8113     94.423     39.121  36.430644     3.8417      7.060   143.8017 3.2497e+01     5.9091      2.356      3.417    21.5760   997.8966 0.0000e+00
      2.450      0.114     5.8199     94.297     39.131  36.431932     4.0159      7.055   143.9171 3.0595e+01     6.0590      2.402      3.484    21.5775   997.8964 0.0000e+00
      2.490      0.115     5.8288     94.121     39.165  36.452495     4.1158      7.051   143.9081 2.9155e+01     6.1475      2.446      3.548    21.5733   997.8976 0.0000e+00
      2.523      0.104     5.8309     93.928     39.215  36.488843     4.1135      7.050   143.9514 2.8048e+01     6.1598      2.476      3.592    21.5637   997.8999 0.0000e+00
      2.549      0.083     5.8271     93.731     39.222  36.490561     4.0135      7.051   144.0097 2.7184e+01     6.0111      2.502      3.629    21.5556   997.9018 0.0000e+00
      2.568      0.058     5.8206     93.494     39.203  36.473265     3.8520      7.054   144.0966 2.6782e+01     5.7924      2.523      3.658    21.5481   997.9035 0.0000e+00
      2.577      0.035     5.8100     93.160     39.196  36.470130     3.7745      7.058   144.2284 2.6747e+01     5.7441      2.530      3.669    21.5322   997.9071 0.0000e+00
      2.578      0.020     5.7997     92.732     39.172  36.452664     3.7615      7.062   144.2260 2.6869e+01     5.7550      2.530      3.668    21.5161   997.9106 0.0000e+00
      2.575      0.012     5.7888     92.288     39.167  36.452508     3.7983      7.064   144.2396 2.7063e+01     5.7596      2.525      3.662    21.5123   997.9115 0.0000e+00
      2.572      0.009     5.7760     91.928     39.185  36.468243     3.9067      7.066   144.4796 2.7114e+01     5.8327      2.520      3.655    21.5129   997.9113 0.0000e+00
      2.574      0.012     5.7550     91.694     39.172  36.452497     3.9799      7.066   144.6319 2.6879e+01     5.8857      2.522      3.657    21.5166   997.9105 0.0000e+00
      2.581      0.015     5.7254     91.560     39.177  36.452537     3.9993      7.067   144.6189 2.6571e+01     5.9082      2.531      3.671    21.5255   997.9086 0.0000e+00
      2.588      0.016     5.6948     91.460     39.197  36.468716     4.0534      7.068   144.6665 2.6329e+01     5.9080      2.537      3.681    21.5315   997.9072 0.0000e+00
      2.595      0.016     5.6719     91.393     39.185  36.457700     4.1494      7.068   144.7778 2.6108e+01     5.8500      2.544      3.691    21.5293   997.9078 0.0000e+00
      2.600      0.016     5.6585     91.411     39.171  36.446287     4.2058      7.069   144.8452 2.6057e+01     5.7979      2.553      3.702    21.5238   997.9091 0.0000e+00
      2.601      0.019     5.6531     91.479     39.181  36.457673     4.2237      7.070   144.8788 2.6170e+01     5.8024      2.552      3.701    21.5172   997.9105 0.0000e+00
      2.600      0.028     5.6481     91.550     39.191  36.468433     4.2446      7.067   145.0121 2.6157e+01     5.8379      2.547      3.693    21.5115   997.9117 0.0000e+00
      2.602      0.041     5.6406     91.633     39.173  36.449435     4.2847      7.061   145.3381 2.5897e+01     5.8989      2.550      3.698    21.5136   997.9112 0.0000e+00
      2.612      0.056     5.6434     91.719     39.148  36.418377     4.3541      7.055   145.7241 2.5355e+01     5.9834      2.559      3.712    21.5180   997.9104 0.0000e+00
      2.632      0.068     5.6486     91.780     39.150  36.410269     4.3991      7.050   145.8938 2.4432e+01     6.0401      2.577      3.737    21.5205   997.9099 0.0000e+00
      2.660      0.075     5.6516     91.796     39.164  36.414850     4.3945      7.048   145.9266 2.3349e+01     6.0601      2.608      3.782    21.5233   997.9094 0.0000e+00
      2.689      0.076     5.6575     91.729     39.167  36.410286     4.2630      7.048   146.0350 2.2582e+01     6.0295      2.640      3.830    21.5209   997.9101 0.0000e+00
      2.709      0.071     5.6649     91.517     39.184  36.418554     4.0155      7.048   146.1718 2.2211e+01     5.9316      2.660      3.859    21.5094   997.9127 0.0000e+00
      2.721      0.063     5.6704     91.157     39.229  36.451331     3.8807      7.049   146.2034 2.1926e+01     5.8918      2.669      3.870    21.4959   997.9157 0.0000e+00
      2.732      0.054     5.6731     90.694     39.281  36.489216     3.8814      7.050   146.2459 2.1575e+01     5.9420      2.678      3.885    21.4844   997.9184 0.0000e+00
      2.745      0.047     5.6722     90.155     39.303  36.495769     3.9029      7.050   146.4270 2.1204e+01     5.9163      2.692      3.904    21.4764   997.9201 0.0000e+00
      2.757      0.043     5.6598     89.533     39.289  36.467074     3.9248      7.046   146.5870 2.0865e+01     5.7773      2.705      3.923    21.4678   997.9222 0.0000e+00
      2.768      0.039     5.6375     88.820     39.290  36.459605     3.9282      7.042   146.7174 2.0574e+01     5.6704      2.715      3.938    21.4552   997.9250 0.0000e+00
      2.778      0.033     5.6095     88.031     39.296  36.468917     3.9187      7.040   146.8852 2.0267e+01     5.6726      2.723      3.951    21.4433   997.9277 0.0000e+00
      2.788      0.026     5.5784     87.209     39.266  36.452737     3.8966      7.038   146.9804 2.0016e+01     5.7061      2.736      3.969    21.4262   997.9315 0.0000e+00
      2.795      0.021     5.5431     86.425     39.253  36.454401     3.8512      7.038   147.0089 1.9979e+01     5.7137      2.744      3.981    21.4006   997.9372 0.0000e+00
      2.795      0.020     5.5001     85.800     39.283  36.489054     3.8205      7.038   147.1439 2.0041e+01     5.6994      2.742      3.977    21.3866   997.9403 0.0000e+00
      2.794      0.025     5.4495     85.450     39.290  36.490902     3.8205      7.037   147.4075 2.0002e+01     5.6649      2.738      3.972    21.3932   997.9389 0.0000e+00
      2.797      0.033     5.3954     85.379     39.292  36.476741     3.8765      7.034   147.7016 1.9822e+01     5.7226      2.740      3.976    21.4123   997.9346 0.0000e+00
      2.806      0.046     5.3423     85.537     39.342  36.508219     3.9866      7.030   147.8606 1.9431e+01     5.8732      2.749      3.986    21.4329   997.9301 0.0000e+00
      2.823      0.061     5.2982     85.817     39.405  36.554123     4.0502      7.025   147.6947 1.8897e+01     5.9450      2.768      4.014    21.4443   997.9277 0.0000e+00
      2.843      0.073     5.2784     86.007     39.458  36.587432     4.0570      7.020   147.4164 1.8381e+01     5.9359      2.788      4.043    21.4397   997.9288 0.0000e+00
      2.864      0.082     5.2780     85.936     39.485  36.593572     4.0507      7.017   147.4209 1.7766e+01     5.8935      2.805      4.069    21.4111   997.9352 0.0000e+00
      2.889      0.086     5.2910     85.523     39.470  36.564856     4.0263      7.013   147.5775 1.7111e+01     5.7607      2.833      4.109    21.3888   997.9402 0.0000e+00
      2.915      0.084     5.3154     84.679     39.474  36.557579     3.9960      7.010   147.5892 1.6625e+01     5.5750      2.860      4.150    21.3812   997.9421 0.0000e+00
      2.935      0.079     5.3336     83.416     39.495  36.569037     3.9791      7.009   147.5623 1.6192e+01     5.4831      2.878      4.176    21.3587   997.9472 0.0000e+00
      2.955      0.069     5.3320     81.905     39.508  36.576434     3.9790      7.008   147.5962 1.5752e+01     5.4689      2.898      4.203    21.3312   997.9533 0.0000e+00
      2.975      0.057     5.3118     80.350     39.518  36.583543     4.0032      7.007   147.5693 1.5438e+01     5.4036      2.920      4.234    21.3123   997.9575 0.0000e+00
      2.989      0.044     5.2612     78.948     39.527  36.591516     4.0374      7.005   147.4951 1.5242e+01     5.2831      2.933      4.254    21.2994   997.9605 0.0000e+00
      2.997      0.033     5.1784     77.823     39.544  36.609357     4.0544      7.004   147.4735 1.5109e+01     5.2250      2.940      4.265    21.2897   997.9626 0.0000e+00
      3.001      0.024     5.0817     77.015     39.541  36.608846     4.0605      7.003   147.4803 1.5076e+01     5.2255      2.944      4.271    21.2833   997.9641 0.0000e+00
      3.003      0.017     4.9803     76.517     39.513  36.585340     4.0943      7.003   147.4043 1.5078e+01     5.2891      2.945      4.270    21.2810   997.9646 0.0000e+00
      3.005      0.014     4.8909     76.291     39.503  36.579040     4.1678      7.002   147.3297 1.5010e+01     5.4697      2.946      4.272    21.2812   997.9645 0.0000e+00
      3.008      0.014     4.8202     76.275     39.518  36.596151     4.2214      7.001   147.4382 1.4898e+01     5.6076      2.950      4.279    21.2841   997.9639 0.0000e+00
      3.013      0.016     4.7699     76.432     39.518  36.601812     4.2317      7.000   147.5120 1.4810e+01     5.6449      2.955      4.285    21.2876   997.9632 0.0000e+00
      3.017      0.018     4.7394     76.737     39.493  36.584018     4.1697      6.999   147.4477 1.4748e+01     5.5925      2.958      4.291    21.2904   997.9625 0.0000e+00
      3.022      0.020     4.7271     77.127     39.474  36.571436     4.0447      6.998   147.4351 1.4662e+01     5.4665      2.963      4.297    21.2931   997.9620 0.0000e+00
      3.027      0.020     4.7265     77.566     39.477  36.576638     3.9770      6.996   147.4455 1.4541e+01     5.3990      2.969      4.304    21.2970   997.9612 0.0000e+00
      3.034      0.019     4.7353     78.048     39.485  36.583444     3.9756      6.995   147.4016 1.4450e+01     5.3987      2.976      4.317    21.3040   997.9596 0.0000e+00
      3.040      0.017     4.7558     78.546     39.492  36.590254     3.9757      6.995   147.3346 1.4405e+01     5.4962      2.982      4.325    21.3129   997.9577 0.0000e+00
      3.044      0.014     4.7797     79.011     39.495  36.595502     3.9612      6.994   147.3239 1.4365e+01     5.6275      2.985      4.330    21.3198   997.9563 0.0000e+00
      3.046      0.010     4.8067     79.391     39.479  36.583432     3.9385      6.992   147.4434 1.4325e+01     5.6420      2.987      4.333    21.3218   997.9558 0.0000e+00
      3.048      0.007     4.8371     79.632     39.464  36.571258     3.9271      6.992   147.5757 1.4305e+01     5.6385      2.989      4.335    21.3202   997.9562 0.0000e+00
      3.049      0.005     4.8697     79.747     39.465  36.575259     3.9183      6.992   147.7187 1.4299e+01     5.6182      2.990      4.336    21.3198   997.9563 0.0000e+00
      3.050      0.003     4.8985     79.813     39.452  36.568344     3.9010      6.992   147.8826 1.4285e+01     5.5280      2.991      4.338    21.3236   997.9554 0.0000e+00
      3.050      0.002     4.9237     79.862     39.427  36.551127     3.8828      6.991   147.8358 1.4284e+01     5.4654      2.991      4.338    21.3272   997.9546 0.0000e+00
      3.051      0.002     4.9387     79.924     39.427  36.557516     3.8639      6.991   147.7554 1.4308e+01     5.4186      2.992      4.339    21.3286   997.9543 0.0000e+00
      3.051      0.001     4.9420     80.076     39.447  36.582122     3.8634      6.990   147.7713 1.4320e+01     5.3881      2.992      4.340    21.3324   997.9535 0.0000e+00
      3.051      0.001     4.9458     80.345     39.456  36.594754     3.9371      6.989   147.7694 1.4312e+01     5.4895      2.992      4.340    21.3396   997.9519 0.0000e+00
      3.051      0.001     4.9478     80.733     39.438  36.583312     4.0534      6.989   147.8181 1.4329e+01     5.6950      2.992      4.340    21.3486   997.9499 0.0000e+00
      3.052      0.001     4.9477     81.216     39.419  36.570731     4.1077      6.988   147.9297 1.4374e+01     5.8071      2.993      4.341    21.3568   997.9481 0.0000e+00
      3.052      0.001     4.9567     81.703     39.413  36.569586     4.1167      6.987   147.9999 1.4397e+01     5.7966      2.993      4.341    21.3633   997.9466 0.0000e+00
      3.052      0.001     4.9730     82.141     39.410  36.569482     4.1785      6.985   148.0651 1.4387e+01     5.6996      2.993      4.341    21.3694   997.9453 0.0000e+00
      3.052      0.000     4.9957     82.528     39.409  36.569472     4.2921      6.984   148.2021 1.4377e+01     5.5187      2.993      4.342    21.3753   997.9440 0.0000e+00
      3.052 1.8628e-08     5.0286     82.854     39.409  36.569470     4.3549      6.983   148.2803 1.4383e+01     5.4119      2.993      4.342    21.3817   997.9426 0.0000e+00
      3.052 2.0490e-07     5.0590     83.093     39.412  36.569461     4.3568      6.983   148.3220 1.4409e+01     5.3917      2.993      4.341    21.3882   997.9411 0.0000e+00
      3.052 2.0490e-07     5.0852     83.231     39.414  36.569358     4.3665      6.982   148.3618 1.4440e+01     5.4385      2.994      4.342    21.3912   997.9405 0.0000e+00
      3.052 1.8627e-08     5.1094     83.281     39.414  36.568213     4.3939      6.981   148.3310 1.4466e+01     5.5836      2.993      4.341    21.3931   997.9401 0.0000e+00
      3.052 1.6934e-09     5.1301     83.263     39.400  36.555623     4.4114      6.981   148.3800 1.4501e+01     5.6718      2.993      4.341    21.3933   997.9401 0.0000e+00
      3.052 1.5395e-10     5.1461     83.245     39.387  36.544073     4.4126      6.981   148.6105 1.4531e+01     5.6525      2.993      4.342    21.3876   997.9413 0.0000e+00
      3.053 1.3995e-11     5.1542     83.275     39.397  36.555508     4.4090      6.981   148.7941 1.4541e+01     5.5466      2.994      4.342    21.3840   997.9421 0.0000e+00
      3.053 1.2723e-12     5.1574     83.299     39.407  36.566943     4.4022      6.980   148.8786 1.4554e+01     5.4077      2.994      4.342    21.3854   997.9419 0.0000e+00
      3.053 1.1567e-13     5.1546     83.269     39.390  36.555392     4.4088      6.979   148.9447 1.4584e+01     5.3832      2.993      4.342    21.3854   997.9418 0.0000e+00
      3.053 1.0516e-14     5.1511     83.202     39.374  36.542802     4.4283      6.978   148.9051 1.4609e+01     5.4138      2.994      4.342    21.3856   997.9417 0.0000e+00
      3.053 9.6380e-16     5.1553     83.138     39.372  36.541658     4.4303      6.978   148.8299 1.4624e+01     5.3843      2.993      4.342    21.3878   997.9413 0.0000e+00
      3.053 1.7380e-16     5.1578     83.113     39.372  36.541563     4.4233      6.978   148.8094 1.4652e+01     5.3548      2.994      4.342    21.3907   997.9406 0.0000e+00
      3.053 -9.990e-29     5.1544 -9.990e-29 -9.990e-29 -9.990e-29 -9.990e-29 -9.990e-29 -9.990e-29 1.4691e+01 -9.990e-29      2.993      4.342    21.3963   997.9393 0.0000e+00
      3.053 -9.990e-29     5.1491 -9.990e-29 -9.990e-29 -9.990e-29 -9.990e-29 -9.990e-29 -9.990e-29 1.4715e+01 -9.990e-29      2.994      4.343    21.4007   997.9384 0.0000e+00
      3.053 -9.990e-29     5.1440 -9.990e-29 -9.990e-29 -9.990e-29 -9.990e-29 -9.990e-29 -9.990e-29 1.4732e+01 -9.990e-29      2.993      4.342    21.4009   997.9383 0.0000e+00
      3.053 -9.990e-29     5.1425 -9.990e-29 -9.990e-29 -9.990e-29 -9.990e-29 -9.990e-29 -9.990e-29 1.4744e+01 -9.990e-29      2.994      4.343    21.4006   997.9384 0.0000e+00
