* Sea-Bird SBE19plus  Data File:
* FileName = C:\DATA\092719_fcr_0006.hex
* Software version 2.8.0.119 SB_Terminal.dll
* Temperature SN = 7809
* Conductivity SN = 7809
* System UpLoad Time = Sep 28 2019 13:26:32
* <ApplicationData>
* <Seaterm232>
* <SoftwareVersion>2.8.0.119</SoftwareVersion>
* <BuildDate>07-Nov-2018</BuildDate>
* </Seaterm232>
* </ApplicationData>
* cast   6 27 Sep 2019 13:09:17 samples 5119 to 5943, avg = 1, stop = mag switch
# nquan = 16
# nvalues = 709                         
# units = specified
# name 0 = depFM: Depth [fresh water, m]
# name 1 = dz/dtM: Descent Rate [m/s]
# name 2 = sbeox0ML/L: Oxygen, SBE 43 [ml/l]
# name 3 = sbeox0PS: Oxygen, SBE 43 [% saturation]
# name 4 = specc: Specific Conductance [uS/cm]
# name 5 = c0uS/cm: Conductivity [uS/cm]
# name 6 = flECO-AFL: Fluorescence, WET Labs ECO-AFL/FL [mg/m^3]
# name 7 = ph: pH
# name 8 = orp: Oxidation Reduction Potential [mV]
# name 9 = par/sat/log: PAR/Logarithmic, Satlantic
# name 10 = turbWETntu0: Turbidity, WET Labs ECO [NTU]
# name 11 = prdM: Pressure, Strain Gauge [db]
# name 12 = prdE: Pressure, Strain Gauge [psi]
# name 13 = tv290C: Temperature [ITS-90, deg C]
# name 14 = density00: Density [density, kg/m^3]
# name 15 = flag:  0.000e+00
# span 0 =     -0.545,      5.453       
# span 1 =     -0.392,      0.331       
# span 2 =     0.0747,     6.8873       
# span 3 =      1.021,    113.584       
# span 4 =     27.018,    110.577       
# span 5 =  25.103513,  93.460762       
# span 6 =     0.1279,     9.7099       
# span 7 =      6.503,      8.818       
# span 8 =    -4.7359,   203.8879       
# span 9 = 1.2348e-01, 3.5941e+02       
# span 10 =     2.2471,    70.0363      
# span 11 =     -0.538,      5.348      
# span 12 =     -0.780,      7.756      
# span 13 =    12.7464,    23.0624      
# span 14 =   997.5433,   999.4587      
# span 15 = 0.0000e+00, 0.0000e+00      
# interval = seconds: 0.25
# start_time = Sep 27 2019 13:09:17 [Instrument's time stamp, header]
# bad_flag = -9.990e-29
# <Sensors count="9" >
#   <sensor Channel="1" >
#     <!-- Count, Temperature -->
#     <TemperatureSensor SensorID="58" >
#       <SerialNumber>7809</SerialNumber>
#       <CalibrationDate>24-Mar-19</CalibrationDate>
#       <A0>1.21792325e-003</A0>
#       <A1>2.81669265e-004</A1>
#       <A2>-1.60333336e-006</A2>
#       <A3>1.98414625e-007</A3>
#       <Slope>1.00000000</Slope>
#       <Offset>0.0000</Offset>
#     </TemperatureSensor>
#   </sensor>
#   <sensor Channel="2" >
#     <!-- Frequency 0, Conductivity -->
#     <ConductivitySensor SensorID="3" >
#       <SerialNumber>7809</SerialNumber>
#       <CalibrationDate>24-Mar-19</CalibrationDate>
#       <UseG_J>1</UseG_J>
#       <!-- Cell const and series R are applicable only for wide range sensors. -->
#       <SeriesR>0.0000</SeriesR>
#       <CellConst>2000.0000</CellConst>
#       <ConductivityType>0</ConductivityType>
#       <Coefficients equation="0" >
#         <A>0.00000000e+000</A>
#         <B>0.00000000e+000</B>
#         <C>0.00000000e+000</C>
#         <D>0.00000000e+000</D>
#         <M>0.0</M>
#         <CPcor>-9.57000000e-008</CPcor>
#       </Coefficients>
#       <Coefficients equation="1" >
#         <G>-1.00589325e+000</G>
#         <H>1.26816302e-001</H>
#         <I>-1.51560448e-004</I>
#         <J>2.67137274e-005</J>
#         <CPcor>-9.57000000e-008</CPcor>
#         <CTcor>3.2500e-006</CTcor>
#         <!-- WBOTC not applicable unless ConductivityType = 1. -->
#         <WBOTC>0.00000000e+000</WBOTC>
#       </Coefficients>
#       <Slope>1.00000000</Slope>
#       <Offset>0.00000</Offset>
#     </ConductivitySensor>
#   </sensor>
#   <sensor Channel="3" >
#     <!-- Count, Pressure, Strain Gauge -->
#     <PressureSensor SensorID="46" >
#       <SerialNumber>7809</SerialNumber>
#       <CalibrationDate>11-Mar-19</CalibrationDate>
#       <PA0>4.56561833e-002</PA0>
#       <PA1>4.85095118e-004</PA1>
#       <PA2>-2.88327090e-012</PA2>
#       <PTEMPA0>-5.48784562e+001</PTEMPA0>
#       <PTEMPA1>5.53756816e+001</PTEMPA1>
#       <PTEMPA2>-5.86727098e-001</PTEMPA2>
#       <PTCA0>5.25246745e+005</PTCA0>
#       <PTCA1>1.22304214e+001</PTCA1>
#       <PTCA2>-3.56745036e-001</PTCA2>
#       <PTCB0>2.51668750e+001</PTCB0>
#       <PTCB1>3.75000000e-004</PTCB1>
#       <PTCB2>0.00000000e+000</PTCB2>
#       <Offset>0.000000</Offset>
#     </PressureSensor>
#   </sensor>
#   <sensor Channel="4" >
#     <!-- A/D voltage 0, Oxygen, SBE 43 -->
#     <OxygenSensor SensorID="38" >
#       <SerialNumber>0434</SerialNumber>
#       <CalibrationDate>13-Apr-19</CalibrationDate>
#       <Use2007Equation>1</Use2007Equation>
#       <CalibrationCoefficients equation="0" >
#         <!-- Coefficients for Owens-Millard equation. -->
#         <Boc>0.0000</Boc>
#         <Soc>0.0000e+000</Soc>
#         <offset>0.0000</offset>
#         <Pcor>0.00e+000</Pcor>
#         <Tcor>0.0000</Tcor>
#         <Tau>0.0</Tau>
#       </CalibrationCoefficients>
#       <CalibrationCoefficients equation="1" >
#         <!-- Coefficients for Sea-Bird equation - SBE calibration in 2007 and later. -->
#         <Soc>4.2007e-001</Soc>
#         <offset>-0.6109</offset>
#         <A>-4.3656e-003</A>
#         <B> 1.7017e-004</B>
#         <C>-2.5341e-006</C>
#         <D0> 2.5826e+000</D0>
#         <D1> 1.92634e-004</D1>
#         <D2>-4.64803e-002</D2>
#         <E> 3.6000e-002</E>
#         <Tau20> 1.1800</Tau20>
#         <H1>-3.3000e-002</H1>
#         <H2> 5.0000e+003</H2>
#         <H3> 1.4500e+003</H3>
#       </CalibrationCoefficients>
#     </OxygenSensor>
#   </sensor>
#   <sensor Channel="5" >
#     <!-- A/D voltage 1, PAR/Logarithmic, Satlantic -->
#     <PARLog_SatlanticSensor SensorID="76" >
#       <SerialNumber>1122</SerialNumber>
#       <CalibrationDate>08-May-2019</CalibrationDate>
#       <a0>9.7456e-001</a0>
#       <a1>8.1640e-001</a1>
#       <Im>1.3589e+000</Im>
#       <Multiplier>1.0000e+000</Multiplier>
#     </PARLog_SatlanticSensor>
#   </sensor>
#   <sensor Channel="6" >
#     <!-- A/D voltage 2, pH -->
#     <pH_Sensor SensorID="43" >
#       <SerialNumber>0363</SerialNumber>
#       <CalibrationDate>15-Apr-19</CalibrationDate>
#       <Slope>4.5952</Slope>
#       <Offset>2.5370</Offset>
#     </pH_Sensor>
#   </sensor>
#   <sensor Channel="7" >
#     <!-- A/D voltage 3, Oxidation Reduction Potential -->
#     <OxidationReductionPotentialSensor SensorID="41" >
#       <SerialNumber>0363</SerialNumber>
#       <CalibrationDate>15-Apr-19</CalibrationDate>
#       <B>2.499480</B>
#       <M>-0.496195</M>
#       <Offset>0.0</Offset>
#     </OxidationReductionPotentialSensor>
#   </sensor>
#   <sensor Channel="8" >
#     <!-- A/D voltage 4, Fluorometer, WET Labs ECO-AFL/FL -->
#     <FluoroWetlabECO_AFL_FL_Sensor SensorID="20" >
#       <SerialNumber>FLNTURT-2496</SerialNumber>
#       <CalibrationDate>08-May-2019</CalibrationDate>
#       <ScaleFactor>5.00000000e+001</ScaleFactor>
#       <!-- Dark output -->
#       <Vblank>0.0550</Vblank>
#     </FluoroWetlabECO_AFL_FL_Sensor>
#   </sensor>
#   <sensor Channel="9" >
#     <!-- A/D voltage 5, Turbidity Meter, WET Labs, ECO-NTU -->
#     <TurbidityMeter SensorID="67" >
#       <SerialNumber>FLNTURT-2496</SerialNumber>
#       <CalibrationDate>08-May-2019</CalibrationDate>
#       <ScaleFactor>189.000000</ScaleFactor>
#       <!-- Dark output -->
#       <DarkVoltage>0.071000</DarkVoltage>
#     </TurbidityMeter>
#   </sensor>
# </Sensors>
# datcnv_date = Sep 28 2019 13:33:40, 7.26.7.129 [datcnv_vars = 15]
# datcnv_in = C:\DATA\092719_fcr_30.hex C:\DATA\SBE19plusV2_7809.xmlcon
# datcnv_skipover = 0
# datcnv_ox_hysteresis_correction = yes
# datcnv_ox_tau_correction = yes
# filter_date = Sep 28 2019 13:35:46, 7.26.7.129
# filter_in = C:\DATA\092719_fcr_30.cnv
# filter_low_pass_tc_A = 0.030
# filter_low_pass_tc_B = 0.150
# filter_low_pass_A_vars = sbeox0ML/L prdM prdE tv290C density00
# filter_low_pass_B_vars = depFM dz/dtM sbeox0PS specc c0uS/cm flECO-AFL ph orp par/sat/log turbWETntu0
# alignctd_date = Sep 28 2019 13:36:15, 7.26.7.129
# alignctd_in = C:\DATA\092719_fcr_30.cnv
# alignctd_adv = dz/dtM 1.000, sbeox0PS 1.000, specc 1.000, c0uS/cm 1.000, flECO-AFL 1.000, ph 1.000, orp 1.000, turbWETntu0 1.000                                                                                                   
# file_type = ascii
*END*
     -0.545      0.043     5.9963     96.506     27.018  25.103513     0.4351      7.218   153.1824 3.4130e+02     5.2588     -0.535     -0.776    21.2525   997.9441 0.0000e+00
     -0.545      0.102     5.9962     96.417     37.705  35.237093     0.4434      7.751   187.4288 3.4555e+02     5.3701     -0.532     -0.771    21.2465   997.9459 0.0000e+00
     -0.541      0.174     5.9970     96.214     39.675  37.382708     0.4731      8.199   184.3338 3.5232e+02     5.7453     -0.538     -0.780    21.2548   997.9433 0.0000e+00
     -0.506      0.244     5.9964     95.852     39.539  37.528076     0.7761      8.494   181.1520 3.5789e+02     9.6645     -0.527     -0.763    21.2400   997.9478 0.0000e+00
     -0.410      0.298     5.9842     95.434     39.333  37.502930     1.3250      8.666   179.4158 3.5941e+02    16.7398     -0.417     -0.603    21.2943   997.9439 0.0000e+00
     -0.276      0.329     5.9405     95.108     39.201  37.459759     1.6210      8.757   178.0534 3.5626e+02    20.5036     -0.262     -0.380    21.6542   997.8678 0.0000e+00
     -0.156      0.331     5.8750     94.964     39.087  37.387060     1.6591      8.802   176.6399 3.4591e+02    20.4992     -0.140     -0.204    22.1359   997.7591 0.0000e+00
     -0.069      0.301     5.8083     95.019     39.006  37.322202     1.8294      8.818   175.4029 3.3271e+02    17.0467     -0.058     -0.085    22.5050   997.6747 0.0000e+00
     -0.010      0.244     5.7567     95.224     38.994  37.310335     2.1359      8.818   174.4532 3.0816e+02    10.6481     -0.005     -0.007    22.7109   997.6268 0.0000e+00
      0.035      0.179     5.7267     95.535     38.999  37.307057     2.3055      8.811   173.6753 2.6628e+02     7.1383      0.035      0.052    22.7909   997.6082 0.0000e+00
      0.070      0.120     5.7129     95.934     38.989  37.282549     2.3191      8.806   172.8816 2.3376e+02     6.7918      0.072      0.104    22.8293   997.5994 0.0000e+00
      0.095      0.073     5.7170     96.325     38.992  37.267892     2.3081      8.801   172.1698 2.2066e+02     6.7206      0.098      0.143    22.8399   997.5970 0.0000e+00
      0.107      0.037     5.7305     96.586     39.000  37.256765     2.3118      8.796   171.6077 2.1695e+02     6.6383      0.110      0.160    22.8393   997.5972 0.0000e+00
      0.106      0.011     5.7495     96.711     39.043  37.274930     2.3379      8.786   171.0742 2.1578e+02     6.5510      0.107      0.155    22.8299   997.5994 0.0000e+00
      0.096     -0.007     5.7783     96.752     39.157  37.360545     2.3463      8.771   170.6237 2.0640e+02     6.5161      0.094      0.136    22.8073   997.6046 0.0000e+00
      0.086     -0.016     5.8087     96.691     39.277  37.466721     2.3177      8.754   170.2053 1.9963e+02     6.4787      0.084      0.122    22.7825   997.6104 0.0000e+00
      0.078     -0.018     5.8261     96.465     39.350  37.543081     2.2784      8.739   169.8018 2.0691e+02     6.3942      0.074      0.107    22.7640   997.6147 0.0000e+00
      0.076     -0.015     5.8346     96.010     39.384  37.585590     2.2617      8.724   170.1327 2.1205e+02     6.3460      0.073      0.105    22.7313   997.6223 0.0000e+00
      0.078     -0.009     5.8430     95.336     39.395  37.599850     2.2719      8.709   179.2827 2.1111e+02     6.3219      0.079      0.115    22.6912   997.6318 0.0000e+00
      0.077     -0.002     5.8416     94.605     39.390  37.588556     2.2710      8.692   189.3180 2.1663e+02     6.2671      0.077      0.112    22.6810   997.6342 0.0000e+00
      0.072      0.003     5.8277     93.998     39.390  37.575979     2.2597      8.671   183.6617 2.2271e+02     6.2739      0.070      0.101    22.6971   997.6304 0.0000e+00
      0.071      0.006     5.7994     93.588     39.401  37.574714     2.2648      8.652   175.0776 2.1971e+02     6.3382      0.067      0.097    22.7144   997.6264 0.0000e+00
      0.076      0.007     5.7533     93.378     39.408  37.573239     2.2724      8.639   171.9978 2.1602e+02     6.3561      0.073      0.105    22.7210   997.6249 0.0000e+00
      0.083      0.010     5.7056     93.261     39.400  37.558134     2.2735      8.629   169.8275 2.1177e+02     6.3271      0.083      0.120    22.7094   997.6277 0.0000e+00
      0.087      0.014     5.6705     93.091     39.365  37.519020     2.2785      8.620   168.7976 2.0911e+02     6.2164      0.088      0.127    22.6901   997.6321 0.0000e+00
      0.087      0.017     5.6465     92.842     39.332  37.481155     2.2983      8.608   168.4933 2.1431e+02     6.0662      0.084      0.122    22.6760   997.6354 0.0000e+00
      0.089      0.017     5.6371     92.495     39.337  37.481165     2.3219      8.596   174.1501 2.1186e+02     6.0522      0.085      0.124    22.6661   997.6378 0.0000e+00
      0.095      0.016     5.6363     91.976     39.382  37.519136     2.3387      8.583   180.3215 1.9868e+02     6.1447      0.091      0.132    22.6570   997.6399 0.0000e+00
      0.103      0.016     5.6256     91.288     39.427  37.559396     2.3366      8.570   176.2586 1.9202e+02     6.2675      0.102      0.148    22.6491   997.6418 0.0000e+00
      0.109      0.015     5.6112     90.510     39.460  37.587082     2.3141      8.561   179.1440 1.9496e+02     6.4220      0.109      0.158    22.6425   997.6434 0.0000e+00
      0.111      0.013     5.5942     89.700     39.480  37.599987     2.3084      8.553   194.8176 1.9590e+02     6.5381      0.109      0.158    22.6351   997.6450 0.0000e+00
      0.112      0.010     5.5628     88.811     39.478  37.588458     2.3289      8.546   203.4109 1.9300e+02     6.5911      0.110      0.159    22.6296   997.6464 0.0000e+00
      0.113      0.009     5.5198     87.786     39.474  37.574631     2.3444      8.538   203.8879 1.9407e+02     6.6036      0.111      0.161    22.6264   997.6471 0.0000e+00
      0.115      0.010     5.4708     86.659     39.465  37.559744     2.3313      8.529   203.7691 1.9202e+02     6.5897      0.112      0.163    22.6222   997.6481 0.0000e+00
      0.116      0.013     5.4243     85.472     39.444  37.535395     2.3097      8.520   203.2641 1.8419e+02     6.5548      0.114      0.165    22.6144   997.6500 0.0000e+00
      0.120      0.017     5.3747     84.348     39.445  37.534125     2.3175      8.515   202.4290 1.7921e+02     6.5421      0.117      0.169    22.6007   997.6532 0.0000e+00
      0.125      0.019     5.3115     83.528     39.457  37.544397     2.3391      8.510   201.7595 1.7532e+02     6.5341      0.122      0.177    22.5867   997.6564 0.0000e+00
      0.133      0.020     5.2447     83.222     39.446  37.532635     2.3370      8.502   201.3645 1.7034e+02     6.4910      0.130      0.189    22.5789   997.6583 0.0000e+00
      0.140      0.019     5.1709     83.500     39.434  37.518863     2.3170      8.492   201.0089 1.7008e+02     6.4796      0.137      0.199    22.5751   997.6592 0.0000e+00
      0.145      0.017     5.0967     84.281     39.422  37.504832     2.3060      8.479   200.6419 1.7488e+02     6.4956      0.142      0.207    22.5725   997.6599 0.0000e+00
      0.149      0.012     5.0427     85.381     39.412  37.489935     2.3174      8.463   200.1110 1.7828e+02     6.4547      0.146      0.212    22.5708   997.6603 0.0000e+00
      0.151      0.008     5.0225     86.616     39.399  37.465679     2.3332      8.449   199.4945 1.8243e+02     6.3448      0.149      0.215    22.5698   997.6605 0.0000e+00
      0.151      0.004     5.0416     87.852     39.351  37.401967     2.3319      8.437   199.0377 1.8527e+02     6.2486      0.149      0.216    22.5674   997.6610 0.0000e+00
      0.150      0.002     5.0936     88.946     39.320  37.354327     2.3275      8.427   198.2883 1.8003e+02     6.2418      0.147      0.213    22.5636   997.6619 0.0000e+00
      0.150      0.000     5.1653     89.791     39.315  37.333973     2.3239      8.420   194.6496 1.7197e+02     6.3604      0.147      0.213    22.5591   997.6630 0.0000e+00
      0.150      0.000     5.2430     90.371     39.277  37.282794     2.3232      8.415   191.2648 1.6696e+02     6.5034      0.148      0.215    22.5440   997.6665 0.0000e+00
      0.150      0.001     5.3243     90.706     39.252  37.243304     2.3273      8.411   193.3268 1.6322e+02     6.5286      0.147      0.214    22.5170   997.6727 0.0000e+00
      0.150      0.001     5.3958     90.830     39.259  37.237322     2.3208      8.407   195.6630 1.6429e+02     6.5017      0.146      0.212    22.4936   997.6781 0.0000e+00
      0.151      0.001     5.4484     90.831     39.242  37.210445     2.3149      8.400   195.4203 1.7604e+02     6.5059      0.149      0.216    22.4758   997.6822 0.0000e+00
      0.153      0.000     5.4853     90.793     39.209  37.172227     2.3341      8.391   194.8665 1.8474e+02     6.5794      0.151      0.219    22.4562   997.6868 0.0000e+00
      0.154     -0.001     5.5074     90.708     39.198  37.156067     2.3709      8.382   194.2160 1.7897e+02     6.7019      0.151      0.219    22.4358   997.6915 0.0000e+00
      0.153     -0.003     5.5147     90.541     39.188  37.141999     2.3859      8.374   193.8359 1.6863e+02     6.7415      0.151      0.219    22.4180   997.6957 0.0000e+00
      0.151     -0.003     5.5133     90.275     39.178  37.129076     2.3769      8.366   193.7125 1.6411e+02     6.6977      0.148      0.215    22.4056   997.6985 0.0000e+00
      0.148     -0.002     5.5130     89.879     39.180  37.126757     2.3751      8.360   193.3255 1.7088e+02     6.6957      0.144      0.210    22.3963   997.7005 0.0000e+00
      0.147      0.002     5.5098     89.383     39.172  37.113957     2.3816      8.355   192.7709 1.7983e+02     6.7517      0.144      0.209    22.3889   997.7023 0.0000e+00
      0.147      0.006     5.4994     88.848     39.166  37.101243     2.3865      8.350   192.4265 1.7765e+02     6.7843      0.143      0.208    22.3840   997.7034 0.0000e+00
      0.149      0.009     5.4855     88.316     39.171  37.099975     2.3905      8.344   191.9150 1.6969e+02     6.7622      0.144      0.209    22.3807   997.7042 0.0000e+00
      0.155      0.010     5.4612     87.873     39.174  37.098622     2.3868      8.338   191.2333 1.6334e+02     6.6157      0.151      0.219    22.3754   997.7054 0.0000e+00
      0.161      0.010     5.4294     87.580     39.162  37.084878     2.3773      8.332   190.8091 1.5819e+02     6.4221      0.160      0.232    22.3669   997.7075 0.0000e+00
      0.163      0.008     5.3987     87.433     39.138  37.060737     2.3791      8.324   190.4857 1.5669e+02     6.3543      0.161      0.235    22.3581   997.7094 0.0000e+00
      0.162      0.005     5.3643     87.410     39.139  37.060622     2.3916      8.314   189.9899 1.5764e+02     6.3543      0.159      0.231    22.3502   997.7112 0.0000e+00
      0.162      0.001     5.3362     87.431     39.165  37.083493     2.4068      8.303   189.4603 1.5601e+02     6.3883      0.159      0.230    22.3446   997.7125 0.0000e+00
      0.162     -0.001     5.3199     87.331     39.166  37.083380     2.4234      8.291   189.2442 1.5223e+02     6.4708      0.160      0.232    22.3414   997.7133 0.0000e+00
      0.162     -0.002     5.3108     86.976     39.141  37.059248     2.4366      8.280   189.1845 1.4850e+02     6.5663      0.160      0.232    22.3397   997.7136 0.0000e+00
      0.161     -0.002     5.3109     86.359     39.126  37.045617     2.4447      8.270   188.9100 1.5125e+02     6.6253      0.158      0.229    22.3388   997.7139 0.0000e+00
      0.160     -0.001     5.3166     85.559     39.123  37.045513     2.4437      8.265   188.3350 1.5764e+02     6.6260      0.157      0.227    22.3374   997.7142 0.0000e+00
      0.158      0.001     5.3143     84.669     39.133  37.057988     2.4338      8.261   187.6521 1.6071e+02     6.6403      0.155      0.225    22.3360   997.7145 0.0000e+00
      0.158      0.002     5.2925     83.820     39.143  37.069517     2.4290      8.256   187.1924 1.6489e+02     6.7000      0.154      0.224    22.3350   997.7147 0.0000e+00
      0.160      0.001     5.2526     83.133     39.129  37.057965     2.4366      8.247   186.8206 1.6595e+02     6.7584      0.157      0.228    22.3358   997.7146 0.0000e+00
      0.164     -0.001     5.2021     82.601     39.114  37.045260     2.4478      8.232   186.5124 1.6238e+02     6.7893      0.161      0.234    22.3393   997.7137 0.0000e+00
      0.166     -0.005     5.1449     82.178     39.111  37.042857     2.4518      8.214   186.3919 1.6298e+02     6.6799      0.164      0.238    22.3438   997.7127 0.0000e+00
      0.163     -0.009     5.0888     81.862     39.095  37.028904     2.4505      8.197   186.2239 1.6668e+02     6.4190      0.162      0.235    22.3472   997.7119 0.0000e+00
      0.157     -0.013     5.0480     81.617     39.068  37.003505     2.4500      8.184   185.9432 1.6573e+02     6.2895      0.154      0.224    22.3493   997.7114 0.0000e+00
      0.151     -0.017     5.0176     81.371     39.055  36.989655     2.4540      8.175   185.6654 1.6488e+02     6.3589      0.147      0.214    22.3504   997.7111 0.0000e+00
      0.146     -0.018     4.9904     81.077     39.055  36.988395     2.4558      8.167   185.3595 1.7173e+02     6.3408      0.143      0.206    22.3513   997.7109 0.0000e+00
      0.142     -0.017     4.9722     80.705     39.058  36.988266     2.4454      8.160   185.0843 1.7365e+02     6.1684      0.138      0.202    22.3518   997.7108 0.0000e+00
      0.139     -0.016     4.9596     80.253     39.060  36.988099     2.4414      8.153   184.9201 1.6795e+02     6.0776      0.136      0.198    22.3520   997.7107 0.0000e+00
      0.134     -0.015     4.9451     79.741     39.060  36.986365     2.4505      8.146   184.7505 1.6729e+02     6.0949      0.132      0.191    22.3512   997.7108 0.0000e+00
      0.130     -0.014     4.9285     79.186     39.041  36.967310     2.4513      8.137   184.4098 1.7431e+02     6.1479      0.126      0.183    22.3486   997.7115 0.0000e+00
      0.126     -0.012     4.9063     78.631     39.022  36.948115     2.4424      8.132   183.7260 1.8757e+02     6.2278      0.124      0.180    22.3455   997.7121 0.0000e+00
      0.123     -0.009     4.8779     78.111     39.020  36.944704     2.4380      8.129   182.9364 1.9655e+02     6.2742      0.121      0.176    22.3429   997.7127 0.0000e+00
      0.121     -0.007     4.8476     77.626     39.001  36.926069     2.4496      8.127   182.5195 1.9295e+02     6.3149      0.118      0.170    22.3407   997.7132 0.0000e+00
      0.120     -0.005     4.8126     77.149     38.987  36.913218     2.5048      8.119   182.4715 1.8671e+02     6.3587      0.117      0.169    22.3388   997.7137 0.0000e+00
      0.121     -0.005     4.7780     76.667     38.991  36.916268     2.5945      8.105   182.5280 1.8415e+02     6.3777      0.118      0.171    22.3371   997.7140 0.0000e+00
      0.121     -0.005     4.7468     76.201     38.975  36.899468     2.6411      8.088   182.4275 1.8412e+02     6.3818      0.119      0.173    22.3359   997.7143 0.0000e+00
      0.119     -0.006     4.7179     75.760     38.977  36.900517     2.6349      8.073   182.1181 1.8453e+02     6.3432      0.117      0.170    22.3352   997.7145 0.0000e+00
      0.115     -0.006     4.6898     75.330     39.008  36.928952     2.6143      8.065   181.7986 1.8484e+02     6.3688      0.113      0.163    22.3346   997.7146 0.0000e+00
      0.113     -0.005     4.6594     74.897     39.006  36.925896     2.5919      8.062   181.4029 1.9057e+02     6.4951      0.110      0.160    22.3334   997.7148 0.0000e+00
      0.111     -0.002     4.6312     74.459     39.007  36.927051     2.5891      8.059   181.0330 1.9846e+02     6.5598      0.109      0.159    22.3318   997.7152 0.0000e+00
      0.111      0.001     4.6050     74.060     39.023  36.942906     2.5888      8.055   180.8538 1.9705e+02     6.5610      0.108      0.157    22.3306   997.7155 0.0000e+00
      0.111      0.005     4.5790     73.734     39.006  36.927179     2.5710      8.051   180.5271 1.8930e+02     6.5428      0.108      0.157    22.3297   997.7157 0.0000e+00
      0.114      0.007     4.5534     73.462     39.006  36.927322     2.5655      8.047   180.0939 1.8622e+02     6.6347      0.111      0.161    22.3291   997.7158 0.0000e+00
      0.118      0.008     4.5253     73.236     39.024  36.944632     2.5745      8.043   179.8324 1.8295e+02     6.8527      0.115      0.166    22.3289   997.7159 0.0000e+00
      0.121      0.007     4.4998     73.045     39.026  36.946049     2.5753      8.038   179.6881 1.7801e+02     6.9826      0.120      0.172    22.3293   997.7159 0.0000e+00
      0.125      0.004     4.4813     72.850     39.026  36.944461     2.5665      8.031   179.7269 1.8281e+02     6.9936      0.123      0.178    22.3298   997.7157 0.0000e+00
      0.126     -0.001     4.4645     72.619     39.007  36.925424     2.5547      8.021   179.8706 1.9255e+02     6.8211      0.124      0.180    22.3301   997.7156 0.0000e+00
      0.125     -0.006     4.4506     72.334     38.989  36.906294     2.5540      8.008   179.9636 1.9206e+02     6.5029      0.123      0.179    22.3303   997.7156 0.0000e+00
      0.121     -0.011     4.4405     71.994     38.988  36.903589     2.5674      7.998   179.9038 1.8677e+02     6.2914      0.119      0.173    22.3299   997.7157 0.0000e+00
      0.115     -0.012     4.4293     71.617     38.978  36.892717     2.5770      7.990   179.4920 1.8710e+02     6.2311      0.113      0.164    22.3286   997.7160 0.0000e+00
      0.110     -0.011     4.4157     71.208     38.988  36.901778     2.5755      7.984   178.9426 1.8955e+02     6.2986      0.107      0.156    22.3264   997.7164 0.0000e+00
      0.106     -0.007     4.3988     70.787     39.038  36.949670     2.5740      7.976   178.5961 1.9704e+02     6.4521      0.103      0.149    22.3243   997.7169 0.0000e+00
      0.104     -0.002     4.3775     70.409     39.053  36.963990     2.5775      7.968   178.3986 2.0399e+02     6.5461      0.101      0.146    22.3222   997.7174 0.0000e+00
      0.106      0.003     4.3548     70.105     39.036  36.947970     2.5833      7.959   178.1897 1.9704e+02     6.5499      0.104      0.149    22.3202   997.7178 0.0000e+00
      0.109      0.007     4.3303     69.870     39.034  36.946396     2.6098      7.950   177.9640 1.8508e+02     6.5313      0.107      0.155    22.3191   997.7181 0.0000e+00
      0.112      0.009     4.3024     69.673     39.032  36.944962     2.6538      7.943   177.6475 1.7884e+02     6.5170      0.110      0.160    22.3187   997.7183 0.0000e+00
      0.115      0.009     4.2793     69.496     39.016  36.930629     2.6825      7.937   177.2030 1.8422e+02     6.5087      0.113      0.163    22.3194   997.7181 0.0000e+00
      0.117      0.008     4.2605     69.361     38.983  36.900045     2.6969      7.931   176.8908 1.9411e+02     6.5291      0.115      0.166    22.3201   997.7179 0.0000e+00
      0.118      0.006     4.2470     69.243     38.975  36.892549     2.7057      7.923   176.7984 1.9034e+02     6.5672      0.116      0.168    22.3210   997.7178 0.0000e+00
      0.120      0.004     4.2361     69.084     38.986  36.903460     2.7031      7.915   176.6879 1.8048e+02     6.5764      0.118      0.172    22.3220   997.7175 0.0000e+00
      0.121      0.002     4.2235     68.884     38.988  36.905020     2.6998      7.908   176.5009 1.7428e+02     6.5746      0.120      0.174    22.3227   997.7174 0.0000e+00
      0.121      0.001     4.2161     68.670     38.996  36.911418     2.7089      7.902   176.3453 1.7413e+02     6.5785      0.119      0.173    22.3236   997.7171 0.0000e+00
      0.121      0.000     4.2109     68.433     39.002  36.917345     2.7091      7.895   176.1833 1.8135e+02     6.5580      0.118      0.172    22.3241   997.7170 0.0000e+00
      0.120     -0.002     4.2011     68.173     38.998  36.913208     2.6853      7.888   176.0044 1.8892e+02     6.6540      0.117      0.170    22.3237   997.7171 0.0000e+00
      0.120     -0.003     4.1873     67.898     39.011  36.924869     2.6553      7.883   175.8174 1.9307e+02     6.8868      0.117      0.170    22.3232   997.7172 0.0000e+00
      0.120     -0.004     4.1758     67.613     39.018  36.931385     2.6406      7.877   175.6433 1.9562e+02     7.0131      0.117      0.170    22.3226   997.7174 0.0000e+00
      0.119     -0.006     4.1607     67.331     39.015  36.928519     2.6464      7.868   175.5340 2.0116e+02     7.0011      0.117      0.170    22.3226   997.7174 0.0000e+00
      0.117     -0.007     4.1448     67.053     39.108  37.017168     2.6219      7.858   175.4417 2.0568e+02     6.8076      0.115      0.166    22.3225   997.7174 0.0000e+00
      0.114     -0.007     4.1283     66.872     39.263  37.178069     2.5518      7.850   175.3020 2.0574e+02     6.4762      0.112      0.162    22.3220   997.7175 0.0000e+00
      0.111     -0.006     4.1105     67.453     39.328  37.287124     2.5097      7.843   175.0493 2.0345e+02     6.3052      0.109      0.158    22.3209   997.7178 0.0000e+00
      0.109     -0.003     4.0936     70.136     39.286  37.320213     2.5119      7.837   174.7094 1.9894e+02     6.3123      0.106      0.154    22.3201   997.7179 0.0000e+00
      0.108      0.001     4.0770     75.656     39.220  37.324358     2.5178      7.830   174.5482 1.9506e+02     6.3985      0.105      0.152    22.3190   997.7182 0.0000e+00
      0.109      0.005     4.0568     83.315     39.189  37.337328     2.5196      7.824   174.4762 1.9414e+02     6.4954      0.106      0.153    22.3211   997.7178 0.0000e+00
      0.111      0.009     4.0479     91.667     39.181  37.350149     2.5173      7.815   174.1837 1.9376e+02     6.5005      0.108      0.157    22.3821   997.7037 0.0000e+00
      0.114      0.011     4.1796     99.362     39.174  37.352459     2.5075      7.803   174.0217 1.8806e+02     6.4924      0.112      0.163    22.5004   997.6763 0.0000e+00
      0.119      0.012     4.5290    105.655     39.182  37.365257     2.5218      7.791   174.0676 1.8178e+02     6.5943      0.117      0.169    22.5907   997.6554 0.0000e+00
      0.123      0.012     5.0198    110.225     39.187  37.377951     2.5599      7.781   173.8778 1.8208e+02     6.7159      0.121      0.175    22.6412   997.6436 0.0000e+00
      0.127      0.011     5.5550    112.854     39.182  37.378991     2.5695      7.772   173.4481 1.7790e+02     6.7179      0.126      0.182    22.6644   997.6383 0.0000e+00
      0.129      0.009     6.0324    113.584     39.176  37.377846     2.5596      7.767   173.0868 1.7018e+02     6.6841      0.127      0.184    22.6690   997.6372 0.0000e+00
      0.130      0.006     6.4154    112.887     39.158  37.364111     2.5620      7.762   172.9518 1.6972e+02     6.6685      0.126      0.183    22.6761   997.6356 0.0000e+00
      0.131      0.003     6.6968    111.447     39.131  37.339881     2.5725      7.757   172.9345 1.6870e+02     6.6279      0.128      0.187    22.6867   997.6330 0.0000e+00
      0.133     -0.001     6.8545    109.833     39.136  37.338791     2.5736      7.750   172.7915 1.6881e+02     6.5856      0.130      0.189    22.6947   997.6311 0.0000e+00
      0.133     -0.004     6.8873    108.421     39.161  37.350920     2.5579      7.740   172.5985 1.7440e+02     6.5501      0.130      0.189    22.6988   997.6303 0.0000e+00
      0.132     -0.006     6.8271    107.341     39.180  37.359566     2.5483      7.733   172.4090 1.7947e+02     6.5264      0.130      0.189    22.7042   997.6290 0.0000e+00
      0.129     -0.006     6.7290    106.539     39.195  37.379841     2.5346      7.730   172.2213 1.8323e+02     6.4308      0.127      0.185    22.7075   997.6282 0.0000e+00
      0.124     -0.005     6.6230    105.949     39.208  37.405649     2.4966      7.727   172.3073 1.8123e+02     6.2463      0.120      0.174    22.7039   997.6289 0.0000e+00
      0.121     -0.001     6.5384    105.532     39.207  37.417719     2.4620      7.721   172.3305 1.7537e+02     6.1302      0.116      0.168    22.6821   997.6340 0.0000e+00
      0.122      0.004     6.4782    105.242     39.175  37.398846     2.4456      7.714   172.1578 1.7352e+02     6.1082      0.118      0.173    22.6623   997.6387 0.0000e+00
      0.125      0.009     6.4292    105.021     39.134  37.367899     2.4711      7.708   172.1117 1.7442e+02     6.2428      0.122      0.178    22.6753   997.6357 0.0000e+00
      0.128      0.013     6.3916    104.847     39.123  37.360932     2.5371      7.700   172.0310 1.8020e+02     6.5444      0.125      0.181    22.6985   997.6303 0.0000e+00
      0.133      0.015     6.3647    104.692     39.141  37.378087     2.5765      7.693   171.7849 1.8689e+02     6.7404      0.130      0.190    22.7149   997.6266 0.0000e+00
      0.138      0.015     6.3479    104.494     39.148  37.384897     2.5742      7.686   171.4592 1.8616e+02     6.7447      0.137      0.199    22.7286   997.6233 0.0000e+00
      0.141      0.014     6.3329    104.262     39.145  37.379797     2.5609      7.680   171.2757 1.8217e+02     6.6626      0.139      0.201    22.7405   997.6205 0.0000e+00
      0.143      0.014     6.3220    104.057     39.150  37.379902     2.5554      7.674   171.1150 1.7907e+02     6.5999      0.139      0.202    22.7444   997.6196 0.0000e+00
      0.147      0.013     6.3155    103.909     39.164  37.386155     2.5586      7.668   168.4842 1.7403e+02     6.6086      0.144      0.209    22.7430   997.6200 0.0000e+00
      0.151      0.012     6.3029    103.830     39.175  37.391912     2.5657      7.663   163.5573 1.6496e+02     6.6038      0.149      0.217    22.7437   997.6198 0.0000e+00
      0.154      0.012     6.2870    103.819     39.172  37.386027     2.5719      7.661   161.0166 1.5909e+02     6.5745      0.151      0.219    22.7426   997.6200 0.0000e+00
      0.157      0.011     6.2754    103.849     39.168  37.378473     2.5719      7.658   163.1468 1.5923e+02     6.5500      0.154      0.223    22.7346   997.6219 0.0000e+00
      0.160      0.010     6.2676    103.900     39.161  37.364044     2.5751      7.654   167.8036 1.6062e+02     6.5369      0.157      0.228    22.7224   997.6248 0.0000e+00
      0.162      0.008     6.2632    103.952     39.147  37.338510     2.5837      7.652   170.4306 1.5837e+02     6.5474      0.159      0.231    22.7192   997.6256 0.0000e+00
      0.164      0.006     6.2638    103.977     39.147  37.323629     2.5987      7.650   170.6464 1.5119e+02     6.5450      0.161      0.234    22.7157   997.6264 0.0000e+00
      0.166      0.004     6.2666    104.008     39.153  37.311042     2.6169      7.645   170.6699 1.4769e+02     6.5406      0.163      0.236    22.7102   997.6277 0.0000e+00
      0.167      0.003     6.2705    104.083     39.173  37.313242     2.6228      7.640   170.5431 1.5069e+02     6.5596      0.164      0.237    22.7032   997.6294 0.0000e+00
      0.167      0.003     6.2772    104.154     39.214  37.350205     2.6264      7.637   170.3173 1.5295e+02     6.5784      0.164      0.238    22.6868   997.6331 0.0000e+00
      0.167      0.002     6.2800    104.209     39.222  37.377109     2.6345      7.635   169.9197 1.5675e+02     6.5715      0.163      0.237    22.6676   997.6376 0.0000e+00
      0.167      0.002     6.2823    104.268     39.202  37.384659     2.6339      7.633   167.1122 1.6017e+02     6.5416      0.163      0.236    22.6444   997.6431 0.0000e+00
      0.168      0.003     6.2935    104.323     39.178  37.378055     2.6275      7.631   161.9256 1.5617e+02     6.5111      0.165      0.239    22.6140   997.6501 0.0000e+00
      0.169      0.004     6.2987    104.359     39.162  37.360764     2.6271      7.627   158.5741 1.5191e+02     6.5314      0.166      0.240    22.6040   997.6525 0.0000e+00
      0.170      0.004     6.2966    104.337     39.182  37.366019     2.6379      7.620   157.4775 1.5302e+02     6.5902      0.166      0.242    22.6396   997.6443 0.0000e+00
      0.171      0.003     6.2957    104.237     39.208  37.378092     2.6535      7.614   156.6690 1.5549e+02     6.6327      0.168      0.244    22.6838   997.6339 0.0000e+00
      0.172      0.003     6.2960    104.112     39.209  37.379772     2.6677      7.610   155.9405 1.5292e+02     6.6845      0.168      0.244    22.7062   997.6287 0.0000e+00
      0.173      0.003     6.3000    104.044     39.201  37.386335     2.6708      7.605   155.2939 1.5021e+02     6.7245      0.171      0.248    22.7023   997.6296 0.0000e+00
      0.173      0.004     6.3025    104.036     39.191  37.393984     2.6733      7.600   154.7870 1.5254e+02     6.7566      0.170      0.247    22.6766   997.6356 0.0000e+00
      0.173      0.007     6.2979    104.022     39.196  37.408814     2.6893      7.594   154.3721 1.5478e+02     6.8436      0.168      0.244    22.6550   997.6407 0.0000e+00
      0.173      0.011     6.2878    103.976     39.220  37.438704     2.6918      7.585   153.9761 1.5467e+02     6.9241      0.168      0.244    22.6538   997.6410 0.0000e+00
      0.176      0.015     6.2806    103.926     39.210  37.438015     2.6776      7.575   153.6140 1.5000e+02     6.9421      0.172      0.250    22.6790   997.6351 0.0000e+00
      0.182      0.018     6.2792    103.904     39.165  37.400497     2.6738      7.566   153.2632 1.4281e+02     6.9631      0.179      0.259    22.7073   997.6285 0.0000e+00
      0.190      0.020     6.2776    103.896     39.133  37.365936     2.6804      7.560   152.9178 1.3811e+02     7.0143      0.186      0.270    22.7157   997.6265 0.0000e+00
      0.196      0.021     6.2738    103.859     39.116  37.337510     2.6881      7.556   152.6217 1.3603e+02     7.0372      0.194      0.281    22.7194   997.6257 0.0000e+00
      0.201      0.021     6.2674    103.763     39.104  37.310684     2.6891      7.551   152.3492 1.3560e+02     7.0108      0.198      0.287    22.7357   997.6220 0.0000e+00
      0.203      0.020     6.2653    103.646     39.107  37.295455     2.6833      7.546   152.0329 1.3507e+02     6.9898      0.199      0.288    22.7489   997.6188 0.0000e+00
      0.208      0.019     6.2670    103.589     39.116  37.280309     2.7038      7.538   151.7229 1.3263e+02     6.9473      0.202      0.294    22.7402   997.6208 0.0000e+00
      0.214      0.017     6.2675    103.594     39.119  37.254464     2.7474      7.530   151.4400 1.2849e+02     6.8907      0.211      0.305    22.7219   997.6252 0.0000e+00
      0.220      0.017     6.2640    103.642     39.129  37.236824     2.7685      7.526   151.1080 1.2547e+02     6.8622      0.217      0.315    22.7037   997.6295 0.0000e+00
      0.224      0.016     6.2553    103.700     39.109  37.193936     2.7593      7.526   150.8052 1.2422e+02     6.7995      0.221      0.321    22.6818   997.6346 0.0000e+00
      0.228      0.013     6.2577    103.770     39.055  37.116722     2.7059      7.527   150.6183 1.2380e+02     6.6563      0.224      0.324    22.6511   997.6418 0.0000e+00
      0.230      0.012     6.2624    103.930     39.034  37.064889     2.6257      7.528   150.4837 1.2410e+02     6.4743      0.226      0.327    22.6101   997.6513 0.0000e+00
      0.232      0.012     6.2702    104.132     39.076  37.074974     2.5862      7.528   150.3812 1.2598e+02     6.3691      0.228      0.330    22.5745   997.6596 0.0000e+00
      0.234      0.013     6.2786    104.292     39.131  37.111669     2.5847      7.527   150.2400 1.2871e+02     6.3341      0.229      0.332    22.5486   997.6657 0.0000e+00
      0.237      0.015     6.2816    104.410     39.148  37.127700     2.5803      7.527   150.0674 1.2939e+02     6.3131      0.231      0.335    22.5168   997.6730 0.0000e+00
      0.242      0.015     6.2997    104.469     39.154  37.141858     2.5597      7.525   149.9293 1.2928e+02     6.3779      0.236      0.342    22.4725   997.6833 0.0000e+00
      0.248      0.014     6.3199    104.439     39.157  37.155923     2.5360      7.522   149.7748 1.2913e+02     6.5284      0.244      0.354    22.4262   997.6941 0.0000e+00
      0.254      0.013     6.3309    104.365     39.158  37.170822     2.5276      7.519   149.6612 1.2681e+02     6.5914      0.250      0.363    22.4060   997.6988 0.0000e+00
      0.257      0.011     6.3377    104.281     39.168  37.195068     2.5178      7.517   149.5878 1.2192e+02     6.5500      0.252      0.366    22.4126   997.6972 0.0000e+00
      0.257      0.009     6.3417    104.194     39.156  37.195202     2.4872      7.516   149.4899 1.1820e+02     6.5200      0.252      0.366    22.4239   997.6946 0.0000e+00
      0.257      0.008     6.3360    104.134     39.131  37.172455     2.4524      7.513   149.4245 1.1848e+02     6.5225      0.251      0.364    22.4379   997.6914 0.0000e+00
      0.258      0.008     6.3286    104.093     39.137  37.173944     2.4444      7.511   149.3992 1.1828e+02     6.5480      0.252      0.366    22.4553   997.6874 0.0000e+00
      0.262      0.009     6.3219    104.033     39.182  37.213193     2.4504      7.511   149.3563 1.1497e+02     6.5337      0.256      0.372    22.4779   997.6822 0.0000e+00
      0.267      0.009     6.3123    103.944     39.235  37.266156     2.4469      7.510   149.2490 1.1343e+02     6.4812      0.262      0.379    22.4953   997.6782 0.0000e+00
      0.270      0.008     6.3097    103.853     39.261  37.306526     2.4368      7.507   149.1349 1.1417e+02     6.4701      0.265      0.385    22.4952   997.6783 0.0000e+00
      0.271      0.006     6.3089    103.812     39.253  37.320476     2.4321      7.504   149.0945 1.1307e+02     6.5301      0.265      0.384    22.4874   997.6801 0.0000e+00
      0.272      0.003     6.3067    103.839     39.221  37.307903     2.4426      7.502   149.1054 1.1219e+02     6.6161      0.266      0.386    22.4773   997.6824 0.0000e+00
      0.272     -0.001     6.3010    103.894     39.183  37.281481     2.4335      7.500   149.1813 1.1177e+02     6.5604      0.267      0.388    22.4779   997.6823 0.0000e+00
      0.272     -0.003     6.2907    103.938     39.152  37.254927     2.3996      7.498   149.2371 1.0903e+02     6.3812      0.267      0.387    22.5013   997.6768 0.0000e+00
      0.271     -0.003     6.2839    103.968     39.138  37.240745     2.3801      7.495   149.1785 1.0897e+02     6.2847      0.267      0.387    22.5358   997.6688 0.0000e+00
      0.268     -0.003     6.2837    103.994     39.146  37.236951     2.3798      7.492   149.0750 1.1208e+02     6.2781      0.263      0.381    22.5599   997.6632 0.0000e+00
      0.266     -0.001     6.2869    104.007     39.142  37.209047     2.3954      7.489   149.1031 1.1394e+02     6.3013      0.261      0.378    22.5708   997.6607 0.0000e+00
      0.266      0.002     6.2892    104.022     39.112  37.157222     2.4054      7.488   150.2926 1.1484e+02     6.3031      0.260      0.377    22.5740   997.6599 0.0000e+00
      0.266      0.006     6.2899    104.046     39.087  37.118098     2.3964      7.487   155.7145 1.1334e+02     6.2993      0.259      0.376    22.5749   997.6597 0.0000e+00
      0.269      0.010     6.2939    104.041     39.099  37.116830     2.3899      7.485   161.0561 1.1007e+02     6.3212      0.263      0.381    22.5638   997.6623 0.0000e+00
      0.274      0.011     6.2985    104.006     39.143  37.141868     2.3874      7.482   159.6406 1.0799e+02     6.3061      0.269      0.390    22.5265   997.6710 0.0000e+00
      0.278      0.008     6.3031    103.953     39.180  37.166914     2.4013      7.478   159.1627 1.0720e+02     6.3453      0.274      0.397    22.4886   997.6798 0.0000e+00
      0.282      0.003     6.3085    103.922     39.172  37.165749     2.4358      7.475   164.2262 1.0437e+02     6.4683      0.276      0.400    22.4742   997.6832 0.0000e+00
      0.283     -0.003     6.3085    103.966     39.122  37.127786     2.4503      7.471   168.4647 9.9219e+01     6.5145      0.279      0.405    22.4652   997.6852 0.0000e+00
      0.281     -0.008     6.3096    104.060     39.080  37.088767     2.4468      7.465   169.7999 9.8329e+01     6.5111      0.278      0.403    22.4369   997.6917 0.0000e+00
      0.274     -0.012     6.3088    104.145     39.074  37.074827     2.4363      7.459   169.9586 1.0245e+02     6.4266      0.268      0.389    22.4155   997.6967 0.0000e+00
      0.267     -0.013     6.3022    104.196     39.099  37.086171     2.4096      7.454   169.4376 1.0651e+02     6.1815      0.261      0.378    22.4318   997.6929 0.0000e+00
      0.264     -0.012     6.3038    104.221     39.129  37.098962     2.3845      7.451   166.4257 1.1043e+02     6.0056      0.259      0.376    22.4530   997.6880 0.0000e+00
      0.263     -0.007     6.3114    104.236     39.146  37.102511     2.3753      7.450   163.8282 1.1377e+02     6.0045      0.258      0.375    22.4502   997.6886 0.0000e+00
      0.261     -0.001     6.3183    104.229     39.177  37.129064     2.3942      7.447   165.9082 1.1367e+02     6.1025      0.256      0.372    22.4380   997.6914 0.0000e+00
      0.260      0.006     6.3233    104.185     39.210  37.166106     2.4298      7.442   168.3442 1.1082e+02     6.2405      0.254      0.369    22.4225   997.6950 0.0000e+00
      0.262      0.011     6.3265    104.106     39.200  37.169546     2.4507      7.435   168.7603 1.0802e+02     6.2964      0.255      0.370    22.3998   997.7003 0.0000e+00
      0.267      0.015     6.3307    103.997     39.185  37.170679     2.4480      7.427   168.7882 1.0637e+02     6.2859      0.261      0.378    22.3800   997.7049 0.0000e+00
      0.273      0.017     6.3311    103.876     39.182  37.179825     2.4574      7.417   168.3363 1.0387e+02     6.3113      0.269      0.389    22.3756   997.7060 0.0000e+00
      0.279      0.017     6.3268    103.795     39.148  37.153195     2.4951      7.412   165.3625 1.0012e+02     6.3403      0.274      0.398    22.3862   997.7036 0.0000e+00
      0.284      0.013     6.3201    103.771     39.099  37.102606     2.5134      7.413   159.9344 9.7234e+01     6.3095      0.280      0.405    22.4040   997.6994 0.0000e+00
      0.289      0.008     6.3107    103.763     39.086  37.075950     2.5053      7.417   156.9099 9.5373e+01     6.2670      0.284      0.412    22.4248   997.6946 0.0000e+00
      0.290      0.004     6.2998    103.749     39.119  37.084770     2.5016      7.420   159.1662 9.3959e+01     6.3177      0.285      0.414    22.4430   997.6904 0.0000e+00
      0.288      0.000     6.2927    103.722     39.138  37.082265     2.5030      7.421   162.6945 9.3850e+01     6.4308      0.284      0.411    22.4508   997.6886 0.0000e+00
      0.285     -0.001     6.2940    103.698     39.114  37.045639     2.5053      7.420   164.0354 9.6427e+01     6.5200      0.281      0.406    22.4469   997.6895 0.0000e+00
      0.283     -0.001     6.2958    103.696     39.099  37.022748     2.5118      7.420   166.0011 1.0031e+02     6.5437      0.278      0.403    22.4266   997.6942 0.0000e+00
      0.283      0.000     6.2993    103.674     39.141  37.059375     2.5120      7.421   167.7909 1.0205e+02     6.5210      0.277      0.402    22.3935   997.7019 0.0000e+00
      0.284      0.002     6.3010    103.601     39.187  37.107647     2.5085      7.424   167.7787 1.0204e+02     6.5739      0.278      0.404    22.3652   997.7084 0.0000e+00
      0.286      0.004     6.2999    103.510     39.170  37.098611     2.5121      7.427   167.4027 1.0246e+02     6.6909      0.281      0.408    22.3491   997.7121 0.0000e+00
      0.288      0.005     6.3030    103.448     39.140  37.077090     2.5121      7.428   165.3958 1.0273e+02     6.7560      0.283      0.410    22.3386   997.7145 0.0000e+00
      0.290      0.004     6.3034    103.429     39.162  37.101343     2.5094      7.428   161.1513 1.0161e+02     6.7380      0.284      0.412    22.3315   997.7161 0.0000e+00
      0.292      0.003     6.2969    103.449     39.198  37.137959     2.5231      7.429   157.4675 9.9961e+01     6.6704      0.286      0.415    22.3391   997.7145 0.0000e+00
      0.292      0.000     6.2882    103.488     39.194  37.138971     2.5476      7.430   155.7877 9.8451e+01     6.5948      0.287      0.416    22.3526   997.7113 0.0000e+00
      0.292     -0.002     6.2839    103.542     39.160  37.113580     2.5621      7.430   155.3813 9.6273e+01     6.5438      0.286      0.415    22.3609   997.7093 0.0000e+00
      0.291     -0.002     6.2820    103.631     39.127  37.084870     2.5684      7.429   158.1461 9.3933e+01     6.5457      0.285      0.414    22.3633   997.7089 0.0000e+00
      0.289     -0.001     6.2836    103.733     39.097  37.045738     2.5634      7.426   163.2329 9.3012e+01     6.5850      0.283      0.410    22.3663   997.7082 0.0000e+00
      0.287      0.000     6.2858    103.803     39.093  37.021269     2.5531      7.420   163.7139 9.4501e+01     6.6590      0.281      0.407    22.3721   997.7068 0.0000e+00
      0.287      0.003     6.2866    103.839     39.135  37.042886     2.5483      7.415   161.4654 9.8266e+01     6.7198      0.281      0.407    22.3814   997.7047 0.0000e+00
      0.289      0.005     6.2915    103.847     39.154  37.053178     2.5568      7.410   161.0845 1.0200e+02     6.7293      0.283      0.410    22.3923   997.7021 0.0000e+00
      0.292      0.007     6.3010    103.809     39.115  37.018755     2.5782      7.409   158.8510 1.0300e+02     6.7415      0.287      0.416    22.3767   997.7057 0.0000e+00
      0.295      0.007     6.3088    103.730     39.101  37.007528     2.5820      7.410   156.3139 1.0227e+02     6.7693      0.290      0.420    22.3444   997.7132 0.0000e+00
      0.297      0.007     6.3140    103.641     39.142  37.044386     2.5765      7.410   155.7044 1.0133e+02     6.8031      0.291      0.422    22.3163   997.7196 0.0000e+00
      0.298      0.006     6.3166    103.553     39.186  37.083554     2.5807      7.410   154.7505 9.9205e+01     6.7898      0.292      0.423    22.3069   997.7218 0.0000e+00
      0.299      0.005     6.3130    103.481     39.199  37.100256     2.5986      7.407   153.9010 9.6100e+01     6.6404      0.293      0.425    22.3168   997.7196 0.0000e+00
      0.301      0.001     6.3066    103.460     39.204  37.119383     2.6200      7.403   153.6065 9.4995e+01     6.4062      0.295      0.428    22.3195   997.7189 0.0000e+00
      0.301     -0.013     6.3016    103.470     39.254  37.187895     2.6218      7.400   152.9963 9.6214e+01     6.2520      0.296      0.429    22.3148   997.7199 0.0000e+00
      0.302     -0.048     6.2976    103.496     39.327  37.293906     2.6213      7.397   152.2019 9.6256e+01     6.2511      0.295      0.428    22.3077   997.7217 0.0000e+00
      0.302     -0.113     6.2906    103.566     39.358  37.385614     2.6221      7.396   151.9176 9.8299e+01     6.2975      0.299      0.434    22.3129   997.7204 0.0000e+00
      0.292     -0.201     6.2878    103.696     39.366  37.471654     2.5620      7.396   151.6234 1.1492e+02     6.2228      0.297      0.431    22.3362   997.7151 0.0000e+00
      0.249     -0.292     6.2865    103.862     39.390  37.572619     2.4497      7.396   150.8816 1.6733e+02     6.1015      0.264      0.383    22.3570   997.7102 0.0000e+00
      0.154     -0.362     6.2821    104.020     39.395  37.654358     2.3908      7.393   150.7780 2.4324e+02     6.2068      0.174      0.253    22.3949   997.7010 0.0000e+00
      0.006     -0.392     6.2757    104.130     39.364  37.698356     2.3966      7.387   151.4033 2.9667e+02     7.7254      0.011      0.016    22.4819   997.6803 0.0000e+00
     -0.158     -0.367     6.2708    104.164     39.325  37.723846     2.4674      7.382   151.8174 3.1989e+02    24.0370     -0.170     -0.246    22.5921   997.6538 0.0000e+00
     -0.288     -0.286     6.2706    104.124     39.261  37.708736     2.5794      7.379   151.9133 3.2685e+02    53.8570     -0.306     -0.445    22.6891   997.6305 0.0000e+00
     -0.355     -0.161     6.2692    104.014     39.169  37.642686     2.6246      7.377   151.7881 3.2692e+02    69.9508     -0.372     -0.539    22.7835   997.6082 0.0000e+00
     -0.361     -0.016     6.2651    103.825     39.090  37.560023     2.6148      7.379   151.5088 3.2457e+02    70.0363     -0.366     -0.529    22.8844   997.5845 0.0000e+00
     -0.324      0.112     6.2567    103.571     39.032  37.470964     2.5729      7.384   151.2889 3.2037e+02    55.1528     -0.329     -0.477    22.9667   997.5653 0.0000e+00
     -0.255      0.201     6.2472    103.281     38.997  37.391005     2.4998      7.387   151.1088 3.1879e+02    27.6055     -0.262     -0.378    23.0267   997.5513 0.0000e+00
     -0.164      0.241     6.2369    102.981     39.012  37.354880     2.4596      7.387   150.7933 3.1493e+02    12.5463     -0.159     -0.230    23.0624   997.5433 0.0000e+00
     -0.077      0.241     6.2265    102.694     39.056  37.351479     2.4511      7.389   150.4854 3.0761e+02    11.0771     -0.067     -0.098    23.0514   997.5463 0.0000e+00
     -0.010      0.214     6.2164    102.438     39.090  37.349823     2.4828      7.393   150.3983 2.8610e+02     9.8090     -0.003     -0.004    22.9997   997.5588 0.0000e+00
      0.037      0.173     6.2060    102.215     39.101  37.334798     2.5661      7.396   150.4278 2.5940e+02     7.6352      0.042      0.062    22.9374   997.5737 0.0000e+00
      0.066      0.130     6.1957    102.045     39.088  37.296736     2.6261      7.397   150.4116 2.5789e+02     6.4232      0.069      0.101    22.8684   997.5901 0.0000e+00
      0.083      0.095     6.1852    101.937     39.091  37.270426     2.6359      7.397   150.2886 2.6823e+02     6.2977      0.083      0.120    22.8047   997.6052 0.0000e+00
      0.096      0.070     6.1749    101.891     39.116  37.270549     2.6153      7.397   150.1450 2.6800e+02     6.2816      0.092      0.135    22.7657   997.6143 0.0000e+00
      0.111      0.054     6.1638    101.914     39.157  37.298186     2.5846      7.396   150.1382 2.5379e+02     6.2943      0.110      0.159    22.7380   997.6210 0.0000e+00
      0.126      0.041     6.1573    101.984     39.212  37.350661     2.5770      7.395   150.1212 2.3886e+02     6.3197      0.125      0.182    22.7065   997.6284 0.0000e+00
      0.137      0.031     6.1559    102.052     39.249  37.397232     2.5835      7.394   150.0247 2.3668e+02     6.3273      0.134      0.195    22.6634   997.6385 0.0000e+00
      0.144      0.022     6.1566    102.106     39.250  37.416953     2.5767      7.394   150.0043 2.3818e+02     6.3209      0.143      0.207    22.6286   997.6467 0.0000e+00
      0.147      0.016     6.1601    102.216     39.209  37.398712     2.5562      7.397   149.9606 2.3882e+02     6.3728      0.148      0.214    22.6150   997.6499 0.0000e+00
      0.146      0.011     6.1654    102.412     39.162  37.367131     2.5434      7.399   149.8407 2.4420e+02     6.4630      0.144      0.209    22.6178   997.6493 0.0000e+00
      0.144      0.010     6.1688    102.632     39.145  37.352501     2.5439      7.398   149.6728 2.4281e+02     6.5270      0.138      0.199    22.6322   997.6459 0.0000e+00
      0.147      0.010     6.1666    102.822     39.147  37.348779     2.5359      7.396   149.4794 2.3256e+02     6.5574      0.143      0.207    22.6556   997.6404 0.0000e+00
      0.153      0.011     6.1680    102.947     39.130  37.322126     2.5074      7.396   149.3950 2.2323e+02     6.5015      0.151      0.220    22.6896   997.6325 0.0000e+00
      0.158      0.012     6.1803    102.985     39.103  37.284126     2.4759      7.397   149.4267 2.1210e+02     6.4086      0.154      0.223    22.7096   997.6278 0.0000e+00
      0.163      0.013     6.1943    102.931     39.100  37.270154     2.4676      7.399   149.4327 2.0714e+02     6.3854      0.160      0.233    22.7077   997.6283 0.0000e+00
      0.164      0.014     6.2075    102.788     39.121  37.280123     2.4673      7.401   149.3812 2.1384e+02     6.3841      0.164      0.237    22.7001   997.6301 0.0000e+00
      0.163      0.016     6.2176    102.589     39.130  37.277693     2.4726      7.403   149.3202 2.1994e+02     6.3271      0.158      0.229    22.6853   997.6335 0.0000e+00
      0.165      0.019     6.2215    102.367     39.105  37.240763     2.4889      7.404   149.3833 2.1629e+02     6.2540      0.159      0.231    22.6681   997.6375 0.0000e+00
      0.171      0.024     6.2207    102.163     39.095  37.214438     2.5075      7.402   149.6284 2.1240e+02     6.2549      0.168      0.244    22.6541   997.6409 0.0000e+00
      0.181      0.028     6.2117    102.020     39.112  37.213274     2.5240      7.399   149.7023 2.1308e+02     6.3047      0.177      0.258    22.6420   997.6437 0.0000e+00
      0.190      0.030     6.2014    101.964     39.140  37.226666     2.5153      7.395   149.5885 2.0930e+02     6.2656      0.186      0.269    22.6277   997.6471 0.0000e+00
      0.200      0.027     6.1887    102.017     39.173  37.249395     2.4979      7.394   149.5422 1.9995e+02     6.1424      0.195      0.283    22.6126   997.6506 0.0000e+00
      0.210      0.022     6.1776    102.150     39.164  37.234172     2.4949      7.394   149.4869 1.9015e+02     6.0606      0.206      0.300    22.5908   997.6557 0.0000e+00
      0.216      0.019     6.1727    102.331     39.107  37.169545     2.5059      7.396   149.5227 1.7993e+02     6.0626      0.213      0.310    22.5634   997.6622 0.0000e+00
      0.216      0.019     6.1690    102.501     39.059  37.102726     2.5435      7.397   149.6312 1.7020e+02     6.2005      0.214      0.309    22.5491   997.6656 0.0000e+00
      0.212      0.020     6.1752    102.565     39.048  37.060982     2.5773      7.396   149.6806 1.6492e+02     6.4163      0.207      0.299    22.5391   997.6678 0.0000e+00
      0.215      0.021     6.1845    102.514     39.066  37.045627     2.5677      7.395   149.7759 1.5508e+02     6.5088      0.206      0.299    22.5305   997.6698 0.0000e+00
      0.226      0.022     6.1968    102.424     39.096  37.043967     2.5485      7.392   149.8366 1.3939e+02     6.5000      0.221      0.321    22.5250   997.6711 0.0000e+00
      0.239      0.024     6.2142    102.355     39.116  37.040869     2.5446      7.391   149.8111 1.2872e+02     6.4740      0.238      0.345    22.4953   997.6781 0.0000e+00
      0.248      0.026     6.2232    102.327     39.093  37.008135     2.5381      7.392   149.8122 1.2185e+02     6.3903      0.247      0.357    22.4496   997.6887 0.0000e+00
      0.249      0.027     6.2228    102.333     39.057  36.965537     2.5305      7.394   149.8508 1.1585e+02     6.3073      0.244      0.355    22.4077   997.6983 0.0000e+00
      0.249      0.027     6.2209    102.341     39.074  36.970131     2.5215      7.397   149.8475 1.0994e+02     6.2900      0.240      0.349    22.3662   997.7079 0.0000e+00
      0.256      0.030     6.2202    102.336     39.116  37.000192     2.5081      7.399   149.7725 1.0313e+02     6.3122      0.250      0.362    22.3370   997.7147 0.0000e+00
      0.267      0.036     6.2195    102.312     39.134  37.011616     2.5239      7.400   149.7182 9.6927e+01     6.5103      0.263      0.382    22.3258   997.7173 0.0000e+00
      0.278      0.045     6.2220    102.265     39.111  36.981297     2.5654      7.399   149.7074 9.2332e+01     6.8505      0.273      0.396    22.3201   997.7186 0.0000e+00
      0.289      0.050     6.2243    102.170     39.093  36.950970     2.5768      7.398   149.7274 8.8699e+01     6.9841      0.283      0.411    22.3029   997.7227 0.0000e+00
      0.302      0.054     6.2262    101.976     39.119  36.962275     2.5665      7.397   149.9595 8.5147e+01     6.9465      0.295      0.427    22.2867   997.7265 0.0000e+00
      0.320      0.059     6.2253    101.738     39.094  36.927551     2.5974      7.395   150.4500 8.1749e+01     6.9200      0.313      0.454    22.2840   997.7272 0.0000e+00
      0.337      0.067     6.2231    101.579     39.026  36.848476     2.6637      7.390   150.9251 8.0011e+01     6.8605      0.334      0.485    22.2765   997.7290 0.0000e+00
      0.350      0.072     6.2227    101.534     39.032  36.831324     2.7004      7.386   151.3159 8.1038e+01     6.7845      0.343      0.497    22.2544   997.7341 0.0000e+00
      0.365      0.073     6.2116    101.532     39.076  36.847083     2.7034      7.383   151.6477 8.1547e+01     6.7211      0.351      0.510    22.2343   997.7388 0.0000e+00
      0.390      0.069     6.1943    101.508     39.094  36.848559     2.7344      7.381   151.8392 8.0015e+01     6.6510      0.382      0.554    22.2258   997.7408 0.0000e+00
      0.417      0.066     6.1856    101.466     39.099  36.849148     2.7977      7.381   152.0827 7.9297e+01     6.5923      0.415      0.601    22.2115   997.7442 0.0000e+00
      0.434      0.063     6.1893    101.393     39.104  36.854195     2.8271      7.379   152.4411 7.9888e+01     6.5692      0.430      0.624    22.1769   997.7523 0.0000e+00
      0.442      0.058     6.1958    101.256     39.094  36.846118     2.8213      7.374   152.6441 7.9704e+01     6.5685      0.433      0.628    22.1366   997.7614 0.0000e+00
      0.450      0.052     6.1959    101.072     39.061  36.814963     2.8317      7.371   152.6447 7.7219e+01     6.4852      0.438      0.636    22.1155   997.7662 0.0000e+00
      0.464      0.049     6.1937    100.888     39.044  36.794873     2.8661      7.371   152.7072 7.3412e+01     6.3481      0.455      0.660    22.1141   997.7667 0.0000e+00
      0.479      0.053     6.1904    100.718     39.051  36.793615     2.8897      7.372   152.9690 6.9566e+01     6.3200      0.471      0.684    22.1180   997.7658 0.0000e+00
      0.491      0.059     6.1810    100.560     39.066  36.799744     2.8924      7.373   153.3140 6.5200e+01     6.3424      0.481      0.699    22.1205   997.7653 0.0000e+00
      0.504      0.064     6.1681    100.438     39.078  36.805499     2.8720      7.373   153.6102 6.0543e+01     6.3892      0.493      0.716    22.1210   997.7652 0.0000e+00
      0.522      0.067     6.1576    100.363     39.076  36.799708     2.8343      7.372   153.8829 5.6363e+01     6.4921      0.512      0.742    22.1166   997.7663 0.0000e+00
      0.541      0.067     6.1487    100.331     39.073  36.793200     2.8176      7.371   154.2020 5.2649e+01     6.5379      0.531      0.769    22.1056   997.7689 0.0000e+00
      0.561      0.066     6.1397    100.324     39.077  36.790278     2.8178      7.369   154.4565 4.9406e+01     6.5172      0.551      0.797    22.0925   997.7720 0.0000e+00
      0.581      0.064     6.1328    100.316     39.057  36.764361     2.8193      7.366   154.6378 4.7131e+01     6.5043      0.573      0.831    22.0852   997.7738 0.0000e+00
      0.596      0.063     6.1289    100.288     39.031  36.733722     2.8368      7.361   154.8451 4.5955e+01     6.5123      0.588      0.852    22.0817   997.7746 0.0000e+00
      0.606      0.059     6.1277    100.213     39.043  36.737184     2.8634      7.355   155.0706 4.5055e+01     6.5160      0.594      0.861    22.0785   997.7755 0.0000e+00
      0.618      0.054     6.1292    100.050     39.058  36.742741     2.8804      7.350   155.2996 4.3973e+01     6.5164      0.604      0.876    22.0694   997.7775 0.0000e+00
      0.636      0.048     6.1299     99.786     39.059  36.737416     2.8871      7.348   155.4618 4.3011e+01     6.5177      0.624      0.905    22.0588   997.7801 0.0000e+00
      0.655      0.043     6.1296     99.441     39.061  36.736261     2.8838      7.348   155.4828 4.2434e+01     6.4011      0.646      0.936    22.0529   997.7814 0.0000e+00
      0.665      0.042     6.1273     99.050     39.053  36.728777     2.8753      7.348   155.4680 4.2131e+01     6.1878      0.655      0.951    22.0432   997.7837 0.0000e+00
      0.667      0.041     6.1192     98.678     39.031  36.710402     2.8710      7.346   155.5413 4.1743e+01     6.0687      0.653      0.947    22.0305   997.7866 0.0000e+00
      0.671      0.041     6.1035     98.349     39.026  36.704517     2.8751      7.343   155.6813 4.1055e+01     6.0752      0.654      0.948    22.0211   997.7887 0.0000e+00
      0.681      0.041     6.0825     98.047     39.047  36.721099     2.8911      7.341   155.8700 4.0063e+01     6.2015      0.666      0.966    22.0162   997.7899 0.0000e+00
      0.699      0.046     6.0566     97.822     39.050  36.720465     2.9077      7.341   156.1025 3.9080e+01     6.3820      0.685      0.994    22.0181   997.7895 0.0000e+00
      0.715      0.051     6.0320     97.708     39.028  36.696835     2.9199      7.341   156.3413 3.8310e+01     6.4877      0.704      1.020    22.0239   997.7883 0.0000e+00
      0.727      0.054     6.0144     97.656     39.026  36.689286     2.9342      7.341   156.6059 3.7582e+01     6.5295      0.712      1.033    22.0220   997.7888 0.0000e+00
      0.737      0.055     5.9942     97.616     39.038  36.692654     2.9339      7.341   156.8929 3.6788e+01     6.5268      0.721      1.046    22.0152   997.7904 0.0000e+00
      0.751      0.057     5.9796     97.579     39.026  36.674077     2.9070      7.341   157.2298 3.6077e+01     6.4880      0.736      1.068    22.0121   997.7911 0.0000e+00
      0.766      0.060     5.9749     97.573     39.016  36.655073     2.8782      7.339   157.5818 3.5647e+01     6.4861      0.750      1.088    22.0102   997.7916 0.0000e+00
      0.781      0.061     5.9736     97.611     39.026  36.653286     2.8713      7.336   157.7937 3.5377e+01     6.5368      0.765      1.110    22.0022   997.7936 0.0000e+00
      0.800      0.061     5.9730     97.661     39.036  36.652454     2.9102      7.332   157.8987 3.5040e+01     6.5763      0.783      1.136    21.9904   997.7963 0.0000e+00
      0.819      0.059     5.9704     97.654     39.036  36.645002     2.9852      7.329   157.9046 3.4635e+01     6.5710      0.803      1.166    21.9821   997.7982 0.0000e+00
      0.835      0.054     5.9711     97.524     39.022  36.626641     3.0237      7.326   157.8647 3.4245e+01     6.5388      0.821      1.190    21.9715   997.8007 0.0000e+00
      0.846      0.049     5.9758     97.229     39.018  36.620866     3.0105      7.323   157.9327 3.3865e+01     6.5144      0.831      1.205    21.9541   997.8047 0.0000e+00
      0.856      0.043     5.9826     96.796     39.038  36.638650     2.9903      7.320   158.0390 3.3400e+01     6.5048      0.838      1.216    21.9398   997.8079 0.0000e+00
      0.866      0.038     5.9843     96.306     39.051  36.651240     2.9879      7.316   158.1180 3.2869e+01     6.4556      0.849      1.231    21.9316   997.8098 0.0000e+00
      0.875      0.035     5.9783     95.822     39.045  36.646141     2.9999      7.314   158.1992 3.2433e+01     6.3783      0.859      1.245    21.9252   997.8114 0.0000e+00
      0.883      0.035     5.9604     95.390     39.040  36.640479     3.0130      7.314   158.3317 3.2085e+01     6.3246      0.866      1.257    21.9215   997.8123 0.0000e+00
      0.890      0.036     5.9311     95.043     39.047  36.646259     3.0165      7.313   158.5159 3.1712e+01     6.2972      0.873      1.267    21.9213   997.8124 0.0000e+00
      0.899      0.038     5.9002     94.789     39.055  36.652551     3.0246      7.312   158.7057 3.1277e+01     6.2441      0.879      1.275    21.9222   997.8122 0.0000e+00
      0.909      0.040     5.8692     94.604     39.059  36.653071     3.0500      7.311   158.9916 3.0817e+01     6.1413      0.891      1.292    21.9226   997.8121 0.0000e+00
      0.921      0.043     5.8422     94.454     39.063  36.652541     3.0550      7.310   159.4781 3.0449e+01     6.0707      0.904      1.310    21.9223   997.8123 0.0000e+00
      0.933      0.046     5.8206     94.299     39.062  36.646146     3.0502      7.306   159.9414 3.0171e+01     6.0450      0.915      1.325    21.9219   997.8124 0.0000e+00
      0.944      0.049     5.8061     94.091     39.064  36.639214     3.0536      7.301   160.2052 2.9946e+01     6.0603      0.926      1.343    21.9199   997.8128 0.0000e+00
      0.955      0.050     5.7959     93.808     39.067  36.632181     3.0519      7.297   160.4305 2.9770e+01     6.0923      0.936      1.357    21.9151   997.8141 0.0000e+00
      0.969      0.050     5.7880     93.472     39.068  36.624576     3.0644      7.294   160.6007 2.9520e+01     6.1041      0.949      1.376    21.9107   997.8151 0.0000e+00
      0.986      0.049     5.7806     93.145     39.059  36.610719     3.0753      7.291   160.7143 2.9241e+01     6.1039      0.969      1.405    21.9038   997.8167 0.0000e+00
      0.999      0.047     5.7695     92.870     39.042  36.591572     3.0359      7.290   160.9443 2.9071e+01     6.0574      0.982      1.424    21.8928   997.8192 0.0000e+00
      1.008      0.047     5.7535     92.670     39.037  36.583490     2.9692      7.290   161.2298 2.8900e+01     6.0011      0.988      1.433    21.8785   997.8225 0.0000e+00
      1.018      0.046     5.7323     92.568     39.034  36.576461     2.9451      7.290   161.4135 2.8637e+01     6.0128      0.998      1.448    21.8656   997.8254 0.0000e+00
      1.028      0.045     5.7122     92.572     39.030  36.570056     2.9526      7.291   161.5303 2.8257e+01     6.0675      1.008      1.462    21.8599   997.8268 0.0000e+00
      1.040      0.045     5.6955     92.689     39.033  36.569526     2.9740      7.291   161.6100 2.7776e+01     6.0396      1.019      1.478    21.8571   997.8275 0.0000e+00
      1.055      0.046     5.6828     92.941     39.035  36.570036     3.0212      7.290   161.6020 2.7292e+01     5.9051      1.035      1.501    21.8525   997.8286 0.0000e+00
      1.068      0.047     5.6773     93.332     39.043  36.576223     3.0548      7.288   161.6926 2.6837e+01     5.8185      1.050      1.522    21.8475   997.8298 0.0000e+00
      1.078      0.050     5.6777     93.795     39.049  36.580848     3.0595      7.287   161.8446 2.6431e+01     5.8439      1.059      1.535    21.8430   997.8308 0.0000e+00
      1.088      0.052     5.6850     94.245     39.030  36.562488     3.0517      7.287   161.8054 2.6033e+01     5.8515      1.066      1.546    21.8390   997.8318 0.0000e+00
      1.101      0.053     5.6999     94.623     39.012  36.544653     3.0730      7.287   161.7341 2.5597e+01     5.6495      1.079      1.564    21.8364   997.8325 0.0000e+00
      1.117      0.055     5.7260     94.864     39.027  36.555620     3.1353      7.287   161.6713 2.5175e+01     5.3347      1.095      1.588    21.8353   997.8327 0.0000e+00
      1.133      0.058     5.7569     94.981     39.043  36.568148     3.1727      7.288   161.5627 2.4850e+01     5.1908      1.112      1.613    21.8342   997.8331 0.0000e+00
      1.148      0.062     5.7848     95.084     39.048  36.569175     3.1863      7.289   161.4536 2.4593e+01     5.1877      1.127      1.634    21.8332   997.8334 0.0000e+00
      1.162      0.063     5.8107     95.284     39.052  36.568030     3.2568      7.289   161.2120 2.4282e+01     5.1340      1.139      1.652    21.8319   997.8337 0.0000e+00
      1.177      0.062     5.8256     95.612     39.043  36.554295     3.3661      7.289   160.9646 2.3882e+01     4.9992      1.152      1.671    21.8291   997.8344 0.0000e+00
      1.197      0.061     5.8301     96.072     39.023  36.530036     3.4149      7.291   160.8714 2.3488e+01     4.9019      1.173      1.702    21.8260   997.8352 0.0000e+00
      1.215      0.060     5.8338     96.668     39.025  36.528607     3.4221      7.292   160.8596 2.3237e+01     4.9080      1.196      1.734    21.8218   997.8362 0.0000e+00
      1.229      0.058     5.8470     97.372     39.038  36.537016     3.4447      7.292   160.9090 2.3052e+01     4.9418      1.206      1.749    21.8151   997.8378 0.0000e+00
      1.241      0.052     5.8680     98.112     39.007  36.504761     3.4718      7.292   160.9524 2.2785e+01     4.9504      1.216      1.762    21.8072   997.8396 0.0000e+00
      1.256      0.042     5.8965     98.793     38.958  36.455968     3.4810      7.296   160.8674 2.2511e+01     4.9468      1.232      1.786    21.8008   997.8410 0.0000e+00
      1.269      0.028     5.9343     99.340     38.959  36.454833     3.4782      7.303   160.7413 2.2238e+01     4.9304      1.245      1.807    21.7965   997.8421 0.0000e+00
      1.279      0.015     5.9795     99.714     38.996  36.491036     3.4722      7.309   160.7186 2.1993e+01     4.9820      1.257      1.822    21.7916   997.8433 0.0000e+00
      1.283      0.006     6.0282     99.901     39.015  36.512861     3.4520      7.312   160.7642 2.1951e+01     5.0794      1.263      1.831    21.7868   997.8444 0.0000e+00
      1.276      0.003     6.0717     99.890     39.027  36.528321     3.4327      7.312   160.8627 2.2120e+01     5.1241      1.254      1.819    21.7834   997.8451 0.0000e+00
      1.262      0.005     6.1068     99.711     39.050  36.551019     3.4304      7.309   160.9638 2.2270e+01     5.1620      1.234      1.790    21.7802   997.8457 0.0000e+00
      1.256      0.010     6.1293     99.434     39.034  36.533399     3.4494      7.307   160.9535 2.2116e+01     5.2427      1.224      1.774    21.7813   997.8455 0.0000e+00
      1.267      0.016     6.1410     99.122     39.008  36.505694     3.4807      7.308   160.8246 2.1674e+01     5.3466      1.239      1.797    21.7881   997.8439 0.0000e+00
      1.286      0.021     6.1386     98.816     39.040  36.533401     3.4970      7.312   160.7817 2.1278e+01     5.4025      1.265      1.835    21.7952   997.8425 0.0000e+00
      1.299      0.024     6.1256     98.541     39.060  36.551035     3.4989      7.315   160.8658 2.1146e+01     5.4268      1.277      1.853    21.7963   997.8424 0.0000e+00
      1.301      0.022     6.1078     98.303     39.038  36.528495     3.4954      7.317   160.8946 2.1171e+01     5.4439      1.278      1.852    21.7919   997.8433 0.0000e+00
      1.298      0.016     6.0884     98.077     39.027  36.514751     3.4970      7.318   160.8726 2.1218e+01     5.4777      1.273      1.846    21.7874   997.8443 0.0000e+00
      1.296      0.009     6.0695     97.826     39.027  36.511799     3.5188      7.319   160.9434 2.1160e+01     5.5733      1.266      1.837    21.7848   997.8448 0.0000e+00
      1.301      0.008     6.0523     97.554     39.009  36.492803     3.5416      7.320   161.0619 2.0940e+01     5.6494      1.275      1.848    21.7826   997.8454 0.0000e+00
      1.309      0.011     6.0387     97.310     38.992  36.475482     3.5475      7.320   161.0150 2.0777e+01     5.6435      1.289      1.869    21.7810   997.8458 0.0000e+00
      1.309      0.015     6.0261     97.091     39.012  36.492792     3.5560      7.319   160.8917 2.0745e+01     5.6008      1.286      1.865    21.7778   997.8465 0.0000e+00
      1.308      0.017     6.0119     96.894     39.034  36.511677     3.5839      7.318   160.8614 2.0657e+01     5.5923      1.279      1.854    21.7716   997.8479 0.0000e+00
      1.313      0.016     5.9931     96.749     39.038  36.513394     3.6078      7.317   160.9076 2.0467e+01     5.6393      1.286      1.865    21.7687   997.8486 0.0000e+00
      1.323      0.015     5.9789     96.625     39.039  36.513550     3.6101      7.316   160.9345 2.0282e+01     5.6770      1.300      1.886    21.7685   997.8486 0.0000e+00
      1.328      0.017     5.9665     96.500     39.039  36.513563     3.6210      7.316   160.9277 2.0197e+01     5.6544      1.305      1.893    21.7663   997.8492 0.0000e+00
      1.329      0.019     5.9523     96.380     39.039  36.513550     3.6525      7.316   160.9980 2.0204e+01     5.6279      1.303      1.890    21.7628   997.8500 0.0000e+00
      1.331      0.020     5.9458     96.255     39.039  36.513395     3.6704      7.316   161.0956 2.0201e+01     5.6522      1.304      1.892    21.7601   997.8505 0.0000e+00
      1.336      0.020     5.9386     96.126     39.038  36.511688     3.6720      7.315   161.1611 2.0145e+01     5.6866      1.309      1.899    21.7596   997.8507 0.0000e+00
      1.343      0.021     5.9301     96.030     39.018  36.492908     3.6984      7.314   161.1887 2.0053e+01     5.7159      1.316      1.909    21.7598   997.8507 0.0000e+00
      1.351      0.021     5.9234     96.003     39.001  36.476741     3.7384      7.314   161.1704 1.9993e+01     5.7764      1.326      1.923    21.7605   997.8506 0.0000e+00
      1.358      0.019     5.9158     96.044     39.033  36.506626     3.7568      7.314   161.1981 1.9991e+01     5.8284      1.334      1.934    21.7608   997.8505 0.0000e+00
      1.363      0.017     5.9072     96.141     39.065  36.536894     3.7733      7.314   161.2654 2.0001e+01     5.8536      1.337      1.939    21.7594   997.8509 0.0000e+00
      1.366      0.016     5.9001     96.283     39.052  36.525340     3.7983      7.313   161.3824 2.0027e+01     5.8838      1.340      1.943    21.7581   997.8512 0.0000e+00
      1.367      0.016     5.8989     96.427     39.018  36.493875     3.8166      7.313   161.5798 2.0046e+01     5.8661      1.341      1.944    21.7582   997.8512 0.0000e+00
      1.367      0.020     5.9017     96.553     38.998  36.473820     3.8302      7.311   161.6733 1.9982e+01     5.8037      1.339      1.941    21.7586   997.8511 0.0000e+00
      1.372      0.024     5.9073     96.655     38.999  36.473275     3.8496      7.309   161.7393 1.9834e+01     5.8169      1.345      1.949    21.7586   997.8511 0.0000e+00
      1.381      0.028     5.9176     96.687     39.016  36.487283     3.8604      7.306   161.9475 1.9669e+01     5.8614      1.355      1.964    21.7593   997.8510 0.0000e+00
      1.392      0.029     5.9270     96.660     39.048  36.516237     3.8480      7.303   162.1258 1.9484e+01     5.8504      1.363      1.978    21.7602   997.8508 0.0000e+00
      1.403      0.026     5.9336     96.629     39.035  36.505997     3.8222      7.301   162.1741 1.9296e+01     5.8480      1.377      1.998    21.7589   997.8512 0.0000e+00
      1.411      0.021     5.9428     96.604     39.016  36.490416     3.7999      7.300   162.1016 1.9185e+01     5.8325      1.386      2.011    21.7562   997.8518 0.0000e+00
      1.415      0.016     5.9446     96.595     39.045  36.518263     3.7949      7.300   162.1094 1.9158e+01     5.8275      1.388      2.013    21.7530   997.8525 0.0000e+00
      1.416      0.013     5.9408     96.617     39.053  36.525337     3.8138      7.300   162.3538 1.9199e+01     5.8520      1.390      2.016    21.7522   997.8528 0.0000e+00
      1.414      0.012     5.9392     96.666     39.041  36.512479     3.8465      7.300   162.5618 1.9229e+01     5.8343      1.386      2.011    21.7556   997.8520 0.0000e+00
      1.413      0.013     5.9369     96.734     39.020  36.489744     3.8610      7.299   162.6455 1.9164e+01     5.8103      1.383      2.005    21.7587   997.8513 0.0000e+00
      1.418      0.017     5.9356     96.806     38.969  36.440856     3.8590      7.298   162.7642 1.9046e+01     5.8238      1.389      2.015    21.7597   997.8511 0.0000e+00
      1.428      0.022     5.9375     96.881     38.957  36.429150     3.9434      7.296   162.8774 1.8951e+01     5.8998      1.401      2.033    21.7601   997.8510 0.0000e+00
      1.435      0.025     5.9406     96.960     39.007  36.475152     4.1181      7.295   162.8963 1.8879e+01     6.0068      1.408      2.042    21.7566   997.8518 0.0000e+00
      1.441      0.026     5.9461     97.016     39.023  36.489285     4.2110      7.295   162.9927 1.8771e+01     6.0689      1.411      2.048    21.7510   997.8531 0.0000e+00
      1.448      0.027     5.9509     97.050     39.008  36.473095     4.2080      7.295   163.2685 1.8662e+01     6.0617      1.420      2.060    21.7495   997.8535 0.0000e+00
      1.455      0.029     5.9546     97.074     39.009  36.469805     4.2044      7.295   163.4770 1.8581e+01     5.9853      1.427      2.069    21.7502   997.8533 0.0000e+00
      1.460      0.034     5.9612     97.089     38.995  36.449501     4.2103      7.295   163.5356 1.8457e+01     5.8984      1.431      2.076    21.7492   997.8536 0.0000e+00
      1.466      0.040     5.9640     97.078     38.970  36.418016     4.2189      7.294   163.5465 1.8293e+01     5.8630      1.437      2.084    21.7484   997.8538 0.0000e+00
      1.476      0.045     5.9660     97.010     38.965  36.406463     4.2215      7.292   163.6084 1.8081e+01     5.8525      1.446      2.096    21.7475   997.8541 0.0000e+00
      1.491      0.050     5.9682     96.885     39.005  36.436747     4.2251      7.292   163.6816 1.7801e+01     5.8369      1.461      2.119    21.7421   997.8553 0.0000e+00
      1.508      0.052     5.9703     96.710     39.044  36.466804     4.2450      7.291   163.6583 1.7526e+01     5.8058      1.479      2.145    21.7318   997.8577 0.0000e+00
      1.524      0.052     5.9723     96.490     39.032  36.452512     4.2617      7.290   163.6706 1.7296e+01     5.8044      1.495      2.168    21.7210   997.8601 0.0000e+00
      1.539      0.049     5.9687     96.200     39.035  36.454358     4.2709      7.290   163.7439 1.7107e+01     5.8519      1.510      2.190    21.7112   997.8624 0.0000e+00
      1.551      0.046     5.9624     95.835     39.073  36.489122     4.2703      7.288   163.7699 1.6978e+01     5.8566      1.522      2.208    21.7013   997.8648 0.0000e+00
      1.558      0.045     5.9517     95.460     39.077  36.492010     4.2198      7.286   163.8139 1.6874e+01     5.8285      1.528      2.216    21.6932   997.8666 0.0000e+00
      1.566      0.046     5.9396     95.135     39.076  36.489268     4.1370      7.285   164.0169 1.6724e+01     5.8069      1.534      2.223    21.6890   997.8676 0.0000e+00
      1.577      0.049     5.9229     94.876     39.111  36.519435     4.0934      7.284   164.3313 1.6514e+01     5.7923      1.546      2.242    21.6887   997.8677 0.0000e+00
      1.591      0.053     5.8975     94.619     39.135  36.539395     4.0993      7.281   164.6040 1.6264e+01     5.8156      1.560      2.263    21.6894   997.8676 0.0000e+00
      1.607      0.057     5.8740     94.284     39.137  36.540178     4.1649      7.277   164.8194 1.5999e+01     5.8261      1.575      2.285    21.6879   997.8680 0.0000e+00
      1.624      0.058     5.8531     93.892     39.127  36.528898     4.2704      7.274   164.9568 1.5745e+01     5.8213      1.593      2.311    21.6846   997.8688 0.0000e+00
      1.640      0.057     5.8394     93.477     39.130  36.529953     4.3262      7.271   164.9751 1.5521e+01     5.8562      1.609      2.333    21.6806   997.8698 0.0000e+00
      1.654      0.054     5.8269     92.942     39.156  36.552929     4.3459      7.266   164.9546 1.5323e+01     5.8867      1.622      2.352    21.6778   997.8704 0.0000e+00
      1.667      0.048     5.8049     92.150     39.157  36.552811     4.4223      7.262   164.9668 1.5103e+01     5.8953      1.634      2.371    21.6769   997.8707 0.0000e+00
      1.680      0.041     5.7796     91.135     39.131  36.528525     4.5293      7.260   165.0364 1.4858e+01     5.8949      1.648      2.389    21.6750   997.8712 0.0000e+00
      1.692      0.036     5.7563     90.036     39.113  36.513178     4.5739      7.259   165.1942 1.4702e+01     5.8492      1.662      2.409    21.6727   997.8718 0.0000e+00
      1.698      0.031     5.7291     88.984     39.093  36.494199     4.5799      7.257   165.3257 1.4663e+01     5.8018      1.667      2.418    21.6702   997.8724 0.0000e+00
      1.703      0.026     5.6785     88.081     39.089  36.489469     4.5588      7.256   165.4221 1.4607e+01     5.8137      1.668      2.419    21.6685   997.8728 0.0000e+00
      1.708      0.022     5.6120     87.370     39.122  36.519454     4.5012      7.256   165.5852 1.4494e+01     5.8288      1.675      2.429    21.6696   997.8726 0.0000e+00
      1.715      0.018     5.5421     86.875     39.145  36.539388     4.4638      7.254   165.6629 1.4395e+01     5.8202      1.682      2.440    21.6715   997.8722 0.0000e+00
      1.720      0.016     5.4742     86.574     39.146  36.540065     4.4702      7.251   165.6727 1.4326e+01     5.8415      1.687      2.447    21.6717   997.8722 0.0000e+00
      1.724      0.014     5.4188     86.367     39.131  36.527640     4.6486      7.250   165.7897 1.4280e+01     5.9876      1.691      2.454    21.6700   997.8726 0.0000e+00
      1.726      0.012     5.3743     86.181     39.116  36.516105     4.9726      7.250   165.8732 1.4266e+01     6.2110      1.693      2.456    21.6677   997.8731 0.0000e+00
      1.726      0.012     5.3438     86.033     39.126  36.527542     5.1455      7.249   165.8227 1.4259e+01     6.3130      1.693      2.455    21.6668   997.8733 0.0000e+00
      1.728      0.013     5.3283     85.959     39.136  36.538988     5.1522      7.248   165.8672 1.4209e+01     6.3039      1.693      2.457    21.6670   997.8733 0.0000e+00
      1.732      0.017     5.3178     85.989     39.124  36.527551     5.0533      7.248   166.1528 1.4116e+01     6.2311      1.699      2.464    21.6679   997.8730 0.0000e+00
      1.737      0.023     5.3046     86.160     39.113  36.516210     4.8688      7.247   166.4371 1.4011e+01     6.1218      1.703      2.471    21.6709   997.8724 0.0000e+00
      1.742      0.028     5.2944     86.472     39.129  36.528800     4.7598      7.246   166.5510 1.3894e+01     6.0964      1.708      2.477    21.6746   997.8716 0.0000e+00
      1.750      0.031     5.2895     86.857     39.157  36.552828     4.7410      7.245   166.5833 1.3732e+01     6.1206      1.715      2.488    21.6774   997.8710 0.0000e+00
      1.762      0.032     5.2897     87.189     39.157  36.552837     4.7372      7.244   166.6562 1.3551e+01     6.0867      1.727      2.506    21.6771   997.8711 0.0000e+00
      1.773      0.032     5.3006     87.347     39.132  36.528916     4.6881      7.242   166.7439 1.3412e+01     6.0466      1.740      2.524    21.6749   997.8717 0.0000e+00
      1.782      0.030     5.3213     87.281     39.120  36.517481     4.5893      7.239   166.7829 1.3314e+01     6.0948      1.749      2.535    21.6726   997.8723 0.0000e+00
      1.789      0.025     5.3483     87.026     39.147  36.541525     4.5311      7.237   166.8698 1.3231e+01     6.1451      1.754      2.544    21.6698   997.8729 0.0000e+00
      1.794      0.019     5.3720     86.656     39.174  36.565741     4.5221      7.236   166.9341 1.3149e+01     6.0981      1.759      2.552    21.6687   997.8732 0.0000e+00
      1.798      0.013     5.3828     86.228     39.164  36.556386     4.5590      7.235   166.9579 1.3088e+01     5.9196      1.763      2.557    21.6690   997.8731 0.0000e+00
      1.801      0.009     5.3779     85.811     39.163  36.555346     4.6375      7.234   167.0720 1.3057e+01     5.7236      1.767      2.563    21.6685   997.8732 0.0000e+00
      1.802      0.008     5.3601     85.465     39.159  36.553171     4.6828      7.233   167.1951 1.3053e+01     5.6944      1.768      2.565    21.6675   997.8735 0.0000e+00
      1.801      0.009     5.3368     85.214     39.134  36.530093     4.6832      7.231   167.2419 1.3069e+01     5.6975      1.766      2.562    21.6662   997.8738 0.0000e+00
      1.800      0.013     5.3087     85.094     39.135  36.530199     4.6162      7.231   167.3792 1.3058e+01     5.6309      1.764      2.559    21.6652   997.8740 0.0000e+00
      1.803      0.018     5.2812     85.115     39.162  36.554453     4.5057      7.230   167.7372 1.2975e+01     5.6104      1.767      2.562    21.6660   997.8738 0.0000e+00
      1.810      0.028     5.2603     85.225     39.180  36.569448     4.4560      7.227   168.0431 1.2859e+01     5.6458      1.776      2.575    21.6675   997.8735 0.0000e+00
      1.818      0.041     5.2433     85.348     39.197  36.584565     4.4487      7.223   168.1518 1.2736e+01     5.6653      1.783      2.586    21.6679   997.8735 0.0000e+00
      1.827      0.052     5.2355     85.424     39.227  36.610281     4.4174      7.215   168.2780 1.2544e+01     5.7477      1.789      2.594    21.6669   997.8737 0.0000e+00
      1.842      0.060     5.2386     85.441     39.247  36.626482     4.3644      7.204   168.3642 1.2254e+01     5.9217      1.804      2.616    21.6650   997.8742 0.0000e+00
      1.863      0.063     5.2471     85.377     39.280  36.653505     4.3360      7.193   168.4195 1.1934e+01     6.0322      1.826      2.648    21.6635   997.8748 0.0000e+00
      1.885      0.062     5.2566     85.100     39.317  36.683111     4.3429      7.182   168.6022 1.1666e+01     6.0678      1.850      2.683    21.6621   997.8751 0.0000e+00
      1.905      0.057     5.2613     84.357     39.303  36.667071     4.3876      7.174   168.6804 1.1480e+01     5.9910      1.871      2.713    21.6599   997.8757 0.0000e+00
      1.918      0.049     5.2629     83.014     39.286  36.649982     4.4688      7.172   168.6767 1.1361e+01     5.7915      1.883      2.731    21.6553   997.8768 0.0000e+00
      1.928      0.040     5.2613     81.149     39.303  36.666916     4.5179      7.174   168.8155 1.1308e+01     5.6556      1.891      2.744    21.6511   997.8778 0.0000e+00
      1.933      0.034     5.2524     78.934     39.319  36.681398     4.5229      7.178   168.9820 1.1279e+01     5.6589      1.896      2.750    21.6459   997.8789 0.0000e+00
      1.937      0.032     5.2110     76.660     39.339  36.698142     4.5376      7.181   169.0548 1.1196e+01     5.6995      1.897      2.753    21.6398   997.8803 0.0000e+00
      1.944      0.034     5.1243     74.664     39.395  36.742411     4.6864      7.183   169.0934 1.1075e+01     5.6887      1.906      2.764    21.6399   997.8803 0.0000e+00
      1.953      0.037     5.0073     73.151     39.441  36.772325     4.9436      7.183   169.1912 1.0952e+01     5.6595      1.915      2.778    21.6423   997.8798 0.0000e+00
      1.965      0.041     4.8637     72.109     39.424  36.742444     5.0729      7.182   169.3762 1.0795e+01     5.6406      1.926      2.794    21.6425   997.8799 0.0000e+00
      1.979      0.043     4.7153     71.251     39.384  36.698463     5.0709      7.181   169.6096 1.0617e+01     5.6237      1.942      2.817    21.6408   997.8803 0.0000e+00
      1.991      0.044     4.5889     70.176     39.367  36.684866     4.9109      7.179   169.6897 1.0473e+01     5.6198      1.953      2.833    21.6326   997.8822 0.0000e+00
      2.001      0.045     4.4965     68.685     39.383  36.704993     4.6024      7.176   169.7428 1.0342e+01     5.6254      1.961      2.845    21.6121   997.8869 0.0000e+00
      2.011      0.047     4.4418     67.020     39.431  36.751402     4.4274      7.171   169.9938 1.0195e+01     5.6261      1.971      2.860    21.5896   997.8918 0.0000e+00
      2.022      0.052     4.3994     65.643     39.488  36.801684     4.4253      7.166   170.1428 1.0042e+01     5.6282      1.982      2.875    21.5816   997.8937 0.0000e+00
      2.033      0.059     4.3392     64.744     39.571  36.868634     4.6719      7.161   170.1675 9.8635e+00     5.6838      1.992      2.890    21.5872   997.8925 0.0000e+00
      2.048      0.068     4.2405     64.239     39.656  36.926144     5.1289      7.155   170.2935 9.6285e+00     5.8066      2.006      2.910    21.5963   997.8905 0.0000e+00
      2.068      0.079     4.1225     63.835     39.687  36.925736     5.3735      7.148   170.4618 9.3605e+00     5.8677      2.027      2.940    21.5992   997.8900 0.0000e+00
      2.090      0.089     4.0357     62.988     39.720  36.927121     5.4095      7.140   170.7396 9.1121e+00     5.8330      2.051      2.974    21.5957   997.8908 0.0000e+00
      2.114      0.097     3.9836     61.216     39.764  36.942846     5.6855      7.132   171.1576 8.8541e+00     5.6491      2.071      3.005    21.5864   997.8930 0.0000e+00
      2.141      0.100     3.9590     58.447     39.769  36.925420     6.2053      7.127   171.4716 8.5330e+00     5.3486      2.097      3.042    21.5571   997.8998 0.0000e+00
      2.171      0.097     3.9514     54.917     39.767  36.906809     6.4927      7.124   171.6103 8.2038e+00     5.2143      2.129      3.088    21.5145   997.9093 0.0000e+00
      2.201      0.092     3.9153     50.905     39.779  36.908214     6.5070      7.124   171.7168 7.9454e+00     5.1726      2.160      3.133    21.4780   997.9176 0.0000e+00
      2.225      0.083     3.8077     46.649     39.823  36.942394     6.3958      7.124   171.8119 7.7727e+00     4.9431      2.186      3.169    21.4462   997.9247 0.0000e+00
      2.242      0.073     3.6323     42.496     39.894  37.002709     6.1978      7.124   171.8140 7.6555e+00     4.6016      2.201      3.192    21.4173   997.9312 0.0000e+00
      2.255      0.064     3.4087     38.953     39.899  37.002725     6.0976      7.122   171.8280 7.5520e+00     4.4519      2.212      3.208    21.3949   997.9362 0.0000e+00
      2.268      0.058     3.1570     36.339     39.839  36.942580     6.1036      7.116   171.9815 7.4545e+00     4.4764      2.225      3.227    21.3844   997.9386 0.0000e+00
      2.282      0.053     2.8879     34.643     39.807  36.910239     6.0970      7.108   172.1211 7.3611e+00     4.4389      2.238      3.246    21.3790   997.9398 0.0000e+00
      2.297      0.049     2.6168     33.694     39.825  36.929056     5.9652      7.104   172.2250 7.2348e+00     4.3596      2.252      3.266    21.3700   997.9420 0.0000e+00
      2.312      0.047     2.3903     33.259     39.874  36.979676     5.7411      7.104   172.3779 7.0990e+00     4.3364      2.268      3.289    21.3637   997.9434 0.0000e+00
      2.324      0.046     2.2306     33.153     39.909  37.014491     5.6336      7.106   172.5076 7.0316e+00     4.3220      2.281      3.309    21.3600   997.9443 0.0000e+00
      2.332      0.048     2.1295     33.367     39.938  37.032640     5.6537      7.109   172.5878 6.9899e+00     4.3169      2.286      3.317    21.3534   997.9457 0.0000e+00
      2.339      0.053     2.0759     33.913     40.001  37.072160     5.8021      7.110   172.6598 6.8913e+00     4.2747      2.292      3.324    21.3554   997.9453 0.0000e+00
      2.351      0.059     2.0542     34.640     40.071  37.111438     6.0577      7.105   172.8617 6.7486e+00     4.1401      2.303      3.341    21.3689   997.9425 0.0000e+00
      2.367      0.065     2.0460     35.214     40.116  37.126659     6.2047      7.098   173.1358 6.5796e+00     4.0328      2.319      3.364    21.3743   997.9413 0.0000e+00
      2.389      0.067     2.0582     35.191     40.141  37.129209     6.2172      7.093   173.3073 6.3740e+00     3.9931      2.340      3.394    21.3622   997.9440 0.0000e+00
      2.414      0.065     2.0969     34.261     40.165  37.142250     6.0619      7.093   173.3861 6.1679e+00     3.8895      2.369      3.435    21.3360   997.9500 0.0000e+00
      2.436      0.062     2.1499     32.378     40.182  37.157379     5.7584      7.093   173.4002 6.0493e+00     3.6648      2.394      3.471    21.3011   997.9578 0.0000e+00
      2.447      0.058     2.1988     29.736     40.216  37.185183     5.5812      7.094   173.3916 6.0241e+00     3.5378      2.403      3.485    21.2671   997.9653 0.0000e+00
      2.451      0.057     2.2060     26.772     40.270  37.224521     5.5497      7.094   173.4546 5.9742e+00     3.5659      2.402      3.484    21.2379   997.9717 0.0000e+00
      2.460      0.058     2.1485     23.942     40.316  37.252150     5.3505      7.091   173.6457 5.8452e+00     3.6445      2.408      3.494    21.2269   997.9741 0.0000e+00
      2.477      0.060     2.0285     21.390     40.348  37.265318     4.9678      7.084   173.8091 5.6917e+00     3.7344      2.429      3.522    21.2345   997.9726 0.0000e+00
      2.498      0.064     1.8535     18.967     40.354  37.256768     4.7553      7.076   173.8814 5.5420e+00     3.7364      2.450      3.554    21.2307   997.9736 0.0000e+00
      2.520      0.066     1.6579     16.492     40.387  37.275688     4.7310      7.070   174.0043 5.3887e+00     3.7337      2.471      3.584    21.2142   997.9773 0.0000e+00
      2.540      0.066     1.4797     13.954     40.497  37.367113     4.7438      7.067   174.1759 5.2517e+00     3.7020      2.492      3.615    21.1957   997.9814 0.0000e+00
      2.554      0.065     1.3270     11.475     40.693  37.536999     4.7802      7.065   174.2361 5.1733e+00     3.5170      2.507      3.637    21.1751   997.9861 0.0000e+00
      2.564      0.062     1.1816      9.170     40.861  37.679381     4.8072      7.062   174.2161 5.1137e+00     3.3649      2.513      3.644    21.1560   997.9902 0.0000e+00
      2.577      0.060     1.0282      7.140     40.957  37.755623     4.8106      7.060   174.2777 4.9923e+00     3.3378      2.524      3.661    21.1422   997.9933 0.0000e+00
      2.597      0.059     0.8663      5.478     41.112  37.887537     4.7861      7.058   174.2932 4.8381e+00     3.3524      2.547      3.694    21.1307   997.9959 0.0000e+00
      2.616      0.060     0.7102      4.203     41.254  38.004786     4.6671      7.056   174.3176 4.7158e+00     3.3774      2.568      3.724    21.1191   997.9986 0.0000e+00
      2.631      0.065     0.5654      3.333     41.234  37.967188     4.4640      7.052   174.5721 4.6244e+00     3.3782      2.580      3.742    21.1019   998.0024 0.0000e+00
      2.643      0.073     0.4355      2.835     41.165  37.877257     4.3496      7.046   174.9606 4.5393e+00     3.3622      2.592      3.759    21.0839   998.0064 0.0000e+00
      2.654      0.082     0.3336      2.601     41.265  37.933028     4.3329      7.041   175.3166 4.4348e+00     3.3482      2.602      3.773    21.0759   998.0083 0.0000e+00
      2.673      0.092     0.2524      2.514     41.529  38.133640     4.2714      7.035   175.6056 4.2716e+00     3.3392      2.614      3.793    21.0606   998.0117 0.0000e+00
      2.705      0.100     0.1992      2.461     41.929  38.461940     4.1608      7.030   175.8738 4.0586e+00     3.3520      2.650      3.844    21.0360   998.0172 0.0000e+00
      2.741      0.103     0.1715      2.382     42.395  38.855441     4.0965      7.025   176.0652 3.8732e+00     3.3391      2.692      3.904    21.0061   998.0238 0.0000e+00
      2.773      0.099     0.1587      2.259     42.885  39.273065     4.0759      7.023   176.2851 3.7424e+00     3.3140      2.721      3.946    20.9606   998.0339 0.0000e+00
      2.799      0.090     0.1571      2.097     43.454  39.765973     3.9104      7.022   176.5529 3.6397e+00     3.2780      2.746      3.983    20.9044   998.0462 0.0000e+00
      2.819      0.077     0.1545      1.946     43.864  40.117425     3.6040      7.019   176.6361 3.5723e+00     3.1992      2.767      4.014    20.8582   998.0564 0.0000e+00
      2.832      0.065     0.1501      1.842     44.070  40.284790     3.4409      7.017   176.5161 3.5366e+00     3.1479      2.777      4.029    20.8211   998.0646 0.0000e+00
      2.843      0.059     0.1427      1.757     44.346  40.519846     3.4298      7.015   176.3935 3.4936e+00     3.1159      2.787      4.041    20.7829   998.0730 0.0000e+00
      2.856      0.059     0.1312      1.677     44.950  41.054886     3.4521      7.012   176.4431 3.4430e+00     3.0426      2.802      4.063    20.7510   998.0802 0.0000e+00
      2.870      0.065     0.1204      1.621     45.793  41.801906     3.5022      7.007   176.5146 3.3954e+00     2.9494      2.814      4.082    20.7224   998.0865 0.0000e+00
      2.884      0.074     0.1154      1.598     46.389  42.314318     3.5335      6.998   176.5696 3.3301e+00     2.9070      2.826      4.099    20.6982   998.0917 0.0000e+00
      2.904      0.080     0.1106      1.623     46.685  42.552163     3.5530      6.989   176.6785 3.2411e+00     2.9233      2.845      4.125    20.6813   998.0954 0.0000e+00
      2.930      0.082     0.1043      1.676     46.958  42.772879     3.6685      6.982   176.7129 3.1432e+00     2.9488      2.873      4.166    20.6654   998.0991 0.0000e+00
      2.958      0.081     0.1016      1.730     47.324  43.078176     3.8545      6.978   176.7265 3.0511e+00     2.9210      2.903      4.211    20.6421   998.1046 0.0000e+00
      2.982      0.078     0.0989      1.782     47.835  43.513239     3.9473      6.974   176.4986 2.9714e+00     2.8496      2.927      4.245    20.6036   998.1131 0.0000e+00
      2.999      0.073     0.1013      1.824     48.445  44.033013     3.9573      6.969   175.6786 2.9162e+00     2.8393      2.943      4.268    20.5653   998.1214 0.0000e+00
      3.011      0.068     0.1061      1.863     49.114  44.600493     3.9663      6.963   174.6413 2.8792e+00     2.8948      2.952      4.282    20.5396   998.1270 0.0000e+00
      3.024      0.066     0.1084      1.901     49.651  45.040753     4.0572      6.955   173.7652 2.8427e+00     2.8981      2.964      4.299    20.5116   998.1330 0.0000e+00
      3.039      0.067     0.1130      1.923     49.915  45.228675     4.2246      6.946   172.7431 2.7947e+00     2.8462      2.980      4.323    20.4797   998.1400 0.0000e+00
      3.058      0.070     0.1149      1.936     50.238  45.475588     4.3085      6.939   170.8015 2.7205e+00     2.8238      2.998      4.349    20.4435   998.1480 0.0000e+00
      3.079      0.074     0.1174      1.946     51.066  46.184567     4.3515      6.933   167.9276 2.6378e+00     2.8574      3.019      4.378    20.4027   998.1568 0.0000e+00
      3.100      0.078     0.1207      1.937     52.245  47.196477     4.8047      6.925   164.3224 2.5759e+00     3.0224      3.042      4.412    20.3546   998.1673 0.0000e+00
      3.120      0.080     0.1219      1.921     53.160  47.930699     5.6185      6.916   159.3041 2.5242e+00     3.2469      3.061      4.439    20.2971   998.1795 0.0000e+00
      3.140      0.081     0.1222      1.920     53.901  48.457184     6.0581      6.907   153.3691 2.4605e+00     3.3426      3.077      4.464    20.2514   998.1891 0.0000e+00
      3.160      0.081     0.1239      1.908     54.694  48.989249     6.1239      6.897   147.8857 2.3974e+00     3.3598      3.099      4.494    20.2202   998.1960 0.0000e+00
      3.181      0.080     0.1235      1.907     55.220  49.282710     6.3794      6.889   142.9082 2.3431e+00     3.3897      3.119      4.524    20.1775   998.2056 0.0000e+00
      3.203      0.077     0.1205      1.937     55.510  49.401175     6.8408      6.884   137.7544 2.2806e+00     3.4083      3.140      4.555    20.0946   998.2231 0.0000e+00
      3.225      0.072     0.1233      1.944     55.910  49.659241     7.0988      6.880   132.8938 2.2251e+00     3.3885      3.164      4.589    19.9616   998.2509 0.0000e+00
      3.244      0.067     0.1218      1.939     56.275  49.925776     7.1568      6.879   129.1377 2.1964e+00     3.3472      3.184      4.618    19.7809   998.2883 0.0000e+00
      3.258      0.062     0.1203      1.957     55.969  49.638561     7.5607      6.878   126.1530 2.1753e+00     3.2696      3.197      4.635    19.6028   998.3247 0.0000e+00
      3.268      0.059     0.1262      1.976     55.201  48.981102     8.2887      6.875   123.5645 2.1403e+00     3.1707      3.204      4.647    19.4785   998.3498 0.0000e+00
      3.281      0.059     0.1256      1.985     55.489  49.280546     8.6851      6.871   121.4148 2.0929e+00     3.1352      3.217      4.665    19.3958   998.3666 0.0000e+00
      3.297      0.061     0.1235      1.979     57.484  51.036035     8.7552      6.867   119.6055 2.0477e+00     3.1344      3.233      4.688    19.3404   998.3779 0.0000e+00
      3.313      0.065     0.1268      1.952     59.858  52.993405     9.0151      6.862   118.1226 2.0167e+00     3.1618      3.249      4.712    19.3285   998.3803 0.0000e+00
      3.331      0.068     0.1274      1.926     61.346  54.081125     9.4698      6.855   117.2506 1.9916e+00     3.2371      3.267      4.738    19.3504   998.3755 0.0000e+00
      3.350      0.068     0.1280      1.905     61.936  54.404381     9.7099      6.846   116.5480 1.9461e+00     3.2914      3.286      4.766    19.4130   998.3630 0.0000e+00
      3.369      0.066     0.1283      1.885     62.242  54.551076     9.6726      6.837   115.1349 1.8796e+00     3.3260      3.303      4.791    19.4451   998.3576 0.0000e+00
      3.388      0.062     0.1254      1.870     62.562  54.774629     9.0276      6.831   113.4149 1.8150e+00     3.5246      3.322      4.818    19.2921   998.3892 0.0000e+00
      3.404      0.057     0.1249      1.857     62.770  54.947240     7.8409      6.825   112.0981 1.7742e+00     3.8576      3.341      4.845    19.0568   998.4362 0.0000e+00
      3.416      0.050     0.1239      1.848     62.956  55.113365     7.1938      6.819   111.0020 1.7563e+00     4.0095      3.351      4.859    18.8930   998.4684 0.0000e+00
      3.427      0.043     0.1225      1.837     63.284  55.385548     7.1238      6.814   109.8836 1.7338e+00     3.9853      3.360      4.873    18.8002   998.4865 0.0000e+00
      3.438      0.038     0.1221      1.805     63.954  55.951001     7.0913      6.811   108.7285 1.7067e+00     3.9912      3.374      4.893    18.7571   998.4951 0.0000e+00
      3.447      0.036     0.1208      1.761     65.320  57.121585     6.8519      6.808   107.8760 1.6942e+00     4.4075      3.381      4.904    18.7591   998.4948 0.0000e+00
      3.453      0.036     0.1205      1.731     67.106  58.610524     6.4061      6.803   107.4920 1.6844e+00     5.1840      3.385      4.909    18.7782   998.4912 0.0000e+00
      3.459      0.036     0.1204      1.707     68.531  59.720547     6.1575      6.798   106.9251 1.6618e+00     5.5801      3.392      4.920    18.7568   998.4953 0.0000e+00
      3.468      0.036     0.1184      1.686     70.041  60.884064     6.1093      6.793   105.8401 1.6263e+00     5.5926      3.400      4.931    18.7332   998.5001 0.0000e+00
      3.480      0.038     0.1139      1.677     72.429  62.828093     5.9612      6.788   104.6122 1.5905e+00     5.4992      3.412      4.949    18.7355   998.5002 0.0000e+00
      3.492      0.042     0.1132      1.669     75.054  64.985471     5.7200      6.783   103.4352 1.5709e+00     5.3024      3.427      4.971    18.6895   998.5099 0.0000e+00
      3.500      0.044     0.1120      1.662     77.680  67.138333     5.5945      6.779   102.1927 1.5583e+00     5.2122      3.433      4.979    18.5695   998.5334 0.0000e+00
      3.509      0.044     0.1098      1.663     80.662  69.597209     5.5790      6.774   100.8605 1.5343e+00     5.2273      3.438      4.986    18.4494   998.5565 0.0000e+00
      3.522      0.044     0.1106      1.665     83.223  71.701601     5.5407      6.769    99.7169 1.5059e+00     5.3539      3.455      5.011    18.3678   998.5731 0.0000e+00
      3.537      0.043     0.1096      1.651     84.242  72.491145     5.4784      6.764    98.9481 1.4888e+00     5.6292      3.470      5.033    18.2910   998.5885 0.0000e+00
      3.549      0.041     0.1094      1.632     83.474  71.767709     5.4500      6.759    98.1902 1.4766e+00     5.8028      3.481      5.048    18.2099   998.6045 0.0000e+00
      3.559      0.037     0.1095      1.613     82.425  70.838911     5.4575      6.754    97.2641 1.4625e+00     5.8146      3.492      5.064    18.1355   998.6197 0.0000e+00
      3.569      0.032     0.1110      1.594     82.682  71.052986     5.4917      6.749    96.4406 1.4455e+00     5.8047      3.501      5.077    18.0704   998.6329 0.0000e+00
      3.575      0.028     0.1091      1.587     83.812  72.003587     5.5516      6.745    95.7187 1.4313e+00     5.8150      3.507      5.085    18.0169   998.6433 0.0000e+00
      3.580      0.027     0.1080      1.581     84.998  72.985776     5.5829      6.742    94.9883 1.4241e+00     5.8407      3.510      5.092    17.9743   998.6507 0.0000e+00
      3.585      0.028     0.1073      1.559     86.396  74.153593     5.5759      6.738    94.3212 1.4211e+00     5.8854      3.516      5.100    17.9612   998.6523 0.0000e+00
      3.590      0.030     0.1049      1.525     88.449  75.885435     5.5270      6.732    93.5893 1.4127e+00     6.3231      3.520      5.105    17.9691   998.6512 0.0000e+00
      3.598      0.034     0.1053      1.498     90.343  77.453987     5.4425      6.726    92.5919 1.3898e+00     7.1667      3.526      5.115    17.9563   998.6541 0.0000e+00
      3.608      0.037     0.1053      1.479     90.826  77.791485     5.3950      6.720    91.8120 1.3657e+00     7.6628      3.539      5.131    17.9274   998.6599 0.0000e+00
      3.620      0.039     0.1041      1.468     90.239  77.231304     5.3785      6.714    91.4730 1.3500e+00     7.7989      3.550      5.149    17.9071   998.6640 0.0000e+00
      3.633      0.040     0.1006      1.456     89.593  76.659394     5.1915      6.708    90.6443 1.3395e+00     8.5503      3.562      5.167    17.9019   998.6659 0.0000e+00
      3.644      0.041     0.0995      1.429     90.545  77.491000     4.8415      6.700    89.4493 1.3246e+00     9.8661      3.575      5.186    17.8696   998.6728 0.0000e+00
      3.651      0.043     0.0981      1.397     94.925  81.243542     4.6490      6.689    88.7264 1.3025e+00    10.5340      3.582      5.195    17.8129   998.6832 0.0000e+00
      3.658      0.046     0.0976      1.380    101.294  86.598529     4.6234      6.675    88.0114 1.2849e+00    10.5950      3.586      5.200    17.7813   998.6887 0.0000e+00
      3.669      0.049     0.0976      1.377    105.379  89.876376     4.5924      6.660    87.4295 1.2759e+00    10.8988      3.597      5.218    17.7687   998.6906 0.0000e+00
      3.684      0.051     0.0950      1.390    105.613  89.823838     4.3445      6.648    87.0265 1.2643e+00    14.0105      3.612      5.239    17.7860   998.6874 0.0000e+00
      3.702      0.053     0.0924      1.416    105.253  89.336143     3.8975      6.637    85.5467 1.2278e+00    19.6734      3.630      5.264    17.8112   998.6846 0.0000e+00
      3.719      0.055     0.0914      1.430    106.994  90.725338     3.6610      6.625    83.6475 1.1868e+00    22.7386      3.650      5.294    17.7707   998.6951 0.0000e+00
      3.731      0.058     0.0917      1.440    109.419  92.682503     3.6449      6.614    82.5629 1.1767e+00    23.0509      3.661      5.309    17.6488   998.7190 0.0000e+00
      3.741      0.063     0.0920      1.457    110.577  93.460762     3.6503      6.605    81.5524 1.1610e+00    23.5150      3.666      5.318    17.5031   998.7447 0.0000e+00
      3.753      0.072     0.0958      1.458    109.800  92.497032     3.6648      6.595    79.9483 1.1104e+00    24.2857      3.678      5.334    17.4115   998.7606 0.0000e+00
      3.770      0.082     0.0962      1.471    107.687  90.322292     3.6738      6.584    77.7079 1.0543e+00    24.7016      3.696      5.360    17.3964   998.7643 0.0000e+00
      3.795      0.091     0.0956      1.512    106.466  88.868783     3.6800      6.574    75.1131 9.9375e-01    24.6761      3.720      5.395    17.3710   998.7701 0.0000e+00
      3.826      0.096     0.0993      1.551    106.571  88.605568     3.7831      6.565    72.3225 9.0911e-01    23.8793      3.751      5.440    17.2719   998.7883 0.0000e+00
      3.857      0.096     0.0979      1.581    106.070  87.966705     3.9846      6.560    69.1763 8.1866e-01    22.4417      3.784      5.487    17.1309   998.8130 0.0000e+00
      3.884      0.093     0.0981      1.607    105.128  86.998451     4.1046      6.556    65.9819 7.5602e-01    21.6807      3.811      5.527    16.9394   998.8452 0.0000e+00
      3.904      0.088     0.1035      1.639    105.048  86.697978     4.1341      6.551    62.9527 7.1812e-01    21.4946      3.830      5.555    16.7171   998.8829 0.0000e+00
      3.919      0.083     0.1061      1.676    105.187  86.560681     4.2277      6.546    59.9106 6.6371e-01    19.9293      3.842      5.573    16.5385   998.9139 0.0000e+00
      3.938      0.078     0.1083      1.710    104.942  86.101656     4.3782      6.543    56.7328 5.9708e-01    17.0433      3.859      5.597    16.4550   998.9277 0.0000e+00
      3.961      0.075     0.1098      1.740    104.742  85.665372     4.4449      6.540    52.5796 5.4846e-01    15.4407      3.885      5.635    16.3920   998.9378 0.0000e+00
      3.983      0.071     0.1123      1.752    104.830  85.484811     4.4532      6.536    46.7762 5.1161e-01    15.1684      3.908      5.669    16.2596   998.9601 0.0000e+00
      4.000      0.066     0.1158      1.742    105.028  85.445292     4.5131      6.534    40.7688 4.6350e-01    13.5865      3.921      5.688    16.1415   998.9797 0.0000e+00
      4.017      0.061     0.1178      1.723    104.966  85.250932     4.5974      6.534    35.6127 4.0833e-01    10.6364      3.939      5.713    16.0276   998.9982 0.0000e+00
      4.033      0.060     0.1210      1.711    103.744  84.152687     4.6312      6.533    30.5522 3.7640e-01     8.9939      3.959      5.741    15.8835   999.0215 0.0000e+00
      4.043      0.065     0.1224      1.695    100.956  81.773356     4.6357      6.530    25.8714 3.6461e-01     8.7693      3.966      5.752    15.7607   999.0413 0.0000e+00
      4.051      0.075     0.1216      1.676     98.393  79.512366     4.6772      6.527    22.6384 3.4778e-01     8.1512      3.970      5.758    15.6626   999.0570 0.0000e+00
      4.067      0.082     0.1194      1.656     97.521  78.571197     4.7513      6.525    19.9420 3.0910e-01     7.0917      3.984      5.778    15.5985   999.0674 0.0000e+00
      4.096      0.083     0.1197      1.620     97.736  78.535584     4.7953      6.521    16.3280 2.5813e-01     6.5441      4.014      5.822    15.5545   999.0742 0.0000e+00
      4.131      0.079     0.1183      1.590     98.254  78.827088     4.8026      6.519    12.4975 2.0820e-01     6.4782      4.054      5.881    15.5101   999.0800 0.0000e+00
      4.161      0.070     0.1167      1.586     98.789  79.233303     4.7957      6.518     9.3334 1.6248e-01     5.9999      4.086      5.927    15.4142   999.0939 0.0000e+00
      4.177      0.057     0.1171      1.574     99.237  79.630603     4.7729      6.516     6.6367 1.3821e-01     5.0867      4.101      5.947    15.2726   999.1158 0.0000e+00
      4.180      0.045     0.1139      1.533     98.692  79.241835     4.7519      6.516     4.4991 1.3695e-01     4.5474      4.101      5.948    15.1589   999.1334 0.0000e+00
      4.179      0.039     0.1107      1.489     96.885  77.776610     4.7409      6.516     3.1910 1.4078e-01     4.4608      4.096      5.940    15.0877   999.1445 0.0000e+00
      4.182      0.042     0.1119      1.455     95.306  76.353125     4.7359      6.516     2.4357 1.3830e-01     4.4656      4.099      5.945    15.0893   999.1444 0.0000e+00
      4.193      0.053     0.1121      1.444     94.337  75.323449     4.6827      6.515     1.4752 1.3328e-01     4.5406      4.109      5.960    15.1154   999.1408 0.0000e+00
      4.211      0.068     0.1072      1.440     93.530  74.421007     4.5825      6.514     0.0965 1.2797e-01     4.6798      4.128      5.987    15.1481   999.1359 0.0000e+00
      4.233      0.084     0.1048      1.427     92.670  73.518019     4.5306      6.514    -1.2434 1.2401e-01     4.7716      4.151      6.022    15.1726   999.1311 0.0000e+00
      4.258      0.096     0.1016      1.427     90.274  71.463938     4.5062      6.515    -2.3357 1.2365e-01     4.7325      4.174      6.054    15.0723   999.1460 0.0000e+00
      4.284      0.103     0.1014      1.431     86.341  68.214904     4.3312      6.515    -3.2152 1.2360e-01     4.4033      4.200      6.092    14.9127   999.1700 0.0000e+00
      4.313      0.103     0.1033      1.445     84.632  66.658928     4.0262      6.514    -3.8747 1.2355e-01     3.8397      4.230      6.135    14.7767   999.1900 0.0000e+00
      4.343      0.097     0.1001      1.474     86.105  67.590882     3.8625      6.514    -4.3735 1.2354e-01     3.5217      4.259      6.177    14.6456   999.2094 0.0000e+00
      4.372      0.087     0.1020      1.493     86.423  67.722257     3.8426      6.516    -4.6867 1.2356e-01     3.5087      4.290      6.222    14.5683   999.2202 0.0000e+00
      4.397      0.077     0.1020      1.497     84.042  65.831537     3.7431      6.519    -4.7359 1.2361e-01     3.3872      4.316      6.261    14.5213   999.2250 0.0000e+00
      4.411      0.067     0.1022      1.492     82.083  64.245804     3.5519      6.522    -4.7112 1.2368e-01     3.0691      4.328      6.278    14.3911   999.2430 0.0000e+00
      4.418      0.059     0.1068      1.483     81.978  64.059521     3.4383      6.525    -4.7317 1.2368e-01     2.9056      4.331      6.283    14.2152   999.2695 0.0000e+00
      4.429      0.055     0.1073      1.469     81.631  63.706296     3.4101      6.527    -4.6388 1.2364e-01     2.9187      4.341      6.297    14.1493   999.2792 0.0000e+00
      4.444      0.059     0.1079      1.444     79.100  61.690824     3.3060      6.528    -4.2770 1.2362e-01     2.8668      4.358      6.320    14.1778   999.2738 0.0000e+00
      4.460      0.070     0.1072      1.419     75.434  58.756720     3.1245      6.528    -3.7126 1.2359e-01     2.7698      4.374      6.344    14.1495   999.2769 0.0000e+00
      4.475      0.085     0.1068      1.405     72.744  56.509545     3.0193      6.529    -3.1494 1.2359e-01     2.7298      4.387      6.365    14.0594   999.2899 0.0000e+00
      4.494      0.095     0.1065      1.403     71.658  55.489291     2.9878      6.529    -2.7158 1.2362e-01     2.7103      4.402      6.386    14.0005   999.2985 0.0000e+00
      4.523      0.099     0.1042      1.403     71.697  55.379421     2.7782      6.528    -2.4274 1.2360e-01     2.5667      4.431      6.426    14.0026   999.2972 0.0000e+00
      4.561      0.095     0.1020      1.393     71.963  55.498659     2.3840      6.528    -2.2441 1.2358e-01     2.3700      4.474      6.488    13.9688   999.3004 0.0000e+00
      4.595      0.085     0.1013      1.371     71.737  55.279021     2.1658      6.530    -2.0480 1.2358e-01     2.3307      4.513      6.544    13.8401   999.3175 0.0000e+00
      4.616      0.071     0.1019      1.356     71.014  54.693253     2.1515      6.532    -1.6908 1.2357e-01     2.3544      4.532      6.573    13.7022   999.3360 0.0000e+00
      4.625      0.057     0.1022      1.356     70.078  53.943456     2.1594      6.533    -1.1946 1.2358e-01     2.2960      4.537      6.581    13.6041   999.3493 0.0000e+00
      4.628      0.048     0.1021      1.352     68.909  53.010987     2.2436      6.535    -0.5229 1.2362e-01     2.2471      4.537      6.580    13.5465   999.3573 0.0000e+00
      4.633      0.051     0.0997      1.346     67.643  51.994985     2.4065      6.536     0.3219 1.2363e-01     2.2547      4.542      6.587    13.5221   999.3604 0.0000e+00
      4.643      0.066     0.0979      1.334     66.578  51.124193     2.4989      6.536     1.0176 1.2361e-01     2.2900      4.553      6.603    13.5060   999.3623 0.0000e+00
      4.658      0.087     0.0996      1.313     65.241  50.041384     2.5028      6.536     1.4365 1.2360e-01     2.3458      4.566      6.622    13.4857   999.3647 0.0000e+00
      4.682      0.107     0.0985      1.295     63.298  48.493872     2.3841      6.537     1.6870 1.2361e-01     2.4043      4.586      6.652    13.4639   999.3673 0.0000e+00
      4.719      0.120     0.0984      1.281     61.625  47.148522     2.1565      6.539     2.0666 1.2364e-01     2.4730      4.625      6.709    13.4340   999.3709 0.0000e+00
      4.764      0.123     0.0979      1.265     60.919  46.540527     2.0309      6.541     3.0155 1.2365e-01     2.5215      4.675      6.780    13.3916   999.3765 0.0000e+00
      4.804      0.115     0.0959      1.253     61.243  46.731251     2.0098      6.542     4.2988 1.2363e-01     2.5324      4.715      6.838    13.3469   999.3822 0.0000e+00
      4.835      0.096     0.0946      1.253     62.355  47.549257     1.9531      6.542     5.6228 1.2364e-01     2.5715      4.745      6.881    13.3049   999.3869 0.0000e+00
      4.856      0.072     0.0942      1.240     63.339  48.301869     1.8566      6.543     7.0653 1.2365e-01     2.6017      4.766      6.912    13.2530   999.3931 0.0000e+00
      4.867      0.049     0.0930      1.218     63.436  48.400409     1.7971      6.545     8.4023 1.2360e-01     2.5363      4.776      6.927    13.1920   999.4009 0.0000e+00
      4.872      0.031     0.0911      1.201     63.022  48.105635     1.7714      6.545     9.4858 1.2357e-01     2.4691      4.778      6.930    13.1413   999.4075 0.0000e+00
      4.872      0.019     0.0932      1.184     62.679  47.849869     1.6761      6.546    10.4430 1.2362e-01     2.5436      4.777      6.929    13.1144   999.4114 0.0000e+00
      4.873      0.010     0.0912      1.165     62.513  47.721373     1.5204      6.547    11.4582 1.2365e-01     2.6829      4.777      6.928    13.1193   999.4112 0.0000e+00
      4.877      0.005     0.0891      1.140     62.733  47.885694     1.4407      6.547    12.5535 1.2362e-01     2.7446      4.783      6.938    13.1481   999.4076 0.0000e+00
      4.881      0.003     0.0884      1.110     63.123  48.185390     1.4404      6.548    13.5342 1.2363e-01     2.7326      4.789      6.946    13.1692   999.4047 0.0000e+00
      4.880      0.004     0.0869      1.082     63.002  48.105935     1.4479      6.551    14.3674 1.2368e-01     2.7995      4.787      6.943    13.1686   999.4046 0.0000e+00
      4.877      0.009     0.0859      1.053     61.771  47.179084     1.4623      6.552    15.1429 1.2368e-01     2.9960      4.782      6.936    13.1664   999.4047 0.0000e+00
      4.875      0.019     0.0839      1.031     59.736  45.615891     1.4754      6.552    15.9411 1.2366e-01     3.1424      4.779      6.931    13.1614   999.4054 0.0000e+00
      4.878      0.033     0.0812      1.024     58.180  44.383248     1.4596      6.552    16.7912 1.2360e-01     3.2588      4.779      6.933    13.1600   999.4059 0.0000e+00
      4.888      0.051     0.0796      1.021     57.461  43.769232     1.2531      6.552    17.5915 1.2350e-01     4.0428      4.789      6.947    13.1737   999.4043 0.0000e+00
      4.905      0.068     0.0774      1.026     57.226  43.525668     0.8778      6.553    18.3045 1.2350e-01     5.4439      4.809      6.975    13.1926   999.4015 0.0000e+00
      4.928      0.081     0.0748      1.036     57.303  43.533681     0.6763      6.555    18.9592 1.2354e-01     6.2391      4.831      7.007    13.1914   999.4007 0.0000e+00
      4.955      0.088     0.0757      1.061     57.444  43.612064     0.6548      6.556    19.6566 1.2350e-01     6.3487      4.858      7.046    13.1457   999.4063 0.0000e+00
      4.984      0.089     0.0747      1.187     57.422  43.584410     0.6430      6.557    20.4553 1.2348e-01     6.3764      4.890      7.093    13.0814   999.4145 0.0000e+00
      5.008      0.085     0.0754      1.511     57.263  43.453292     0.6034      6.559    21.2172 1.2349e-01     6.8361      4.914      7.127    13.0227   999.4219 0.0000e+00
      5.026      0.079     0.0769      2.114     57.171  43.360138     0.5393      6.560    21.8996 1.2357e-01     7.7448      4.927      7.147    12.9746   999.4281 0.0000e+00
      5.043      0.073     0.0755      3.050     57.193  43.347011     0.5186      6.560    22.5973 1.2370e-01     8.2848      4.945      7.173    12.9498   999.4314 0.0000e+00
      5.060      0.068     0.0824      4.298     57.243  43.358037     0.5361      6.560    23.3721 1.2370e-01     8.4498      4.964      7.198    12.9491   999.4316 0.0000e+00
      5.075      0.065     0.1046      5.811     57.280  43.366431     0.5334      6.560    24.2984 1.2366e-01     9.0843      4.976      7.217    12.9450   999.4321 0.0000e+00
      5.092      0.065     0.1465      7.511     57.320  43.384980     0.4944      6.560    25.4510 1.2367e-01    10.1563      4.993      7.242    12.9194   999.4354 0.0000e+00
      5.109      0.065     0.2175      9.234     57.342  43.391808     0.4550      6.560    26.8119 1.2367e-01    10.7271      5.013      7.270    12.8904   999.4391 0.0000e+00
      5.124      0.065     0.3112     10.815     57.347  43.385484     0.4467      6.559    28.1053 1.2367e-01    10.8407      5.025      7.289    12.8660   999.4422 0.0000e+00
      5.140      0.063     0.4239     12.153     57.341  43.372009     0.4464      6.558    29.2155 1.2367e-01    11.1045      5.038      7.308    12.8487   999.4445 0.0000e+00
      5.159      0.059     0.5555     13.225     57.326  43.355858     0.4255      6.557    30.4273 1.2362e-01    11.4905      5.061      7.339    12.8414   999.4455 0.0000e+00
      5.177      0.052     0.6871     14.030     57.361  43.380678     0.4019      6.557    31.7442 1.2362e-01    11.7069      5.080      7.369    12.8333   999.4466 0.0000e+00
      5.190      0.042     0.8074     14.550     57.411  43.418123     0.3950      6.558    32.9197 1.2363e-01    11.7213      5.090      7.383    12.8232   999.4479 0.0000e+00
      5.200      0.031     0.9064     14.806     57.422  43.427633     0.3863      6.559    33.9711 1.2364e-01    11.5662      5.101      7.396    12.8155   999.4489 0.0000e+00
      5.207      0.020     0.9856     14.864     57.426  43.432163     0.3653      6.560    34.9927 1.2367e-01    11.2744      5.111      7.411    12.8112   999.4494 0.0000e+00
      5.209      0.013     1.0464     14.815     57.477  43.472898     0.3492      6.560    35.8934 1.2359e-01    11.1100      5.110      7.411    12.8104   999.4496 0.0000e+00
      5.206      0.012     1.0840     14.703     57.558  43.539181     0.3387      6.559    36.7741 1.2353e-01    11.0524      5.105      7.402    12.8105   999.4496 0.0000e+00
      5.204      0.015     1.1016     14.546     57.545  43.535129     0.3161      6.558    37.8111 1.2363e-01    10.8401      5.103      7.401    12.8107   999.4495 0.0000e+00
      5.207      0.023     1.1024     14.360     57.481  43.487413     0.2932      6.557    38.7088 1.2371e-01    10.5429      5.105      7.404    12.8126   999.4494 0.0000e+00
      5.214      0.033     1.0982     14.150     57.465  43.470214     0.2869      6.556    39.2822 1.2366e-01    10.4081      5.112      7.414    12.8142   999.4492 0.0000e+00
      5.227      0.045     1.0896     13.939     57.454  43.454174     0.2843      6.555    39.8403 1.2363e-01    10.3903      5.125      7.433    12.8183   999.4488 0.0000e+00
      5.242      0.057     1.0768     13.747     57.422  43.420453     0.2787      6.553    40.4664 1.2364e-01    10.3278      5.141      7.456    12.8259   999.4479 0.0000e+00
      5.257      0.067     1.0638     13.565     57.381  43.379969     0.2448      6.551    41.0015 1.2362e-01     9.7506      5.156      7.476    12.8263   999.4479 0.0000e+00
      5.274      0.076     1.0473     13.400     57.348  43.345651     0.1864      6.548    41.4059 1.2360e-01     8.7206      5.171      7.500    12.8202   999.4487 0.0000e+00
      5.294      0.083     1.0309     13.270     57.331  43.322983     0.1619      6.546    41.6561 1.2358e-01     8.1644      5.190      7.528    12.8134   999.4496 0.0000e+00
      5.317      0.088     1.0181     13.229     57.394  43.359858     0.1661      6.543    41.8761 1.2357e-01     8.1049      5.214      7.562    12.8055   999.4507 0.0000e+00
      5.343      0.088     1.0037     13.301     57.559  43.474010     0.1765      6.541    42.1736 1.2365e-01     8.1655      5.240      7.599    12.7965   999.4520 0.0000e+00
      5.370      0.083     0.9921     13.451     57.686  43.560254     0.1923      6.539    42.5001 1.2372e-01     8.2743      5.266      7.638    12.7883   999.4531 0.0000e+00
      5.395      0.072     0.9806     13.643     57.716  43.577161     0.2013      6.538    42.8121 1.2364e-01     8.3385      5.292      7.675    12.7798   999.4542 0.0000e+00
      5.414      0.058     0.9763     13.840     57.682  43.551428     0.2068      6.536    43.1058 1.2355e-01     8.3852      5.312      7.704    12.7712   999.4554 0.0000e+00
      5.426      0.043     0.9844     13.980     57.612  43.503107     0.2156      6.534    43.4708 1.2360e-01     8.4453      5.323      7.720    12.7626   999.4566 0.0000e+00
      5.431      0.028     0.9956     13.985     57.595  43.500894     0.2205      6.533    43.8689 1.2365e-01     8.5080      5.326      7.725    12.7520   999.4580 0.0000e+00
      5.433      0.016     1.0114     13.802     57.779  43.651671     0.2146      6.533    44.2200 1.2357e-01     8.5540      5.328      7.727    12.7464   999.4587 0.0000e+00
      5.433      0.009     1.0271     13.451     58.217  43.992719     0.2136      6.532    44.6184 1.2349e-01     8.6081      5.328      7.728    12.7469   999.4586 0.0000e+00
      5.434      0.006     1.0401     13.024     58.979  44.576601     0.2171      6.530    45.0720 1.2355e-01     8.6705      5.329      7.729    12.7499   999.4582 0.0000e+00
      5.436      0.005     1.0418     12.617     60.365  45.631413     0.2140      6.528    45.4894 1.2366e-01     8.7189      5.331      7.732    12.7601   999.4570 0.0000e+00
      5.438      0.005     1.0276     12.294     61.536  46.522440     0.2189      6.527    45.9648 1.2371e-01     8.7342      5.333      7.734    12.7727   999.4554 0.0000e+00
      5.439      0.006     0.9984     12.097     61.279  46.332390     0.2248      6.526    46.4326 1.2370e-01     8.7563      5.334      7.736    12.7813   999.4545 0.0000e+00
      5.440      0.006     0.9636     12.035     60.246  45.556296     0.2239      6.524    46.7577 1.2360e-01     8.7569      5.335      7.737    12.7877   999.4539 0.0000e+00
      5.442      0.005     0.9325     12.101     59.437  44.949798     0.2256      6.522    47.1423 1.2351e-01     8.6759      5.337      7.739    12.7928   999.4539 0.0000e+00
      5.444      0.005     0.9066     12.248     59.036  44.650980     0.2276      6.521    47.6407 1.2351e-01     8.5961      5.338      7.743    12.7981   999.4539 0.0000e+00
      5.445      0.004     0.8928     12.418     58.887  44.546860     0.2231      6.520    48.1373 1.2358e-01     8.5463      5.340      7.745    12.8012   999.4533 0.0000e+00
      5.445      0.004     0.8872     12.575     58.826  44.516399     0.1970      6.519    48.5870 1.2364e-01     8.5662      5.340      7.745    12.8049   999.4524 0.0000e+00
      5.446      0.003     0.8938     12.687     58.744  44.473194     0.1634      6.518    49.1204 1.2364e-01     8.7051      5.341      7.746    12.8103   999.4514 0.0000e+00
      5.447      0.003     0.9066     12.778     58.547  44.341996     0.1547      6.517    49.7682 1.2365e-01     8.8165      5.341      7.747    12.8125   999.4509 0.0000e+00
      5.448      0.003     0.9188     12.858     58.337  44.200093     0.1611      6.516    50.3106 1.2365e-01     8.8314      5.342      7.749    12.8176   999.4503 0.0000e+00
      5.449      0.003     0.9327     12.915     58.176  44.090962     0.1629      6.515    50.7742 1.2362e-01     8.8194      5.343      7.750    12.8338   999.4483 0.0000e+00
      5.449      0.002     0.9385     12.970     58.105  44.038482     0.1768      6.513    51.2432 1.2363e-01     8.7379      5.344      7.751    12.8519   999.4461 0.0000e+00
      5.450      0.002     0.9447     13.017     58.160  44.073558     0.2080      6.511    51.6793 1.2370e-01     8.6315      5.345      7.752    12.8648   999.4443 0.0000e+00
      5.450      0.001     0.9517     13.033     58.244  44.134061     0.2185      6.510    52.0903 1.2374e-01     8.6147      5.344      7.751    12.8808   999.4423 0.0000e+00
      5.450      0.001     0.9539     13.042     58.243  44.135033     0.2081      6.509    52.5121 1.2373e-01     8.6331      5.345      7.752    12.8962   999.4402 0.0000e+00
      5.451      0.001     0.9583     13.071     58.174  44.085309     0.2040      6.508    52.9936 1.2369e-01     8.6244      5.345      7.753    12.8955   999.4403 0.0000e+00
      5.451      0.001     0.9636     13.096     58.117  44.040836     0.2041      6.507    53.5245 1.2364e-01     8.6088      5.345      7.753    12.8846   999.4417 0.0000e+00
      5.451      0.001     0.9635     13.101     58.038  43.978304     0.2091      6.505    54.0270 1.2364e-01     8.6077      5.346      7.753    12.8814   999.4422 0.0000e+00
      5.451      0.001     0.9629     13.101     57.934  43.900725     0.2125      6.504    54.5090 1.2363e-01     8.6111      5.346      7.754    12.8863   999.4416 0.0000e+00
      5.451      0.001     0.9661     13.109     57.878  43.864810     0.1849      6.503    55.0500 1.2360e-01     8.5842      5.346      7.754    12.8894   999.4411 0.0000e+00
      5.452      0.001     0.9687     13.112     57.861  43.861546     0.1435      6.503    55.5777 1.2357e-01     8.5451      5.346      7.754    12.8870   999.4414 0.0000e+00
      5.453      0.001     0.9683     13.110     57.855  43.861276     0.1279      6.503    55.8135 1.2356e-01     8.5310      5.347      7.755    12.8835   999.4418 0.0000e+00
      5.453 -9.990e-29     0.9677 -9.990e-29 -9.990e-29 -9.990e-29 -9.990e-29 -9.990e-29 -9.990e-29 1.2361e-01 -9.990e-29      5.347      7.756    12.8839   999.4417 0.0000e+00
      5.453 -9.990e-29     0.9692 -9.990e-29 -9.990e-29 -9.990e-29 -9.990e-29 -9.990e-29 -9.990e-29 1.2366e-01 -9.990e-29      5.347      7.756    12.8900   999.4410 0.0000e+00
      5.453 -9.990e-29     0.9690 -9.990e-29 -9.990e-29 -9.990e-29 -9.990e-29 -9.990e-29 -9.990e-29 1.2368e-01 -9.990e-29      5.347      7.756    12.9004   999.4397 0.0000e+00
      5.453 -9.990e-29     0.9680 -9.990e-29 -9.990e-29 -9.990e-29 -9.990e-29 -9.990e-29 -9.990e-29 1.2369e-01 -9.990e-29      5.348      7.756    12.9063   999.4390 0.0000e+00
