* Sea-Bird SBE19plus  Data File:
* FileName = C:\DATA\100118_fcr_0003.hex
* Software version 2.6.3.104
* Temperature SN = 7809
* Conductivity SN = 7809
* System UpLoad Time = Oct 01 2018 14:28:55
* <ApplicationData>
* <Seaterm232>
* <SoftwareVersion>2.6.3.104</SoftwareVersion>
* <BuildDate>30-Jun-2017</BuildDate>
* </Seaterm232>
* </ApplicationData>
* <InstrumentState>
* <HardwareData DeviceType='SBE19plus' SerialNumber='01907809'>
*
*    <Manufacturer>Sea-Bird Electronics, Inc.</Manufacturer>
*
*    <FirmwareVersion>3.1.8</FirmwareVersion>
*
*    <FirmwareDate>Mar  9 2016 16:22:29</FirmwareDate>
*
*    <CommandSetVersion>1.4</CommandSetVersion>
*
*    <PCBAssembly PCBSerialNum='120721' AssemblyNum='41054J'/>
*
*    <PCBAssembly PCBSerialNum='120715' AssemblyNum='41967A'/>
*
*    <PCBAssembly PCBSerialNum='116699' AssemblyNum='41606'/>
*
*    <PCBAssembly PCBSerialNum='120719' AssemblyNum='41059D'/>
*
*    <MfgDate>28-Apr-2017</MfgDate>
*
*    <InternalSensors>
*
*       <Sensor id='Main Temperature'>
*
*          <type>temperature0</type>
*
*          <SerialNumber>01907809</SerialNumber>
*
*       </Sensor>
*
*       <Sensor id='Main Conductivity'>
*
*          <type>conductivity-0</type>
*
*          <SerialNumber>01907809</SerialNumber>
*
*       </Sensor>
*
*       <Sensor id='Main Pressure'>
*
*          <type>strain-0</type>
*
*          <SerialNumber>10586018</SerialNumber>
*
*       </Sensor>
*
*    </InternalSensors>
*
*    <ExternalSensors>
*
*       <Sensor id='volt 0'>
*
*          <type>pH</type>
*
*          <SerialNumber>27-0363</SerialNumber>
*
*       </Sensor>
*
*       <Sensor id='volt 1'>
*
*          <type>ORP</type>
*
*          <SerialNumber>27-0363</SerialNumber>
*
*       </Sensor>
*
*       <Sensor id='volt 2'>
*
*          <type>OXY</type>
*
*          <SerialNumber>43-0434</SerialNumber>
*
*       </Sensor>
*
*       <Sensor id='volt 3'>
*
*          <type>PAR</type>
*
*          <SerialNumber>1122</SerialNumber>
*
*       </Sensor>
*
*       <Sensor id='volt 4'>
*
*          <type>ECO AFL/FL</type>
*
*          <SerialNumber>FLNTURT-2496</SerialNumber>
*
*       </Sensor>
*
*       <Sensor id='volt 5'>
*
*          <type>ECO-NTU</type>
*
*          <SerialNumber>FLNTURT-2496</SerialNumber>
*
*       </Sensor>
*
*       <Sensor id='serial'>
*
*          <type>not assigned</type>
*
*          <SerialNumber>not assigned</SerialNumber>
*
*       </Sensor>
*
*    </ExternalSensors>
*
* </HardwareData>
* <StatusData DeviceType='SBE19plus' SerialNumber='01907809'>
*
*    <DateTime>2018-10-01T18:27:49</DateTime>
*
*    <LoggingState>not logging</LoggingState>
*
*    <EventSummary numEvents='0'/>
*
*    <Power>
*
*       <vMain>12.6</vMain>
*
*       <vLith>8.7</vLith>
*
*       <iMain>63.2</iMain>
*
*       <iPump>144.1</iPump>
*
*       <iExt01>14.3</iExt01>
*
*       <iExt2345>43.8</iExt2345>
*
*    </Power>
*
*    <MemorySummary>
*
*       <Bytes>103454</Bytes>
*
*       <Samples>4498</Samples>
*
*       <SamplesFree>2856290</SamplesFree>
*
*       <SampleLength>23</SampleLength>
*
*       <Profiles>5</Profiles>
*
*    </MemorySummary>
*
* </StatusData>
* <ConfigurationData DeviceType='SBE19plus' SerialNumber='01907809'>
*
*    <ProfileMode>
*
*       <ScansToAverage>1</ScansToAverage>
*
*       <MinimumCondFreq>5</MinimumCondFreq>
*
*       <PumpDelay>45</PumpDelay>
*
*       <AutoRun>no</AutoRun>
*
*       <IgnoreSwitch>no</IgnoreSwitch>
*
*    </ProfileMode>
*
*    <Battery>
*
*       <Type>alkaline</Type>
*
*       <CutOff>7.5</CutOff>
*
*    </Battery>
*
*    <DataChannels>
*
*       <ExtVolt0>yes</ExtVolt0>
*
*       <ExtVolt1>yes</ExtVolt1>
*
*       <ExtVolt2>yes</ExtVolt2>
*
*       <ExtVolt3>yes</ExtVolt3>
*
*       <ExtVolt4>yes</ExtVolt4>
*
*       <ExtVolt5>yes</ExtVolt5>
*
*       <SBE38>no</SBE38>
*
*       <WETLABS>no</WETLABS>
*
*       <OPTODE>no</OPTODE>
*
*       <SBE63>no</SBE63>
*
*       <SeaFET>no</SeaFET>
*
*       <GTD>no</GTD>
*
*    </DataChannels>
*
*    <EchoCharacters>yes</EchoCharacters>
*
*    <OutputExecutedTag>yes</OutputExecutedTag>
*
*    <OutputFormat>raw HEX</OutputFormat>
*
* </ConfigurationData>
* <CalibrationCoefficients DeviceType='SBE19plus' SerialNumber='01907809'>
*
*    <Calibration format='TEMP1' id='Main Temperature'>
*
*       <SerialNum>01907809</SerialNum>
*
*       <CalDate>09-Mar-18</CalDate>
*
*       <TA0>1.210932e-03</TA0>
*
*       <TA1>2.843566e-04</TA1>
*
*       <TA2>-1.945074e-06</TA2>
*
*       <TA3>2.128067e-07</TA3>
*
*       <TOFFSET>0.000000e+00</TOFFSET>
*
*    </Calibration>
*
*    <Calibration format='WBCOND0' id='Main Conductivity'>
*
*       <SerialNum>01907809</SerialNum>
*
*       <CalDate>09-Mar-18</CalDate>
*
*       <G>-1.006721e+00</G>
*
*       <H>1.269065e-01</H>
*
*       <I>-1.405844e-04</I>
*
*       <J>2.478371e-05</J>
*
*       <CPCOR>-9.570000e-08</CPCOR>
*
*       <CTCOR>3.250000e-06</CTCOR>
*
*       <CSLOPE>1.000000e+00</CSLOPE>
*
*    </Calibration>
*
*    <Calibration format='STRAIN0' id='Main Pressure'>
*
*       <SerialNum>10586018</SerialNum>
*
*       <CalDate>07-Mar-18</CalDate>
*
*       <PA0>-4.081764e-02</PA0>
*
*       <PA1>4.851884e-04</PA1>
*
*       <PA2>-3.511682e-12</PA2>
*
*       <PTCA0>5.252134e+05</PTCA0>
*
*       <PTCA1>1.795324e+00</PTCA1>
*
*       <PTCA2>-2.843535e-01</PTCA2>
*
*       <PTCB0>2.516687e+01</PTCB0>
*
*       <PTCB1>3.750000e-04</PTCB1>
*
*       <PTCB2>0.000000e+00</PTCB2>
*
*       <PTEMPA0>-5.378069e+01</PTEMPA0>
*
*       <PTEMPA1>5.366207e+01</PTEMPA1>
*
*       <PTEMPA2>4.872143e-02</PTEMPA2>
*
*       <POFFSET>5.000000e-01</POFFSET>
*
*       <PRANGE>1.600000e+02</PRANGE>
*
*    </Calibration>
*
*    <Calibration format='VOLT0' id='Volt 0'>
*
*       <OFFSET>-4.920000e-02</OFFSET>
*
*       <SLOPE>1.248122e+00</SLOPE>
*
*    </Calibration>
*
*    <Calibration format='VOLT0' id='Volt 1'>
*
*       <OFFSET>-4.784000e-02</OFFSET>
*
*       <SLOPE>1.248871e+00</SLOPE>
*
*    </Calibration>
*
*    <Calibration format='VOLT0' id='Volt 2'>
*
*       <OFFSET>-4.864632e-02</OFFSET>
*
*       <SLOPE>1.248714e+00</SLOPE>
*
*    </Calibration>
*
*    <Calibration format='VOLT0' id='Volt 3'>
*
*       <OFFSET>-4.743790e-02</OFFSET>
*
*       <SLOPE>1.248571e+00</SLOPE>
*
*    </Calibration>
*
*    <Calibration format='VOLT0' id='Volt 4'>
*
*       <OFFSET>-4.671263e-02</OFFSET>
*
*       <SLOPE>1.248951e+00</SLOPE>
*
*    </Calibration>
*
*    <Calibration format='VOLT0' id='Volt 5'>
*
*       <OFFSET>-4.871053e-02</OFFSET>
*
*       <SLOPE>1.249136e+00</SLOPE>
*
*    </Calibration>
*
*    <Calibration format='FREQ0' id='external frequency channel'>
*
*       <EXTFREQSF>1.000014e+00</EXTFREQSF>
*
*    </Calibration>
*
* </CalibrationCoefficients>
* <EventCounters DeviceType='SBE19plus' SerialNumber='01907809'>
*
*    <EventSummary numEvents='0'/>
*
* </EventCounters></InstrumentState>
* <Headers>
*
* cast   3 01 Oct 2018 15:02:27 samples 1353 to 2093, avg = 1, stop = mag switch
*
# nquan = 17
# nvalues = 674                         
# units = specified
# name 0 = depFM: Depth [fresh water, m]
# name 1 = tv290C: Temperature [ITS-90, deg C]
# name 2 = sbeox0Mg/L: Oxygen, SBE 43 [mg/l]
# name 3 = sbeox0PS: Oxygen, SBE 43 [% saturation]
# name 4 = c0uS/cm: Conductivity [uS/cm]
# name 5 = specc: Specific Conductance [uS/cm]
# name 6 = ph: pH
# name 7 = orp: Oxidation Reduction Potential [mV]
# name 8 = flECO-AFL: Fluorescence, WET Labs ECO-AFL/FL [mg/m^3]
# name 9 = turbWETntu0: Turbidity, WET Labs ECO [NTU]
# name 10 = sal00: Salinity, Practical [PSU]
# name 11 = dz/dtM: Descent Rate [m/s]
# name 12 = prdM: Pressure, Strain Gauge [db]
# name 13 = prdE: Pressure, Strain Gauge [psi]
# name 14 = scan: Scan Count
# name 15 = par/sat/log: PAR/Logarithmic, Satlantic
# name 16 = flag:  0.000e+00
# span 0 =     -0.461,      5.524       
# span 1 =    17.0486,    21.8384       
# span 2 =     0.0936,     8.7346       
# span 3 =      0.980,     98.166       
# span 4 =   1.217757,  70.858517       
# span 5 =      1.289,     84.218       
# span 6 =      6.331,      7.992       
# span 7 =    57.2661,   247.3852       
# span 8 =    -0.4448,    10.0404       
# span 9 =    -0.7346,     6.1003       
# span 10 =     0.0107,     0.0427      
# span 11 =     -0.262,      0.179      
# span 12 =     -0.452,      5.417      
# span 13 =     -0.655,      7.856      
# span 14 =          1,        674      
# span 15 = 7.0247e-01, 2.0800e+03      
# span 16 = 0.0000e+00, 0.0000e+00      
# interval = seconds: 0.25
# start_time = Oct 01 2018 15:02:27 [Instrument's time stamp, header]
# bad_flag = -9.990e-29
# <Sensors count="9" >
#   <sensor Channel="1" >
#     <!-- Count, Temperature -->
#     <TemperatureSensor SensorID="58" >
#       <SerialNumber>7809</SerialNumber>
#       <CalibrationDate>09-Mar-18</CalibrationDate>
#       <A0>1.21093245e-003</A0>
#       <A1>2.84356597e-004</A1>
#       <A2>-1.94507398e-006</A2>
#       <A3>2.12806664e-007</A3>
#       <Slope>1.00000000</Slope>
#       <Offset>0.0000</Offset>
#     </TemperatureSensor>
#   </sensor>
#   <sensor Channel="2" >
#     <!-- Frequency 0, Conductivity -->
#     <ConductivitySensor SensorID="3" >
#       <SerialNumber>7809</SerialNumber>
#       <CalibrationDate>09-Mar-18</CalibrationDate>
#       <UseG_J>1</UseG_J>
#       <!-- Cell const and series R are applicable only for wide range sensors. -->
#       <SeriesR>0.0000</SeriesR>
#       <CellConst>2000.0000</CellConst>
#       <ConductivityType>0</ConductivityType>
#       <Coefficients equation="0" >
#         <A>0.00000000e+000</A>
#         <B>0.00000000e+000</B>
#         <C>0.00000000e+000</C>
#         <D>0.00000000e+000</D>
#         <M>0.0</M>
#         <CPcor>-9.57000000e-008</CPcor>
#       </Coefficients>
#       <Coefficients equation="1" >
#         <G>-1.00672082e+000</G>
#         <H>1.26906489e-001</H>
#         <I>-1.40584351e-004</I>
#         <J>2.47837121e-005</J>
#         <CPcor>-9.57000000e-008</CPcor>
#         <CTcor>3.2500e-006</CTcor>
#         <!-- WBOTC not applicable unless ConductivityType = 1. -->
#         <WBOTC>0.00000000e+000</WBOTC>
#       </Coefficients>
#       <Slope>1.00000000</Slope>
#       <Offset>0.00000</Offset>
#     </ConductivitySensor>
#   </sensor>
#   <sensor Channel="3" >
#     <!-- Count, Pressure, Strain Gauge -->
#     <PressureSensor SensorID="46" >
#       <SerialNumber>7809</SerialNumber>
#       <CalibrationDate>07-Mar-18</CalibrationDate>
#       <PA0>-4.08176359e-002</PA0>
#       <PA1>4.85188419e-004</PA1>
#       <PA2>-3.51168169e-012</PA2>
#       <PTEMPA0>-5.37806900e+001</PTEMPA0>
#       <PTEMPA1>5.36620721e+001</PTEMPA1>
#       <PTEMPA2>4.87214332e-002</PTEMPA2>
#       <PTCA0>5.25213435e+005</PTCA0>
#       <PTCA1>1.79532409e+000</PTCA1>
#       <PTCA2>-2.84353509e-001</PTCA2>
#       <PTCB0>2.51668750e+001</PTCB0>
#       <PTCB1>3.75000000e-004</PTCB1>
#       <PTCB2>0.00000000e+000</PTCB2>
#       <Offset>0.000000</Offset>
#     </PressureSensor>
#   </sensor>
#   <sensor Channel="4" >
#     <!-- A/D voltage 0, pH -->
#     <pH_Sensor SensorID="43" >
#       <SerialNumber>0363</SerialNumber>
#       <CalibrationDate>16-Mar-18</CalibrationDate>
#       <Slope>4.6194</Slope>
#       <Offset>2.5947</Offset>
#     </pH_Sensor>
#   </sensor>
#   <sensor Channel="5" >
#     <!-- A/D voltage 1, Oxidation Reduction Potential -->
#     <OxidationReductionPotentialSensor SensorID="41" >
#       <SerialNumber>0363</SerialNumber>
#       <CalibrationDate>16-Mar-18</CalibrationDate>
#       <B>2.499480</B>
#       <M>-0.496195</M>
#       <Offset>0.0</Offset>
#     </OxidationReductionPotentialSensor>
#   </sensor>
#   <sensor Channel="6" >
#     <!-- A/D voltage 2, Oxygen, SBE 43 -->
#     <OxygenSensor SensorID="38" >
#       <SerialNumber>0434</SerialNumber>
#       <CalibrationDate>13-Mar-18</CalibrationDate>
#       <Use2007Equation>1</Use2007Equation>
#       <CalibrationCoefficients equation="0" >
#         <!-- Coefficients for Owens-Millard equation. -->
#         <Boc>0.0000</Boc>
#         <Soc>0.0000e+000</Soc>
#         <offset>0.0000</offset>
#         <Pcor>0.00e+000</Pcor>
#         <Tcor>0.0000</Tcor>
#         <Tau>0.0</Tau>
#       </CalibrationCoefficients>
#       <CalibrationCoefficients equation="1" >
#         <!-- Coefficients for Sea-Bird equation - SBE calibration in 2007 and later. -->
#         <Soc>4.5718e-001</Soc>
#         <offset>-0.6113</offset>
#         <A>-4.0649e-003</A>
#         <B> 2.0945e-004</B>
#         <C>-3.3182e-006</C>
#         <D0> 2.5826e+000</D0>
#         <D1> 1.92634e-004</D1>
#         <D2>-4.64803e-002</D2>
#         <E> 3.6000e-002</E>
#         <Tau20> 1.2200</Tau20>
#         <H1>-3.3000e-002</H1>
#         <H2> 5.0000e+003</H2>
#         <H3> 1.4500e+003</H3>
#       </CalibrationCoefficients>
#     </OxygenSensor>
#   </sensor>
#   <sensor Channel="7" >
#     <!-- A/D voltage 3, PAR/Logarithmic, Satlantic -->
#     <PARLog_SatlanticSensor SensorID="76" >
#       <SerialNumber>1122</SerialNumber>
#       <CalibrationDate>22-Jun-2017</CalibrationDate>
#       <a0>9.6090e-001</a0>
#       <a1>8.0780e-001</a1>
#       <Im>1.3589e+000</Im>
#       <Multiplier>1.0000e+000</Multiplier>
#     </PARLog_SatlanticSensor>
#   </sensor>
#   <sensor Channel="8" >
#     <!-- A/D voltage 4, Fluorometer, WET Labs ECO-AFL/FL -->
#     <FluoroWetlabECO_AFL_FL_Sensor SensorID="20" >
#       <SerialNumber>FLNTURT-2496</SerialNumber>
#       <CalibrationDate>25-Jan-2017</CalibrationDate>
#       <ScaleFactor>5.30000000e+001</ScaleFactor>
#       <!-- Dark output -->
#       <Vblank>0.0560</Vblank>
#     </FluoroWetlabECO_AFL_FL_Sensor>
#   </sensor>
#   <sensor Channel="9" >
#     <!-- A/D voltage 5, Turbidity Meter, WET Labs, ECO-NTU -->
#     <TurbidityMeter SensorID="67" >
#       <SerialNumber>FLNTURT-2496</SerialNumber>
#       <CalibrationDate>25-Jan-2017</CalibrationDate>
#       <ScaleFactor>176.000000</ScaleFactor>
#       <!-- Dark output -->
#       <DarkVoltage>0.072000</DarkVoltage>
#     </TurbidityMeter>
#   </sensor>
# </Sensors>
# datcnv_date = Oct 01 2018 14:31:58, 7.26.7.114 [datcnv_vars = 16]
# datcnv_in = C:\DATA\100118_fcr30.hex C:\DATA\SBE19plusV2_7809.xmlcon
# datcnv_skipover = 0
# datcnv_ox_hysteresis_correction = yes
# datcnv_ox_tau_correction = yes
# filter_date = Oct 01 2018 14:32:27, 7.26.7.114
# filter_in = C:\DATA\100118_fcr30.cnv
# filter_low_pass_tc_A = 0.030
# filter_low_pass_tc_B = 0.150
# filter_low_pass_A_vars = tv290C c0uS/cm par/sat/log
# filter_low_pass_B_vars = prdM prdE
# alignctd_date = Oct 01 2018 14:32:52, 7.26.7.114
# alignctd_in = C:\DATA\100118_fcr30.cnv
# alignctd_adv = tv290C 0.500, sbeox0Mg/L 3.000, sbeox0PS 3.000                                                                                                                                                                      
# file_type = ascii
*END*
     -0.461    21.8316     8.5017     96.933   1.217757      1.289      6.511   129.8384    -0.1375    -0.6003     0.0107      0.000     -0.452     -0.655          1 1.9902e+03 0.0000e+00
     -0.461    21.8322     8.5002     96.916   1.396828      1.497      6.518   146.7228    -0.1698    -0.7346     0.0107     -0.000     -0.452     -0.655          2 1.8397e+03 0.0000e+00
     -0.460    21.8331     8.5028     96.946   1.688218      1.795      6.534   149.2592    -0.1819    -0.6003     0.0108      0.000     -0.451     -0.655          3 1.9929e+03 0.0000e+00
     -0.460    21.8339     8.4981     96.893   2.039448      2.182      6.489   131.3149    -0.1658    -0.3183     0.0108      0.000     -0.451     -0.655          4 1.6623e+03 0.0000e+00
     -0.460    21.8345     8.5024     96.942   2.144061      2.301      6.477   174.2828    -0.1779    -0.4660     0.0108      0.000     -0.451     -0.655          5 8.5401e+02 0.0000e+00
     -0.461    21.8347     8.5011     96.915   2.179809      2.301      6.486    65.6325    -0.1779    -0.3854     0.0108      0.000     -0.451     -0.655          6 1.6531e+03 0.0000e+00
     -0.460    21.8351     8.5221     96.988   2.498315      2.688      6.492   127.3398    -0.1738    -0.2914     0.0109      0.000     -0.451     -0.654          7 2.0390e+03 0.0000e+00
     -0.460    21.8352     8.5334     96.926   2.576742      2.748      6.493   221.0744    -0.1617    -0.3989     0.0109      0.000     -0.451     -0.654          8 1.9070e+03 0.0000e+00
     -0.460    21.8357     8.5448     96.925   2.644782      2.808      6.497   119.6927    -0.2466    -0.2243     0.0109      0.000     -0.451     -0.654          9 2.0431e+03 0.0000e+00
     -0.460    21.8356     8.5560     96.969   2.472859      2.688      6.499   132.2991    -0.1941    -0.2243     0.0109      0.000     -0.451     -0.654         10 1.9519e+03 0.0000e+00
     -0.460    21.8362     8.5617     96.974   2.346558      2.420      6.498   135.5549    -0.2385    -0.1974     0.0109      0.000     -0.451     -0.654         11 1.9253e+03 0.0000e+00
     -0.460    21.8358     8.5704     97.013   2.209776      2.480      6.500   138.9999    -0.2102    -0.1974     0.0109      0.000     -0.451     -0.655         12 1.8806e+03 0.0000e+00
     -0.460    21.8371     8.5790     97.047   2.643082      2.629      6.497   129.7627    -0.1779    -0.2914     0.0109 6.4423e-13     -0.451     -0.655         13 1.9008e+03 0.0000e+00
     -0.460    21.8352     8.5933     97.153   1.955361      2.420      6.499   126.0906    -0.1779    -0.1974     0.0109     -0.000     -0.451     -0.655         14 1.9439e+03 0.0000e+00
     -0.460    21.8384     8.6091     97.289   2.621496      2.242      6.504   134.3813    -0.1617    -0.1706     0.0108     -0.000     -0.451     -0.655         15 1.9287e+03 0.0000e+00
     -0.461    21.8249     8.6115     97.288   1.281128      2.271      6.505   135.5549    -0.1617    -0.1840     0.0108     -0.000     -0.450     -0.653         16 1.9355e+03 0.0000e+00
     -0.459    21.7403     8.6095     97.241   3.297729      2.063      6.564   168.7557    -0.1819     0.1785     0.0108      0.000     -0.436     -0.633         17 1.9184e+03 0.0000e+00
     -0.412    21.6360     8.5491     96.540  12.284661     14.698      6.818   110.9855    -0.1738     0.2860     0.0148      0.013     -0.401     -0.582         18 2.0190e+03 0.0000e+00
     -0.359    21.5669     8.4098     94.955  20.042201     19.803      7.209    84.2962    -0.1496     0.1920     0.0167      0.036     -0.355     -0.514         19 1.9024e+03 0.0000e+00
     -0.315    21.5226     8.2199     92.808  31.304512     35.030      7.542    59.8025    -0.1738     0.2188     0.0227      0.064     -0.310     -0.450         20 2.0800e+03 0.0000e+00
     -0.275    21.4908     7.9841     90.140  35.084293     36.823      7.780    57.2661    -0.4448    -0.5063     0.0234      0.093     -0.269     -0.390         21 1.6785e+03 0.0000e+00
     -0.233    21.4586     7.7366     87.340  33.807517     36.858      7.937    66.2004    -0.4448    -0.5466     0.0234      0.121     -0.226     -0.329         22 5.8413e+02 0.0000e+00
     -0.185    21.4255     7.4690     84.318  34.524480     36.793      7.992    77.8604    -0.4286    -0.5869     0.0234      0.147     -0.181     -0.262         23 1.2943e+03 0.0000e+00
     -0.134    21.3960     7.2329     81.650  34.103093     36.908      7.979    83.8419    -0.4205    -0.6406     0.0235      0.168     -0.134     -0.194         24 1.6095e+03 0.0000e+00
     -0.089    21.3738     7.0250     79.296  34.331941     36.845      7.934    77.9740     1.6660     3.5221     0.0234      0.179     -0.090     -0.130         25 1.8600e+03 0.0000e+00
     -0.051    21.3581     6.8721     77.548  34.091418     36.808      7.902    76.8383     1.6862     3.4952     0.0234      0.177     -0.048     -0.071         26 1.7416e+03 0.0000e+00
     -0.006    21.3457     6.7752     76.419  34.254153     36.886      7.876    78.6176     1.6781     3.5221     0.0234      0.175     -0.008     -0.012         27 2.7399e+02 0.0000e+00
      0.033    21.3355     6.7386     75.972  34.188743     36.898      7.824    80.4726     1.6984     3.5624     0.0234      0.174      0.028      0.041         28 6.6613e+01 0.0000e+00
      0.059    21.3294     6.7593     76.182  34.232140     36.908      7.773    83.0847     1.6943     3.5087     0.0234      0.168      0.056      0.081         29 1.7559e+02 0.0000e+00
      0.079    21.3271     6.8432     77.116  34.229810     36.946      7.744    97.2055     3.1177     2.1793     0.0234      0.157      0.078      0.112         30 9.2058e+01 0.0000e+00
      0.097    21.3241     6.9531     78.345  34.221305     36.921      7.726    91.7919     3.1055     2.1122     0.0234      0.141      0.098      0.142         31 1.2344e+02 0.0000e+00
      0.124    21.3210     7.0686     79.639  34.213070     36.923      7.725    98.6819     3.0934     2.1122     0.0234      0.125      0.121      0.176         32 6.9058e+01 0.0000e+00
      0.150    21.3200     7.1636     80.706  34.210403     36.925      7.720   100.9155     3.1379     2.1793     0.0234      0.114      0.144      0.210         33 7.3528e+01 0.0000e+00
      0.169    21.3188     7.2230     81.373  34.224627     36.928      7.695   102.9219     4.2216     2.2599     0.0234      0.103      0.163      0.237         34 5.9635e+01 0.0000e+00
      0.180    21.3140     7.2448     81.616  34.284339     37.019      7.665   103.7169     4.2014     2.0450     0.0235      0.090      0.179      0.260         35 5.6985e+01 0.0000e+00
      0.201    21.2993     7.2297     81.445  34.225060     36.929      7.647   104.8905     4.2135     2.1390     0.0234      0.083      0.195      0.282         36 4.9754e+01 0.0000e+00
      0.214    21.2752     7.1798     80.884  34.150118     36.873      7.591   118.8977     4.1771     2.1927     0.0234      0.078      0.205      0.297         37 4.8969e+01 0.0000e+00
      0.210    21.2523     7.1069     80.064  34.170015     36.884      7.565   120.7905     4.5410     2.1659     0.0234      0.069      0.205      0.297         38 4.8530e+01 0.0000e+00
      0.205    21.2371     7.0219     79.106  34.140995     36.904      7.560   122.5320     4.5249     2.1390     0.0234      0.055      0.202      0.292         39 5.1613e+01 0.0000e+00
      0.203    21.2287     6.9370     78.148  34.126931     36.862      7.547   117.1562     4.5410     2.1793     0.0234      0.039      0.199      0.289         40 4.9992e+01 0.0000e+00
      0.202    21.2228     6.8422     77.079  34.217182     37.025      7.525   124.5763     4.5410     2.1793     0.0234      0.024      0.199      0.289         41 5.0876e+01 0.0000e+00
      0.204    21.2186     6.7694     76.260  34.176965     36.941      7.511   124.9927     4.5208     2.1793     0.0234      0.013      0.202      0.292         42 5.0083e+01 0.0000e+00
      0.212    21.2163     6.7258     75.772  34.147328     36.946      7.504   118.2541     4.5491     2.1793     0.0234      0.007      0.208      0.300         43 4.6633e+01 0.0000e+00
      0.220    21.2146     6.7047     75.540  34.165101     36.949      7.501   119.3520     4.5006     2.2062     0.0234      0.004      0.213      0.309         44 4.6605e+01 0.0000e+00
      0.221    21.2130     6.7033     75.533  34.154850     36.951      7.499   129.1570     4.5289     2.2599     0.0234      0.005      0.215      0.312         45 4.8152e+01 0.0000e+00
      0.219    21.2120     6.7243     75.776  34.160086     36.952      7.493   123.0241     4.6907     2.1927     0.0234      0.008      0.214      0.310         46 4.9314e+01 0.0000e+00
      0.216    21.2125     6.7641     76.233  34.188242     36.984      7.489   132.5263     4.6664     2.2196     0.0234      0.010      0.212      0.307         47 4.9992e+01 0.0000e+00
      0.213    21.2136     6.8214     76.892  34.208780     37.015      7.483   129.8763     4.6947     2.1793     0.0234      0.008      0.210      0.305         48 5.0294e+01 0.0000e+00
      0.214    21.2135     6.8864     77.631  34.223496     37.015      7.469   128.9677     4.6543     2.1122     0.0234      0.005      0.208      0.301         49 5.1023e+01 0.0000e+00
      0.208    21.2127     6.9428     78.266  34.288553     37.104      7.466   128.3620     4.6340     2.1524     0.0235      0.001      0.203      0.294         50 5.1914e+01 0.0000e+00
      0.199    21.2122     6.9894     78.789  34.305754     37.104      7.465   130.9741     4.8848     2.2464     0.0235     -0.007      0.197      0.285         51 5.2521e+01 0.0000e+00
      0.196    21.2126     7.0356     79.307  34.350370     37.165      7.464   139.8327     4.9131     2.0853     0.0235     -0.012      0.193      0.280         52 5.2611e+01 0.0000e+00
      0.197    21.2147     7.0613     79.593  34.381309     37.196      7.462   141.3849     4.9090     2.2062     0.0235     -0.013      0.193      0.279         53 5.2272e+01 0.0000e+00
      0.196    21.2187     7.0544     79.510  34.356219     37.166      7.459   135.2899     4.8848     2.1256     0.0235     -0.013      0.193      0.279         54 5.2314e+01 0.0000e+00
      0.195    21.2239     7.0333     79.270  34.351938     37.164      7.457   135.4034     4.8888     2.0853     0.0235     -0.012      0.193      0.279         55 5.1753e+01 0.0000e+00
      0.199    21.2288     6.9804     78.683  34.356980     37.161      7.454   136.5013     4.8888     2.2062     0.0235     -0.009      0.196      0.284         56 5.1075e+01 0.0000e+00
      0.205    21.2349     6.9280     78.091  34.349943     37.156      7.451   136.4634     4.8767     2.1390     0.0235     -0.005      0.202      0.292         57 5.0708e+01 0.0000e+00
      0.213    21.2430     6.8663     77.391  34.360694     37.152      7.451   138.9620     4.8726     2.1122     0.0235      0.003      0.207      0.300         58 4.9198e+01 0.0000e+00
      0.215    21.2475     6.7968     76.605  34.373253     37.178      7.444   143.2399     4.6260     2.1256     0.0235      0.009      0.208      0.302         59 5.0950e+01 0.0000e+00
      0.208    21.2474     6.7550     76.129  34.363965     37.141      7.443   148.0099     4.6340     2.0987     0.0235      0.010      0.206      0.298         60 5.3491e+01 0.0000e+00
      0.208    21.2458     6.7287     75.814  34.401905     37.198      7.439   141.6499     4.6462     2.2062     0.0235      0.009      0.206      0.298         61 5.0859e+01 0.0000e+00
      0.214    21.2432     6.7237     75.723  34.533631     37.319      7.435   141.8770     4.6624     2.2196     0.0236      0.009      0.210      0.305         62 4.8342e+01 0.0000e+00
      0.220    21.2410     6.7149     75.599  34.763510     37.592      7.431   144.2999     4.6381     2.1390     0.0237      0.010      0.218      0.316         63 5.0459e+01 0.0000e+00
      0.232    21.2377     6.6997     75.413  34.946216     37.775      7.422   150.3949     4.6543     2.2464     0.0237      0.011      0.231      0.334         64 5.1482e+01 0.0000e+00
      0.252    21.2374     6.6707     75.070  35.106996     37.959      7.421   149.2592     4.6624     2.1659     0.0238      0.017      0.251      0.364         65 4.8786e+01 0.0000e+00
      0.284    21.2419     6.6293     74.591  35.097251     37.961      7.421   146.0413     4.6704     2.2196     0.0238      0.030      0.275      0.399         66 4.6782e+01 0.0000e+00
      0.304    21.2418     6.5864     74.092  34.899030     37.720      7.417   146.6849     4.6098     2.1256     0.0237      0.045      0.293      0.425         67 4.5555e+01 0.0000e+00
      0.309    21.2386     6.5504     73.673  34.760535     37.595      7.420   148.0478     4.5613     2.1793     0.0237      0.056      0.299      0.434         68 4.4655e+01 0.0000e+00
      0.303    21.2366     6.5385     73.528  34.854405     37.656      7.413   148.1992     4.5855     2.2196     0.0237      0.058      0.296      0.430         69 4.4502e+01 0.0000e+00
      0.295    21.2331     6.5462     73.607  35.227070     38.112      7.408   148.1992     4.5774     2.1390     0.0239      0.051      0.291      0.422         70 4.3909e+01 0.0000e+00
      0.292    21.2199     6.5620     73.779  35.483055     38.355      7.410   148.8049     4.5734     2.1256     0.0240      0.039      0.287      0.417         71 4.4220e+01 0.0000e+00
      0.292    21.1974     6.5708     73.877  35.455221     38.358      7.404   149.8271     4.0841     2.1122     0.0240      0.025      0.287      0.417         72 4.4826e+01 0.0000e+00
      0.296    21.1808     6.5773     73.949  35.321028     38.187      7.399   150.3949     4.0801     2.0719     0.0239      0.010      0.291      0.423         73 4.4125e+01 0.0000e+00
      0.304    21.1699     6.5670     73.830  35.234852     38.146      7.388   151.5685     4.0760     2.1927     0.0239      0.001      0.296      0.430         74 4.3051e+01 0.0000e+00
      0.306    21.1594     6.5597     73.745  35.117609     38.008      7.370   152.6663     4.1003     2.1659     0.0238     -0.001      0.298      0.433         75 4.2350e+01 0.0000e+00
      0.303    21.1498     6.5453     73.581  35.140711     38.047      7.349   153.2721     4.4804     2.2330     0.0238      0.001      0.298      0.432         76 4.1158e+01 0.0000e+00
      0.302    21.1391     6.5427     73.551  35.146793     38.086      7.341   154.2942     4.4885     2.1122     0.0239      0.004      0.297      0.431         77 4.0443e+01 0.0000e+00
      0.304    21.1291     6.5439     73.565  35.021074     37.912      7.343   154.7106     4.4319     2.0719     0.0238      0.007      0.298      0.433         78 4.0804e+01 0.0000e+00
      0.306    21.1216     6.5518     73.656  34.970940     37.921      7.349   155.7706     4.4723     2.1390     0.0238      0.007      0.300      0.435         79 4.1466e+01 0.0000e+00
      0.308    21.1159     6.5633     73.787  34.853303     37.748      7.352   156.3385     4.6583     2.1390     0.0237      0.006      0.302      0.437         80 4.2336e+01 0.0000e+00
      0.310    21.1124     6.5649     73.810  34.870905     37.815      7.355   156.9442     4.6300     2.1390     0.0237      0.004      0.304      0.440         81 4.2929e+01 0.0000e+00
      0.312    21.1112     6.5521     73.669  34.889723     37.819      7.355   158.0042     4.6543     2.1793     0.0237      0.004      0.306      0.443         82 4.2425e+01 0.0000e+00
      0.312    21.1105     6.5280     73.402  34.829887     37.762      7.352   158.6099     4.6543     2.0987     0.0237      0.004      0.306      0.444         83 4.1389e+01 0.0000e+00
      0.312    21.1086     6.4931     73.013  34.826744     37.762      7.350   159.1021     4.7149     2.1927     0.0237      0.005      0.305      0.442         84 4.0908e+01 0.0000e+00
      0.309    21.1066     6.4460     72.486  34.834322     37.763      7.345   159.8971     4.7432     2.1927     0.0237      0.004      0.304      0.440         85 4.0343e+01 0.0000e+00
      0.309    21.1050     6.3958     71.924  34.820456     37.765      7.343   160.3514     4.7028     2.1524     0.0237      0.002      0.303      0.439         86 4.0196e+01 0.0000e+00
      0.310    21.1044     6.3417     71.317  34.784687     37.706      7.341   161.1464     4.7068     2.1256     0.0237      0.001      0.304      0.441         87 4.0314e+01 0.0000e+00
      0.312    21.1047     6.2880     70.715  34.819523     37.767      7.345   162.2442     4.6624     2.1659     0.0237      0.001      0.306      0.444         88 4.0251e+01 0.0000e+00
      0.314    21.1058     6.2346     70.117  34.836417     37.768      7.341   162.5849     4.6583     2.2062     0.0237      0.001      0.308      0.446         89 4.0357e+01 0.0000e+00
      0.315    21.1080     6.1856     69.569  34.822977     37.768      7.337   163.3421     4.6826     2.1390     0.0237      0.001      0.309      0.448         90 4.0415e+01 0.0000e+00
      0.315    21.1106     6.1443     69.107  34.776935     37.706      7.336   164.3264     4.6624     2.1390     0.0237      0.002      0.309      0.448         91 4.0152e+01 0.0000e+00
      0.316    21.1132     6.0988     68.599  34.775086     37.704      7.329   165.2728     4.6543     2.1793     0.0237      0.003      0.309      0.448         92 3.9979e+01 0.0000e+00
      0.314    21.1160     6.0549     68.107  34.825277     37.763      7.323   165.4242     4.7270     2.1659     0.0237      0.004      0.308      0.447         93 4.0204e+01 0.0000e+00
      0.313    21.1182     6.0168     67.681  34.833101     37.761      7.322   166.2192     4.7351     2.2196     0.0237      0.003      0.307      0.445         94 3.9826e+01 0.0000e+00
      0.313    21.1201     5.9883     67.364  34.824661     37.759      7.321   166.3707     4.7432     2.1390     0.0237      0.001      0.307      0.445         95 3.9574e+01 0.0000e+00
      0.313    21.1218     5.9533     66.973  34.776465     37.696      7.316   166.7492     4.7311     2.1390     0.0237     -0.000      0.307      0.445         96 3.9736e+01 0.0000e+00
      0.313    21.1229     5.9259     66.666  34.774451     37.695      7.318   167.3171     4.7230     2.2464     0.0237     -0.001      0.307      0.446         97 3.9288e+01 0.0000e+00
      0.314    21.1244     5.8949     66.319  34.827166     37.754      7.312   168.3014     4.7311     2.1390     0.0237     -0.001      0.308      0.446         98 3.9720e+01 0.0000e+00
      0.314    21.1262     5.8638     65.971  34.829489     37.753      7.304   168.7935     4.7311     2.1793     0.0237     -0.001      0.308      0.446         99 4.0022e+01 0.0000e+00
      0.314    21.1282     5.8276     65.566  34.830874     37.752      7.299   169.1721     4.7230     2.1524     0.0237     -0.000      0.308      0.446        100 3.9930e+01 0.0000e+00
      0.313    21.1309     5.7931     65.180  34.825442     37.750      7.294   170.3457     4.6624     2.0987     0.0237      0.000      0.307      0.444        101 4.0478e+01 0.0000e+00
      0.310    21.1332     5.7563     64.770  34.836249     37.749      7.295   170.1185     4.6300     2.1659     0.0237     -0.001      0.306      0.443        102 4.0314e+01 0.0000e+00
      0.311    21.1343     5.7179     64.342  34.817424     37.746      7.294   170.3078     4.6421     2.1390     0.0237     -0.001      0.307      0.445        103 3.9703e+01 0.0000e+00
      0.319    21.1362     5.6865     63.991  34.789555     37.684      7.296   171.5950     4.6704     2.1659     0.0237      0.001      0.311      0.450        104 3.9521e+01 0.0000e+00
      0.320    21.1389     5.6497     63.578  34.811618     37.744      7.287   172.0871     4.6502     2.0987     0.0237      0.002      0.312      0.452        105 3.9576e+01 0.0000e+00
      0.315    21.1405     5.6232     63.284  34.789965     37.681      7.285   172.0114     4.6543     2.1927     0.0237      0.002      0.309      0.448        106 3.9082e+01 0.0000e+00
      0.312    21.1423     5.5913     62.925  34.816498     37.740      7.285   172.4278     4.6704     2.1256     0.0237      0.001      0.307      0.444        107 3.9066e+01 0.0000e+00
      0.311    21.1435     5.5771     62.765  34.837909     37.738      7.283   172.8443     4.6462     2.1927     0.0237      0.000      0.305      0.441        108 3.9382e+01 0.0000e+00
      0.308    21.1445     5.5590     62.562  34.822634     37.737      7.278   173.5636     4.6624     1.9913     0.0237     -0.001      0.302      0.438        109 3.9797e+01 0.0000e+00
      0.306    21.1465     5.5410     62.360  34.835509     37.736      7.275   173.9800     4.6785     1.9376     0.0237     -0.003      0.301      0.436        110 4.0253e+01 0.0000e+00
      0.306    21.1491     5.5264     62.199  34.821885     37.735      7.274   174.5100     4.6704     1.9913     0.0237     -0.006      0.301      0.436        111 4.0285e+01 0.0000e+00
      0.308    21.1518     5.5154     62.079  34.839588     37.734      7.272   175.2671     4.6340     1.8302     0.0237     -0.007      0.301      0.436        112 4.0489e+01 0.0000e+00
      0.307    21.1544     5.5000     61.908  34.872791     37.792      7.271   175.8350     4.6340     1.9645     0.0237     -0.006      0.301      0.436        113 4.0029e+01 0.0000e+00
      0.306    21.1562     5.4799     61.684  34.839877     37.729      7.269   176.2893     4.6543     2.0987     0.0237     -0.004      0.299      0.434        114 4.0374e+01 0.0000e+00
      0.301    21.1581     5.4608     61.472  34.821233     37.727      7.266   176.7057     4.6502     2.1122     0.0237     -0.004      0.296      0.430        115 4.0479e+01 0.0000e+00
      0.300    21.1602     5.4340     61.172  34.836677     37.726      7.263   176.7814     4.6381     2.1793     0.0237     -0.004      0.295      0.428        116 3.9905e+01 0.0000e+00
      0.302    21.1610     5.4096     60.900  34.820656     37.724      7.264   177.1978     4.6381     2.1659     0.0237     -0.003      0.297      0.430        117 3.9810e+01 0.0000e+00
      0.306    21.1614     5.3853     60.627  34.781858     37.662      7.262   177.8793     4.4723     2.2733     0.0237     -0.002      0.300      0.434        118 3.9465e+01 0.0000e+00
      0.308    21.1616     5.3563     60.301  34.766333     37.661      7.263   178.1821     4.4683     2.1122     0.0237     -0.001      0.302      0.438        119 3.9733e+01 0.0000e+00
      0.310    21.1624     5.3372     60.085  34.780661     37.661      7.259   178.7879     4.4723     2.0987     0.0237      0.001      0.304      0.440        120 3.9682e+01 0.0000e+00
      0.310    21.1646     5.3194     59.885  34.823340     37.721      7.258   179.5450     4.4521     2.1793     0.0237      0.003      0.304      0.441        121 3.9716e+01 0.0000e+00
      0.310    21.1669     5.2996     59.661  34.831849     37.721      7.259   179.7721     4.4238     2.0853     0.0237      0.005      0.304      0.441        122 3.9644e+01 0.0000e+00
      0.310    21.1696     5.2806     59.448  34.829387     37.719      7.258   180.0371     4.3955     2.2330     0.0237      0.005      0.304      0.441        123 3.9442e+01 0.0000e+00
      0.310    21.1720     5.2659     59.285  34.826402     37.717      7.256   180.6050     4.3995     2.0450     0.0237      0.005      0.304      0.441        124 3.9247e+01 0.0000e+00
      0.310    21.1740     5.2482     59.088  34.835561     37.715      7.256   181.3243     4.4238     2.1793     0.0237      0.003      0.304      0.441        125 3.9423e+01 0.0000e+00
      0.311    21.1759     5.2260     58.841  34.817987     37.713      7.252   181.2486     4.5168     2.3002     0.0237      0.002      0.305      0.442        126 3.9605e+01 0.0000e+00
      0.311    21.1773     5.2085     58.646  34.788957     37.651      7.247   181.5136     4.5006     2.1256     0.0237      0.001      0.305      0.442        127 3.9493e+01 0.0000e+00
      0.311    21.1781     5.1812     58.342  34.812373     37.709      7.246   182.0057     4.5572     2.1524     0.0237      0.001      0.305      0.442        128 3.9884e+01 0.0000e+00
      0.312    21.1782     5.1639     58.148  34.788846     37.648      7.245   182.0436     4.5491     2.1256     0.0237      0.001      0.306      0.443        129 3.9833e+01 0.0000e+00
      0.312    21.1779     5.1437     57.921  34.818237     37.708      7.244   182.7250     4.4723     2.1659     0.0237      0.001      0.306      0.444        130 3.9830e+01 0.0000e+00
      0.313    21.1775     5.1274     57.738  34.835111     37.708      7.242   183.3686     4.4723     2.1927     0.0237      0.002      0.307      0.446        131 3.9577e+01 0.0000e+00
      0.314    21.1773     5.1110     57.552  34.827160     37.708      7.241   183.7472     4.4642     2.1927     0.0237      0.002      0.308      0.447        132 3.9433e+01 0.0000e+00
      0.315    21.1781     5.0931     57.349  34.828132     37.708      7.237   184.3529     4.4440     2.0853     0.0237      0.002      0.308      0.447        133 3.9450e+01 0.0000e+00
      0.314    21.1797     5.0809     57.212  34.833902     37.708      7.232   184.7693     4.4723     2.1122     0.0237      0.002      0.307      0.446        134 3.9329e+01 0.0000e+00
      0.312    21.1819     5.0708     57.099  34.879293     37.768      7.225   184.9964     4.2620     1.9107     0.0237      0.001      0.306      0.444        135 3.9422e+01 0.0000e+00
      0.310    21.1843     5.0591     56.971  34.830956     37.706      7.214   185.3372     4.2742     1.9510     0.0237      0.000      0.304      0.442        136 3.9389e+01 0.0000e+00
      0.309    21.1864     5.0428     56.789  34.834741     37.705      7.196   185.4129     4.2984     1.9645     0.0237     -0.001      0.303      0.440        137 3.9698e+01 0.0000e+00
      0.309    21.1886     5.0375     56.730  34.874584     37.763      7.181   185.6022     4.2742     1.9376     0.0237     -0.002      0.303      0.440        138 3.9962e+01 0.0000e+00
      0.310    21.1904     5.0219     56.557  34.840686     37.701      7.163   185.8293     4.3267     2.0853     0.0237     -0.003      0.304      0.442        139 3.9939e+01 0.0000e+00
      0.313    21.1910     5.0043     56.360  34.817610     37.699      7.149   186.1322     4.3469     2.1659     0.0237     -0.002      0.307      0.445        140 4.0001e+01 0.0000e+00
      0.315    21.1905     4.9936     56.242  34.784673     37.637      7.142   186.4729     4.3429     2.1927     0.0237     -0.001      0.309      0.448        141 3.9684e+01 0.0000e+00
      0.317    21.1896     4.9780     56.068  34.763046     37.637      7.142   187.2300     4.3429     2.1390     0.0237      0.002      0.311      0.451        142 3.9273e+01 0.0000e+00
      0.320    21.1887     4.9652     55.927  34.785209     37.637      7.144   187.1922     4.3429     2.2196     0.0237      0.004      0.313      0.455        143 3.9081e+01 0.0000e+00
      0.322    21.1887     4.9554     55.819  34.816406     37.698      7.145   187.6843     4.3510     2.1659     0.0237      0.006      0.315      0.457        144 3.8586e+01 0.0000e+00
      0.322    21.1903     4.9406     55.654  34.842851     37.699      7.141   188.4036     4.3267     2.1659     0.0237      0.007      0.315      0.457        145 3.8437e+01 0.0000e+00
      0.321    21.1925     4.9271     55.502  34.811613     37.699      7.145   188.4793     4.3672     2.2330     0.0237      0.007      0.314      0.456        146 3.8712e+01 0.0000e+00
      0.320    21.1940     4.9214     55.439  34.795967     37.637      7.145   188.9715     4.2822     2.0182     0.0237      0.005      0.313      0.455        147 3.8760e+01 0.0000e+00
      0.318    21.1952     4.9093     55.302  34.862323     37.757      7.149   188.8200     4.2620     1.9376     0.0237      0.003      0.311      0.452        148 3.9084e+01 0.0000e+00
      0.317    21.1966     4.8960     55.152  34.847662     37.695      7.155   189.1607     4.2701     2.0316     0.0237      0.000      0.310      0.450        149 3.9470e+01 0.0000e+00
      0.316    21.1984     4.8898     55.080  34.873524     37.754      7.160   189.8800     4.2903     1.9376     0.0237     -0.002      0.310      0.450        150 3.9517e+01 0.0000e+00
      0.317    21.2002     4.8758     54.922  34.889450     37.753      7.167   190.3343     4.3591     2.0853     0.0237     -0.003      0.310      0.450        151 3.9608e+01 0.0000e+00
      0.316    21.2020     4.8692     54.850  34.827843     37.691      7.171   190.1072     4.3591     2.1659     0.0237     -0.003      0.310      0.449        152 3.9421e+01 0.0000e+00
      0.315    21.2044     4.8570     54.714  34.831565     37.690      7.171   190.5993     4.3227     2.1122     0.0237     -0.003      0.309      0.448        153 3.9249e+01 0.0000e+00
      0.314    21.2069     4.8434     54.563  34.884817     37.749      7.176   190.4479     4.3186     2.0853     0.0237     -0.003      0.309      0.448        154 3.9440e+01 0.0000e+00
      0.316    21.2086     4.8324     54.441  34.880199     37.747      7.180   191.0157     4.3186     2.1524     0.0237     -0.002      0.310      0.449        155 3.9392e+01 0.0000e+00
      0.317    21.2094     4.8220     54.326  34.837310     37.684      7.186   191.5836     4.3914     2.1122     0.0237     -0.001      0.311      0.451        156 3.9108e+01 0.0000e+00
      0.319    21.2098     4.8075     54.164  34.878875     37.743      7.188   191.5836     4.4278     2.1524     0.0237      0.000      0.312      0.454        157 3.8755e+01 0.0000e+00
      0.321    21.2096     4.7961     54.036  34.828471     37.682      7.189   192.0379     4.3955     2.1659     0.0237      0.002      0.315      0.457        158 3.8760e+01 0.0000e+00
      0.323    21.2087     4.7906     53.975  34.781409     37.621      7.192   192.0757     4.4157     2.1256     0.0237      0.003      0.317      0.460        159 3.8662e+01 0.0000e+00
      0.326    21.2078     4.7757     53.808  34.818814     37.682      7.196   192.6436     4.4399     2.1793     0.0237      0.005      0.319      0.463        160 3.8555e+01 0.0000e+00
      0.328    21.2077     4.7727     53.773  34.781921     37.622      7.195   193.5900     4.4804     2.1390     0.0237      0.007      0.321      0.466        161 3.8349e+01 0.0000e+00
      0.329    21.2090     4.7582     53.609  34.827324     37.684      7.190   193.5900     4.4440     2.0853     0.0237      0.008      0.322      0.467        162 3.8378e+01 0.0000e+00
      0.327    21.2109     4.7486     53.499  34.880940     37.744      7.179   193.7793     4.4480     2.0450     0.0237      0.007      0.321      0.465        163 3.8591e+01 0.0000e+00
      0.325    21.2130     4.7393     53.395  34.833822     37.683      7.175   193.6658     4.5491     2.2062     0.0237      0.005      0.319      0.463        164 3.8422e+01 0.0000e+00
      0.324    21.2148     4.7334     53.328  34.826645     37.681      7.176   194.4229     4.5370     2.1793     0.0237      0.003      0.318      0.461        165 3.8660e+01 0.0000e+00
      0.323    21.2163     4.7198     53.177  34.830558     37.679      7.177   194.5743     4.5653     2.1659     0.0237      0.001      0.317      0.460        166 3.8676e+01 0.0000e+00
      0.324    21.2175     4.7054     53.016  34.828954     37.678      7.180   194.7258     4.4885     2.1659     0.0237     -0.001      0.317      0.460        167 3.8892e+01 0.0000e+00
      0.324    21.2186     4.7094     53.062  34.828640     37.677      7.180   195.2179     4.4642     2.1659     0.0237     -0.002      0.318      0.461        168 3.9173e+01 0.0000e+00
      0.325    21.2192     4.6965     52.919  34.830947     37.676      7.181   195.1422     4.4602     2.1927     0.0237     -0.002      0.318      0.462        169 3.8848e+01 0.0000e+00
      0.325    21.2194     4.6944     52.896  34.826082     37.675      7.180   195.4829     4.4925     2.1390     0.0237     -0.001      0.319      0.463        170 3.8918e+01 0.0000e+00
      0.326    21.2192     4.6913     52.855  34.834692     37.674      7.180   195.7100     4.4683     2.1524     0.0237      0.000      0.320      0.464        171 3.8904e+01 0.0000e+00
      0.326    21.2182     4.7858     53.908  34.820231     37.674      7.184   196.1265     4.5370     2.0853     0.0237      0.001      0.320      0.464        172 3.8864e+01 0.0000e+00
      0.326    21.2171     5.1336     57.812  34.784766     37.614      7.181   196.2779     4.5653     2.2330     0.0237      0.002      0.320      0.465        173 3.8744e+01 0.0000e+00
      0.327    21.2164     5.7486     64.720  34.819514     37.675      7.178   197.1486     4.5774     2.1659     0.0237      0.002      0.321      0.466        174 3.8218e+01 0.0000e+00
      0.328    21.2169     6.4320     72.387  34.776988     37.615      7.177   197.4136     4.5451     2.1927     0.0237      0.002      0.321      0.466        175 3.8487e+01 0.0000e+00
      0.327    21.2180     7.1019     79.889  34.778377     37.616      7.167   197.4136     4.5249     2.1659     0.0237      0.002      0.320      0.465        176 3.8710e+01 0.0000e+00
      0.325    21.2194     7.7033     86.617  34.817787     37.676      7.163   197.6786     4.5693     2.0987     0.0237      0.001      0.319      0.463        177 3.8748e+01 0.0000e+00
      0.325    21.2208     8.1914     92.077  34.787257     37.615      7.162   197.8300     4.6138     2.1927     0.0237     -0.000      0.319      0.462        178 3.9111e+01 0.0000e+00
      0.325    21.2227     8.5345     95.915  34.816370     37.674      7.160   198.5493     4.6179     2.2196     0.0237     -0.001      0.318      0.461        179 3.9283e+01 0.0000e+00
      0.324    21.2237     8.7313     98.120  34.840869     37.673      7.163   198.8522     4.6381     2.1659     0.0237     -0.001      0.317      0.460        180 3.9056e+01 0.0000e+00
      0.323    21.2178     8.7346     98.166  34.756768     37.611      7.165   198.4358     4.5046     2.0719     0.0237     -0.002      0.317      0.460        181 3.8872e+01 0.0000e+00
      0.324    21.2070     8.6475     97.188  34.416868     37.217      7.163   199.4579     4.5168     2.0316     0.0235     -0.002      0.317      0.459        182 3.8702e+01 0.0000e+00
      0.321    21.1949     8.5329     95.877  34.166577     36.950      7.158   199.3822     4.5774     2.2196     0.0234     -0.003      0.315      0.457        183 3.8828e+01 0.0000e+00
      0.318    21.1806     8.4246     94.630  34.208218     37.019      7.152   199.4201     4.5410     2.2062     0.0234     -0.003      0.313      0.453        184 3.8987e+01 0.0000e+00
      0.317    21.1617     8.3222     93.463  34.216770     37.029      7.147   199.4958     4.4642     2.1927     0.0234     -0.004      0.312      0.453        185 3.8535e+01 0.0000e+00
      0.320    21.1380     8.2328     92.515  34.185596     37.010      7.149   199.6093     4.4480     2.0853     0.0234     -0.004      0.313      0.455        186 3.8494e+01 0.0000e+00
      0.322    21.1157     8.1450     91.614  34.217364     37.055      7.147   200.5558     4.4804     2.1659     0.0234     -0.003      0.314      0.457        187 3.8916e+01 0.0000e+00
      0.321    21.0998     8.0771     90.888  34.206900     37.074      7.147   200.7451     4.4683     2.1927     0.0234     -0.002      0.314      0.456        188 3.9540e+01 0.0000e+00
      0.319    21.0900     8.0493     90.553  34.228284     37.092      7.148   200.6693     4.5815     2.1390     0.0234     -0.002      0.313      0.454        189 3.9235e+01 0.0000e+00
      0.318    21.0867     8.0260     90.238  34.279729     37.196      7.150   201.0858     4.5936     2.1524     0.0235     -0.001      0.312      0.453        190 3.9100e+01 0.0000e+00
      0.316    21.0914     8.0146     90.063  34.231854     37.113      7.151   201.5779     4.5977     2.2196     0.0234     -0.001      0.310      0.450        191 3.9680e+01 0.0000e+00
      0.313    21.0911     7.9956     89.838  34.287869     37.207      7.153   201.0101     4.5977     2.0987     0.0235     -0.002      0.309      0.448        192 3.9304e+01 0.0000e+00
      0.317    21.0797     7.9788     89.663  34.298990     37.203      7.161   201.2751     4.6462     2.1524     0.0235     -0.002      0.311      0.452        193 3.8781e+01 0.0000e+00
      0.322    21.0627     7.9580     89.456  34.218015     37.112      7.162   201.4643     4.6664     2.1256     0.0234     -0.001      0.316      0.458        194 3.8553e+01 0.0000e+00
      0.327    21.0549     7.9414     89.279  34.210704     37.121      7.164   202.6379     4.6381     2.1793     0.0234      0.001      0.319      0.463        195 3.8574e+01 0.0000e+00
      0.326    21.0847     7.9284     89.120  34.159812     37.074      7.161   202.8272     4.6340     2.2196     0.0234      0.004      0.318      0.462        196 3.8665e+01 0.0000e+00
      0.320    21.1323     7.9049     88.850  34.162732     37.081      7.145   202.2215     4.6381     2.1659     0.0234      0.004      0.314      0.456        197 3.8762e+01 0.0000e+00
      0.316    21.1534     7.8842     88.604  34.236725     37.148      7.143   202.3729     4.7311     2.0987     0.0234      0.002      0.311      0.452        198 3.8455e+01 0.0000e+00
      0.317    21.1413     7.8599     88.321  34.215996     37.078      7.139   202.9408     4.7473     2.1122     0.0234      0.001      0.311      0.452        199 3.8407e+01 0.0000e+00
      0.320    21.1115     7.8445     88.142  34.218168     37.061      7.138   203.1679     4.7230     2.1122     0.0234      0.000      0.314      0.456        200 3.8816e+01 0.0000e+00
      0.323    21.0857     7.8306     87.990  34.293327     37.162      7.143   203.5086     4.7149     2.1122     0.0235     -0.001      0.315      0.458        201 3.8943e+01 0.0000e+00
      0.322    21.0784     7.8327     88.022  34.300403     37.186      7.150   203.9251     4.8564     2.1122     0.0235     -0.002      0.315      0.456        202 3.9126e+01 0.0000e+00
      0.317    21.0860     7.8423     88.124  34.298341     37.208      7.158   204.0008     4.8281     2.1524     0.0235     -0.003      0.311      0.451        203 3.9319e+01 0.0000e+00
      0.312    21.1012     7.8556     88.275  34.295904     37.213      7.152   204.4929     4.8484     2.1390     0.0235     -0.003      0.307      0.445        204 3.9162e+01 0.0000e+00
      0.310    21.1065     7.8659     88.417  34.303441     37.207      7.151   204.5308     4.8120     2.0987     0.0235     -0.003      0.304      0.442        205 3.8768e+01 0.0000e+00
      0.308    21.1004     7.8696     88.484  34.288958     37.195      7.153   204.7958     4.7311     1.9510     0.0235     -0.005      0.302      0.439        206 3.9383e+01 0.0000e+00
      0.306    21.0954     7.8720     88.517  34.224953     37.099      7.156   204.6444     4.7311     1.9645     0.0234     -0.008      0.300      0.437        207 3.9712e+01 0.0000e+00
      0.306    21.0885     7.8709     88.512  34.294124     37.196      7.153   204.9094     4.7230     1.9376     0.0235     -0.009      0.300      0.436        208 4.0008e+01 0.0000e+00
      0.306    21.0828     7.8731     88.531  34.291847     37.199      7.154   205.3636     4.7311     1.9645     0.0235     -0.009      0.300      0.436        209 3.9962e+01 0.0000e+00
      0.307    21.0798     7.8789     88.569  34.227788     37.114      7.159   205.7044     4.7230     2.0987     0.0234     -0.007      0.300      0.436        210 3.9529e+01 0.0000e+00
      0.307    21.0818     7.8767     88.555  34.195910     37.118      7.160   205.8558     4.7190     2.1927     0.0234     -0.004      0.300      0.435        211 3.9775e+01 0.0000e+00
      0.305    21.0861     7.8753     88.559  34.242554     37.121      7.160   206.2722     4.7392     2.1122     0.0234     -0.003      0.300      0.435        212 3.9527e+01 0.0000e+00
      0.305    21.0833     7.8757     88.579  34.318023     37.271      7.162   206.3479     4.7594     2.0450     0.0235     -0.002      0.300      0.436        213 3.9544e+01 0.0000e+00
      0.309    21.0846     7.8821     88.643  34.250270     37.116      7.165   206.1208     4.8807     2.1256     0.0234     -0.000      0.304      0.441        214 3.9289e+01 0.0000e+00
      0.315    21.0994     7.8874     88.662  34.267557     37.209      7.167   206.7265     4.8564     2.1927     0.0235      0.003      0.309      0.447        215 3.8833e+01 0.0000e+00
      0.319    21.1137     7.8872     88.648  34.237198     37.118      7.166   207.1808     4.8888     2.1927     0.0234      0.005      0.312      0.452        216 3.8919e+01 0.0000e+00
      0.319    21.1176     7.8786     88.615  34.199082     37.105      7.159   207.4079     4.9171     2.2062     0.0234      0.007      0.312      0.453        217 3.8481e+01 0.0000e+00
      0.318    21.1222     7.8766     88.660  34.226017     37.094      7.152   206.9915     4.8969     2.2062     0.0234      0.008      0.313      0.454        218 3.8158e+01 0.0000e+00
      0.320    21.1174     7.8827     88.768  34.203671     37.091      7.152   207.3322     4.5249     2.0719     0.0234      0.008      0.314      0.456        219 3.8376e+01 0.0000e+00
      0.323    21.1037     7.8939     88.907  34.226888     37.087      7.155   207.5594     4.5370     2.1390     0.0234      0.009      0.316      0.459        220 3.8287e+01 0.0000e+00
      0.325    21.1084     7.9188     89.174  34.226778     37.120      7.156   207.9001     4.5370     2.1390     0.0234      0.008      0.317      0.460        221 3.8758e+01 0.0000e+00
      0.323    21.1210     7.9419     89.422  34.174155     37.042      7.158   208.2408     4.5451     2.1390     0.0234      0.006      0.316      0.460        222 3.9513e+01 0.0000e+00
      0.321    21.1291     7.9703     89.715  34.203415     37.098      7.159   207.6729     4.6017     2.1256     0.0234      0.003      0.316      0.459        223 3.9497e+01 0.0000e+00
      0.323    21.1247     7.9888     89.897  34.220021     37.088      7.164   207.9758     4.5896     2.2062     0.0234      0.002      0.319      0.463        224 3.8320e+01 0.0000e+00
      0.332    21.1015     7.9970     90.006  34.153484     37.021      7.157   208.1272     4.6057     2.1659     0.0234      0.005      0.325      0.472        225 3.7282e+01 0.0000e+00
      0.341    21.0956     8.0001     90.062  34.167591     37.024      7.146   208.6951     4.6138     2.1390     0.0234      0.008      0.330      0.479        226 3.6683e+01 0.0000e+00
      0.336    21.1307     8.0015     90.098  34.232123     37.134      7.146   208.6194     4.8726     2.1659     0.0234      0.009      0.328      0.475        227 3.7251e+01 0.0000e+00
      0.326    21.1705     8.0012     90.104  34.221461     37.109      7.136   208.6194     4.8281     2.0987     0.0234      0.006      0.323      0.467        228 3.8002e+01 0.0000e+00
      0.326    21.1928     7.9979     90.076  34.210516     37.080      7.136   208.9222     4.8443     2.0584     0.0234      0.004      0.322      0.465        229 3.6930e+01 0.0000e+00
      0.331    21.2000     7.9986     90.092  34.216076     37.048      7.144   209.1872     4.8281     2.2330     0.0234      0.003      0.325      0.470        230 3.6182e+01 0.0000e+00
      0.336    21.1930     7.9952     90.068  34.155213     36.970      7.150   209.0737     4.7513     2.1122     0.0234      0.003      0.330      0.479        231 3.5751e+01 0.0000e+00
      0.344    21.1852     7.9956     90.086  34.167623     36.963      7.155   209.7551     4.7230     2.2599     0.0234      0.004      0.338      0.490        232 3.4396e+01 0.0000e+00
      0.355    21.1701     7.9871     90.007  34.230285     37.061      7.160   209.3008     4.7230     2.1927     0.0234      0.007      0.348      0.505        233 3.4763e+01 0.0000e+00
      0.365    21.1566     7.9904     90.069  34.225514     37.036      7.139   210.2851     4.7311     2.1524     0.0234      0.013      0.356      0.517        234 3.5704e+01 0.0000e+00
      0.370    21.1642     7.9900     90.081  34.203220     37.048      7.129   209.8308     4.9494     2.1659     0.0234      0.021      0.360      0.523        235 4.4811e+01 0.0000e+00
      0.368    21.1779     7.9915     90.099  34.169067     37.000      7.128   210.2472     4.9697     2.0450     0.0234      0.026      0.353      0.513        236 6.1146e+01 0.0000e+00
      0.343    21.1880     7.9779     89.937  34.149397     36.992      7.114   210.4744     4.9737     2.1122     0.0234      0.018      0.327      0.474        237 5.2114e+02 0.0000e+00
      0.289    21.1945     7.9717     89.852  34.227697     37.043      7.109   210.2094     4.9656     2.1122     0.0234     -0.005      0.274      0.397        238 9.2192e+02 0.0000e+00
      0.205    21.1988     7.9742     89.889  34.308867     37.155      7.113   210.3229     4.9333     2.1659     0.0235     -0.046      0.197      0.286        239 9.9969e+02 0.0000e+00
      0.108    21.2039     7.9738     89.906  34.315281     37.120      7.114   210.2472     5.2123     2.1659     0.0235     -0.103      0.110      0.161        240 1.3414e+03 0.0000e+00
      0.026    21.2118     7.9804     90.006  34.338334     37.176      7.121   210.0201     5.2204     2.2599     0.0235     -0.163      0.034      0.050        241 1.4613e+03 0.0000e+00
     -0.027    21.2198     7.9851     90.073  34.369143     37.173      7.134   210.2472     5.2082     2.1927     0.0235     -0.213     -0.024     -0.035        242 1.4580e+03 0.0000e+00
     -0.073    21.2296     7.9972     90.216  34.336249     37.166      7.137   210.2472     5.2123     2.1256     0.0235     -0.247     -0.071     -0.103        243 1.4916e+03 0.0000e+00
     -0.119    21.2432     8.0055     90.319  34.319954     37.099      7.142   210.0201     4.5936     2.1122     0.0235     -0.262     -0.112     -0.162        244 1.4637e+03 0.0000e+00
     -0.150    21.2520     8.0210     90.500  34.419073     37.242      7.139   211.3072     4.5936     2.2196     0.0235     -0.254     -0.142     -0.207        245 1.4530e+03 0.0000e+00
     -0.168    21.2536     8.0269     90.560  34.420485     37.201      7.140   210.0958     4.5936     2.1390     0.0235     -0.226     -0.160     -0.232        246 1.4749e+03 0.0000e+00
     -0.170    21.2475     8.0231     90.500  34.347848     37.134      7.144   211.7237     4.5855     2.2062     0.0235     -0.181     -0.165     -0.239        247 1.5171e+03 0.0000e+00
     -0.168    21.2403     8.0189     90.441  34.301872     37.072      7.138   210.7394     3.9426     1.9913     0.0235     -0.134     -0.162     -0.236        248 1.5015e+03 0.0000e+00
     -0.161    21.2445     8.0111     90.314  34.299764     37.077      7.136   211.1558     3.9628     2.0182     0.0235     -0.092     -0.156     -0.227        249 1.4698e+03 0.0000e+00
     -0.150    21.2573     8.0128     90.281  34.320819     37.114      7.135   218.3108     3.9507     1.9645     0.0235     -0.057     -0.147     -0.213        250 1.4798e+03 0.0000e+00
     -0.138    21.2716     8.0129     90.233  34.305327     37.079      7.132   212.2915     3.9628     1.9242     0.0235     -0.024     -0.138     -0.201        251 1.4938e+03 0.0000e+00
     -0.135    21.2798     8.0094     90.158  34.289384     37.070      7.119   212.2915     3.4857     1.9645     0.0235      0.001     -0.133     -0.192        252 1.4706e+03 0.0000e+00
     -0.131    21.2837     8.0091     90.137  34.222031     36.967      7.119   222.7401     3.5099     1.9376     0.0234      0.017     -0.128     -0.186        253 1.4825e+03 0.0000e+00
     -0.126    21.2886     8.0072     90.123  34.211204     36.961      7.122   222.1723     3.5220     2.0584     0.0234      0.025     -0.121     -0.174        254 1.4840e+03 0.0000e+00
     -0.110    21.2919     8.0071     90.104  34.302853     37.048      7.126   223.0430     3.5059     1.9107     0.0235      0.029     -0.106     -0.153        255 1.4794e+03 0.0000e+00
     -0.087    21.2877     7.9981     89.970  34.285910     37.044      7.127   222.5508     3.1905     2.1659     0.0235      0.035     -0.086     -0.125        256 1.4898e+03 0.0000e+00
     -0.067    21.2798     7.9959     89.933  34.172976     36.891      7.130   221.8315     3.2228     2.1659     0.0234      0.041     -0.064     -0.094        257 1.4681e+03 0.0000e+00
     -0.043    21.2714     7.9939     89.888  34.206150     36.954      7.131   220.8851     3.2511     2.1927     0.0234      0.049     -0.038     -0.056        258 1.4823e+03 0.0000e+00
     -0.006    21.2500     8.0007     89.918  34.214971     36.961      7.126   218.4244     3.2390     2.2464     0.0234      0.063     -0.006     -0.009        259 1.4415e+03 0.0000e+00
      0.030    21.2200     7.9961     89.849  34.161999     36.906      7.119   214.1465     3.2390     2.1390     0.0234      0.081      0.026      0.039        260 1.5022e+03 0.0000e+00
      0.057    21.1927     7.9897     89.811  34.153454     36.924      7.110   213.3515     3.7889     2.1793     0.0234      0.096      0.056      0.082        261 1.4040e+03 0.0000e+00
      0.086    21.1715     7.9863     89.721  34.136649     36.918      7.111   213.7301     3.8415     2.1927     0.0234      0.108      0.084      0.122        262 1.5405e+03 0.0000e+00
      0.112    21.1632     7.9679     89.369  34.153270     36.970      7.111   213.3894     3.8496     2.2196     0.0234      0.113      0.109      0.158        263 1.3515e+03 0.0000e+00
      0.133    21.1658     7.9407     88.968  34.162438     36.987      7.112   213.5408     3.8253     2.1659     0.0234      0.114      0.132      0.192        264 5.4008e+02 0.0000e+00
      0.160    21.1560     7.9096     88.558  34.154907     36.994      7.115   213.8058     4.0639     2.1793     0.0234      0.113      0.158      0.229        265 1.2456e+03 0.0000e+00
      0.191    21.1383     7.8667     88.023  34.103335     36.930      7.115   213.9951     4.0720     2.1659     0.0234      0.111      0.187      0.271        266 1.9982e+03 0.0000e+00
      0.221    21.1301     7.8356     87.627  34.107995     36.939      7.115   213.7301     4.1205     2.2464     0.0234      0.108      0.214      0.311        267 1.5086e+03 0.0000e+00
      0.243    21.1171     7.7976     87.171  34.119456     36.984      7.112   213.5030     4.0962     2.2062     0.0234      0.105      0.239      0.347        268 6.9575e+02 0.0000e+00
      0.268    21.0913     7.7586     86.717  34.059423     36.899      7.114   214.2222     4.5936     2.2196     0.0233      0.104      0.267      0.387        269 4.2972e+02 0.0000e+00
      0.305    21.0830     7.7293     86.379  34.034431     36.909      7.109   213.9194     4.5693     2.0987     0.0233      0.106      0.304      0.440        270 5.3284e+02 0.0000e+00
      0.356    21.0996     7.6974     86.015  34.061596     36.930      7.109   214.0708     4.5815     2.1390     0.0233      0.115      0.350      0.507        271 1.9913e+02 0.0000e+00
      0.409    21.0695     7.6738     85.746  34.084938     36.998      7.112   214.5251     4.6219     2.1524     0.0234      0.129      0.399      0.579        272 9.1323e+01 0.0000e+00
      0.457    20.9899     7.6442     85.412  33.946076     36.801      7.117   214.7144     5.0869     2.1524     0.0233      0.142      0.443      0.643        273 1.0582e+02 0.0000e+00
      0.488    20.9325     7.6215     85.157  33.848882     36.734      7.122   215.1308     5.0788     2.0584     0.0233      0.152      0.477      0.692        274 7.3460e+01 0.0000e+00
      0.514    20.8977     7.6006     84.923  33.879697     36.831      7.124   216.2287     5.0708     2.1390     0.0233      0.156      0.505      0.732        275 7.5145e+01 0.0000e+00
      0.544    20.8659     7.5862     84.767  33.878102     36.875      7.125   216.1530     5.0708     2.1256     0.0233      0.158      0.533      0.772        276 5.8438e+01 0.0000e+00
      0.571    20.8388     7.5775     84.671  33.821237     36.843      7.121   216.9480     5.3336     2.1524     0.0233      0.152      0.560      0.812        277 6.0150e+01 0.0000e+00
      0.600    20.8199     7.5702     84.591  33.742895     36.776      7.117   217.2508     5.3417     2.1659     0.0232      0.141      0.588      0.852        278 5.0210e+01 0.0000e+00
      0.628    20.8092     7.5591     84.465  33.738369     36.798      7.111   217.4401     5.3498     2.1256     0.0232      0.127      0.613      0.889        279 4.7789e+01 0.0000e+00
      0.647    20.8028     7.5531     84.395  33.737916     36.813      7.104   217.6294     5.3215     2.2062     0.0232      0.114      0.636      0.922        280 4.2431e+01 0.0000e+00
      0.671    20.7989     7.5530     84.392  33.743468     36.822      7.097   218.2730     5.3296     2.2062     0.0232      0.106      0.658      0.954        281 3.9997e+01 0.0000e+00
      0.695    20.7957     7.5585     84.449  33.731464     36.827      7.090   218.5380     5.3093     2.1256     0.0232      0.102      0.682      0.989        282 3.7506e+01 0.0000e+00
      0.720    20.7938     7.5689     84.560  33.693546     36.769      7.088   219.2951     5.3538     2.1659     0.0232      0.100      0.704      1.021        283 3.5583e+01 0.0000e+00
      0.739    20.7926     7.5801     84.681  33.731348     36.833      7.079   219.4087     5.3174     2.1659     0.0232      0.096      0.721      1.046        284 3.4378e+01 0.0000e+00
      0.746    20.7929     7.5835     84.717  33.743733     36.834      7.073   219.3330     5.3174     2.2196     0.0232      0.088      0.731      1.061        285 3.3979e+01 0.0000e+00
      0.753    20.7951     7.5760     84.629  33.737444     36.835      7.066   219.4087     5.5034     2.2062     0.0232      0.079      0.740      1.073        286 3.4227e+01 0.0000e+00
      0.764    20.7964     7.5611     84.460  33.739175     36.835      7.072   219.2573     5.5196     2.2464     0.0232      0.069      0.752      1.092        287 3.4773e+01 0.0000e+00
      0.786    20.7966     7.5382     84.202  33.741580     36.833      7.078   220.4687     5.5479     2.0853     0.0232      0.064      0.770      1.118        288 3.5327e+01 0.0000e+00
      0.807    20.7955     7.5157     83.948  33.734451     36.832      7.086   220.5444     5.5236     2.1122     0.0232      0.060      0.790      1.146        289 3.5687e+01 0.0000e+00
      0.824    20.7943     7.4934     83.701  33.748046     36.832      7.090   220.5065     5.4145     2.1256     0.0232      0.058      0.808      1.171        290 3.5268e+01 0.0000e+00
      0.841    20.7932     7.4612     83.346  33.783973     36.894      7.091   220.7715     5.4104     2.1122     0.0232      0.058      0.825      1.196        291 3.4870e+01 0.0000e+00
      0.859    20.7902     7.4423     83.139  33.749053     36.834      7.092   220.8851     5.4104     2.1793     0.0232      0.062      0.843      1.223        292 3.4022e+01 0.0000e+00
      0.880    20.7870     7.4113     82.796  33.732193     36.835      7.094   221.7180     5.4185     2.1927     0.0232      0.068      0.862      1.250        293 3.3139e+01 0.0000e+00
      0.897    20.7847     7.3937     82.603  33.745645     36.837      7.086   221.8694     5.5681     2.0450     0.0232      0.072      0.880      1.276        294 3.2258e+01 0.0000e+00
      0.914    20.7829     7.3821     82.475  33.732313     36.840      7.084   221.7180     5.5843     2.2599     0.0232      0.073      0.896      1.301        295 3.0630e+01 0.0000e+00
      0.932    20.7810     7.3677     82.314  33.748787     36.842      7.084   222.0208     5.6005     2.1793     0.0232      0.071      0.915      1.327        296 2.9991e+01 0.0000e+00
      0.951    20.7792     7.3615     82.241  33.784458     36.904      7.085   222.1344     5.6086     2.2196     0.0232      0.071      0.937      1.358        297 2.9849e+01 0.0000e+00
      0.984    20.7778     7.3605     82.225  33.747233     36.845      7.084   222.3615     5.6530     2.1390     0.0232      0.075      0.964      1.398        298 2.9842e+01 0.0000e+00
      1.013    20.7768     7.3639     82.260  33.735802     36.846      7.081   223.1566     5.6369     2.0853     0.0232      0.081      0.989      1.433        299 3.0856e+01 0.0000e+00
      1.026    20.7775     7.3651     82.272  33.828340     36.939      7.072   223.0808     5.6328     2.1524     0.0233      0.084      1.001      1.452        300 3.0856e+01 0.0000e+00
      1.024    20.7801     7.3726     82.352  33.810005     36.940      7.065   223.4973     5.6409     2.1256     0.0233      0.079      1.002      1.454        301 3.1087e+01 0.0000e+00
      1.018    20.7828     7.3774     82.405  33.758620     36.848      7.062   223.3080     5.6611     2.1927     0.0232      0.069      0.998      1.448        302 3.1759e+01 0.0000e+00
      1.013    20.7849     7.3773     82.404  33.773665     36.906      7.064   223.1566     5.6450     2.1390     0.0232      0.055      0.994      1.442        303 3.1391e+01 0.0000e+00
      1.011    20.7870     7.3824     82.461  33.702314     36.782      7.069   223.6866     5.6369     2.0719     0.0232      0.038      0.994      1.442        304 3.1856e+01 0.0000e+00
      1.018    20.7882     7.3856     82.497  33.728792     36.841      7.074   223.6866     5.6733     2.1122     0.0232      0.022      0.999      1.449        305 3.2253e+01 0.0000e+00
      1.028    20.7879     7.3774     82.407  33.829679     36.931      7.080   224.1408     5.6611     2.1927     0.0233      0.010      1.009      1.463        306 3.1689e+01 0.0000e+00
      1.040    20.7857     7.3699     82.323  33.814006     36.930      7.081   224.4437     5.6530     2.1524     0.0233      0.006      1.020      1.479        307 3.1651e+01 0.0000e+00
      1.052    20.7826     7.3506     82.106  33.748298     36.839      7.088   224.2923     5.6530     2.2196     0.0232      0.012      1.031      1.495        308 3.1505e+01 0.0000e+00
      1.063    20.7812     7.3294     81.870  33.733518     36.841      7.086   224.7466     5.6328     2.1524     0.0232      0.021      1.041      1.510        309 3.1211e+01 0.0000e+00
      1.070    20.7800     7.3170     81.733  33.743432     36.843      7.088   224.7844     5.6490     2.2196     0.0232      0.030      1.049      1.520        310 3.1062e+01 0.0000e+00
      1.075    20.7778     7.3090     81.644  33.735961     36.844      7.086   224.7087     5.8957     2.1122     0.0232      0.035      1.055      1.530        311 3.0630e+01 0.0000e+00
      1.083    20.7773     7.3061     81.610  33.742817     36.845      7.089   224.4058     5.9118     2.2196     0.0232      0.037      1.063      1.543        312 3.0757e+01 0.0000e+00
      1.096    20.7778     7.3049     81.595  33.734901     36.847      7.089   224.9358     5.8876     2.1122     0.0232      0.037      1.075      1.560        313 3.1015e+01 0.0000e+00
      1.111    20.7777     7.3149     81.704  33.745812     36.848      7.088   224.7466     5.9078     2.1122     0.0232      0.038      1.089      1.580        314 3.1264e+01 0.0000e+00
      1.125    20.7780     7.3175     81.731  33.788550     36.908      7.092   225.3523     5.7218     2.1927     0.0232      0.039      1.102      1.598        315 3.1767e+01 0.0000e+00
      1.136    20.7786     7.3310     81.880  33.741027     36.847      7.088   225.6173     5.7137     2.1390     0.0232      0.041      1.114      1.615        316 3.1849e+01 0.0000e+00
      1.146    20.7781     7.3362     81.937  33.745641     36.847      7.085   225.9201     5.7299     2.1390     0.0232      0.043      1.125      1.631        317 3.2106e+01 0.0000e+00
      1.158    20.7775     7.3294     81.859  33.812463     36.938      7.087   226.1851     5.7016     2.0719     0.0233      0.046      1.135      1.646        318 3.2453e+01 0.0000e+00
      1.166    20.7780     7.3275     81.837  33.746837     36.847      7.083   226.6394     5.8512     2.1390     0.0232      0.047      1.143      1.657        319 3.2568e+01 0.0000e+00
      1.170    20.7791     7.3239     81.796  33.738345     36.847      7.083   226.9044     5.8512     2.1122     0.0232      0.044      1.149      1.667        320 3.2878e+01 0.0000e+00
      1.178    20.7792     7.3141     81.687  33.793375     36.908      7.082   226.6016     5.8229     2.1927     0.0232      0.040      1.159      1.682        321 3.3072e+01 0.0000e+00
      1.201    20.7782     7.2982     81.509  33.737664     36.846      7.083   227.0558     5.8512     2.1390     0.0232      0.040      1.177      1.708        322 3.3292e+01 0.0000e+00
      1.222    20.7771     7.2799     81.304  33.748366     36.846      7.073   227.7751     5.8107     2.1524     0.0232      0.043      1.196      1.734        323 3.3680e+01 0.0000e+00
      1.234    20.7758     7.2611     81.094  33.809713     36.938      7.064   227.4723     5.7865     2.2733     0.0233      0.047      1.208      1.753        324 3.3748e+01 0.0000e+00
      1.239    20.7745     7.2487     80.954  33.750286     36.848      7.059   227.4723     5.7824     2.1927     0.0232      0.049      1.216      1.764        325 3.3672e+01 0.0000e+00
      1.248    20.7733     7.2408     80.867  33.733356     36.849      7.056   227.5480     5.7865     2.3002     0.0232      0.049      1.224      1.776        326 3.4062e+01 0.0000e+00
      1.258    20.7722     7.2337     80.787  33.801127     36.911      7.052   227.5101     5.7865     2.2464     0.0232      0.049      1.235      1.791        327 3.3903e+01 0.0000e+00
      1.271    20.7714     7.2298     80.742  33.814225     36.942      7.055   227.5101     5.7258     2.2196     0.0233      0.049      1.247      1.809        328 3.3676e+01 0.0000e+00
      1.286    20.7709     7.2322     80.767  33.746711     36.852      7.054   227.8887     5.7056     2.1524     0.0232      0.048      1.261      1.829        329 3.4042e+01 0.0000e+00
      1.300    20.7707     7.2314     80.757  33.736869     36.852      7.055   228.0401     5.7380     2.1659     0.0232      0.045      1.275      1.849        330 3.3963e+01 0.0000e+00
      1.315    20.7706     7.2390     80.842  33.737507     36.853      7.057   228.3051     5.7218     2.1122     0.0232      0.045      1.288      1.869        331 3.3897e+01 0.0000e+00
      1.326    20.7704     7.2463     80.924  33.745917     36.853      7.054   228.6459     5.8350     2.1659     0.0232      0.048      1.299      1.884        332 3.3998e+01 0.0000e+00
      1.333    20.7702     7.2476     80.938  33.785715     36.914      7.052   228.9109     5.8471     2.1793     0.0232      0.049      1.306      1.895        333 3.3939e+01 0.0000e+00
      1.337    20.7696     7.2519     80.987  33.747291     36.853      7.051   228.7973     5.8593     2.2196     0.0232      0.047      1.312      1.904        334 3.4048e+01 0.0000e+00
      1.345    20.7690     7.2569     81.042  33.734425     36.853      7.054   228.9866     5.8269     2.1659     0.0232      0.043      1.319      1.914        335 3.4352e+01 0.0000e+00
      1.354    20.7693     7.2606     81.085  33.742417     36.854      7.054   228.7973     5.7501     2.1122     0.0232      0.039      1.329      1.927        336 3.4595e+01 0.0000e+00
      1.366    20.7695     7.2551     81.024  33.737345     36.854      7.056   228.9866     5.7744     2.2464     0.0232      0.036      1.339      1.942        337 3.4858e+01 0.0000e+00
      1.376    20.7686     7.2465     80.930  33.829703     36.946      7.058   229.3273     5.7824     2.1927     0.0233      0.034      1.350      1.957        338 3.5098e+01 0.0000e+00
      1.386    20.7674     7.2388     80.846  33.835068     36.976      7.056   229.4787     5.7582     2.1390     0.0233      0.034      1.360      1.972        339 3.4947e+01 0.0000e+00
      1.396    20.7667     7.2284     80.731  33.760323     36.855      7.058   229.6301     5.6975     2.1793     0.0232      0.035      1.370      1.987        340 3.5087e+01 0.0000e+00
      1.408    20.7666     7.2305     80.753  33.804099     36.947      7.059   230.2359     5.6975     2.1524     0.0233      0.038      1.380      2.001        341 3.5479e+01 0.0000e+00
      1.416    20.7667     7.2297     80.741  33.750934     36.856      7.056   230.0087     5.7137     2.0853     0.0232      0.040      1.387      2.012        342 3.5144e+01 0.0000e+00
      1.420    20.7666     7.2276     80.715  33.737520     36.856      7.052   230.4251     5.7137     2.2464     0.0232      0.038      1.392      2.019        343 3.5143e+01 0.0000e+00
      1.423    20.7671     7.2195     80.622  33.820793     36.948      7.049   229.9709     5.7218     2.1122     0.0233      0.035      1.397      2.026        344 3.5022e+01 0.0000e+00
      1.431    20.7673     7.2138     80.557  33.795581     36.917      7.046   230.1980     5.8916     2.1793     0.0232      0.032      1.403      2.035        345 3.4745e+01 0.0000e+00
      1.438    20.7674     7.2116     80.531  33.739242     36.856      7.044   230.3116     5.9118     2.1793     0.0232      0.029      1.409      2.043        346 3.4819e+01 0.0000e+00
      1.441    20.7680     7.2165     80.584  33.742628     36.856      7.039   230.9551     5.9361     2.2733     0.0232      0.026      1.410      2.046        347 3.4506e+01 0.0000e+00
      1.434    20.7693     7.2236     80.663  33.732055     36.855      7.040   230.5387     5.9321     2.1122     0.0232      0.020      1.407      2.041        348 3.4519e+01 0.0000e+00
      1.429    20.7707     7.2319     80.757  33.752399     36.855      7.037   230.3116     5.7056     2.0719     0.0232      0.013      1.406      2.040        349 3.4796e+01 0.0000e+00
      1.439    20.7710     7.2397     80.844  33.776622     36.915      7.040   230.4630     5.7056     2.1927     0.0232      0.010      1.415      2.054        350 3.5107e+01 0.0000e+00
      1.463    20.7704     7.2469     80.923  33.761222     36.853      7.040   230.9551     5.6813     2.1659     0.0232      0.014      1.435      2.082        351 3.5522e+01 0.0000e+00
      1.489    20.7686     7.2532     80.994  33.801219     36.944      7.039   230.9173     5.7056     2.1122     0.0233      0.023      1.458      2.115        352 3.5737e+01 0.0000e+00
      1.509    20.7669     7.2434     80.884  33.697191     36.792      7.039   231.1823     5.9806     2.3002     0.0232      0.034      1.478      2.144        353 3.5647e+01 0.0000e+00
      1.524    20.7654     7.2412     80.859  33.683096     36.794      7.029   231.6366     5.9765     2.1659     0.0232      0.045      1.492      2.165        354 3.5544e+01 0.0000e+00
      1.533    20.7642     7.2280     80.711  33.818760     36.948      7.023   231.5230     5.9765     2.1122     0.0233      0.055      1.505      2.183        355 3.5348e+01 0.0000e+00
      1.548    20.7636     7.2206     80.626  33.795258     36.918      7.022   231.8637     5.9644     2.2196     0.0232      0.064      1.521      2.206        356 3.5383e+01 0.0000e+00
      1.572    20.7629     7.2197     80.614  33.742000     36.858      7.017   231.9394     5.9361     2.2196     0.0232      0.070      1.543      2.237        357 3.5552e+01 0.0000e+00
      1.599    20.7627     7.2306     80.735  33.736762     36.859      7.007   232.2044     5.9684     2.1927     0.0232      0.072      1.568      2.274        358 3.5272e+01 0.0000e+00
      1.625    20.7628     7.2366     80.801  33.742466     36.859      6.998   232.1666     5.9523     2.2330     0.0232      0.074      1.596      2.314        359 3.5362e+01 0.0000e+00
      1.659    20.7628     7.2532     80.984  33.734901     36.859      6.990   232.6587     5.9482     2.1927     0.0232      0.080      1.626      2.358        360 3.5830e+01 0.0000e+00
      1.691    20.7626     7.2680     81.149  33.746177     36.859      6.986   232.7723     6.1504     2.2733     0.0232      0.089      1.655      2.400        361 3.5814e+01 0.0000e+00
      1.714    20.7624     7.2821     81.306  33.787747     36.920      6.986   233.3402     6.1504     2.3539     0.0232      0.099      1.676      2.431        362 3.5386e+01 0.0000e+00
      1.723    20.7621     7.2938     81.437  33.742480     36.860      6.981   233.1509     6.1545     2.3673     0.0232      0.102      1.688      2.448        363 3.5394e+01 0.0000e+00
      1.728    20.7618     7.2919     81.416  33.743199     36.860      6.983   232.9237     6.1383     2.2867     0.0232      0.096      1.697      2.461        364 3.5603e+01 0.0000e+00
      1.744    20.7614     7.2835     81.320  33.816508     36.951      6.986   232.9237     6.1625     2.2867     0.0233      0.087      1.710      2.481        365 3.5865e+01 0.0000e+00
      1.760    20.7602     7.2748     81.216  33.829182     36.952      6.990   233.2266     6.0453     2.1927     0.0233      0.077      1.726      2.503        366 3.5644e+01 0.0000e+00
      1.775    20.7592     7.2522     80.950  33.816393     36.952      6.997   233.4916     6.0574     2.1256     0.0233      0.067      1.743      2.528        367 3.5391e+01 0.0000e+00
      1.795    20.7588     7.2031     80.371  33.802768     36.922      7.003   233.2266     6.0655     2.1927     0.0232      0.060      1.764      2.560        368 3.5992e+01 0.0000e+00
      1.829    20.7577     7.0990     79.178  33.727517     36.862      6.999   233.6052     6.0251     2.1659     0.0232      0.061      1.793      2.601        369 3.6270e+01 0.0000e+00
      1.861    20.7565     6.9349     77.319  33.702453     36.802      6.997   233.9459     5.4953     2.2062     0.0232      0.070      1.822      2.642        370 3.6463e+01 0.0000e+00
      1.883    20.7560     6.6913     74.582  33.804305     36.955      6.996   234.3244     5.5277     2.1793     0.0233      0.082      1.843      2.673        371 3.6547e+01 0.0000e+00
      1.892    20.7557     6.3669     70.955  33.749043     36.864      6.985   234.4380     5.5520     2.2062     0.0232      0.087      1.854      2.688        372 3.6278e+01 0.0000e+00
      1.893    20.7555     5.9694     66.521  33.741571     36.865      6.977   234.0594     5.5034     2.0584     0.0232      0.083      1.859      2.695        373 3.6488e+01 0.0000e+00
      1.900    20.7563     5.5196     61.506  33.783948     36.926      6.981   233.8702     5.0465     2.0719     0.0232      0.076      1.867      2.707        374 3.6310e+01 0.0000e+00
      1.917    20.7549     5.1345     57.213  33.755618     36.865      6.986   234.1352     5.0667     2.1659     0.0232      0.068      1.882      2.730        375 3.6483e+01 0.0000e+00
      1.940    20.7509     4.8165     53.665  33.865795     37.017      6.990   234.3244     5.0910     2.1122     0.0233      0.061      1.903      2.760        376 3.6490e+01 0.0000e+00
      1.966    20.7414     4.5874     51.101  33.884078     37.018      6.997   234.0594     5.0667     2.1524     0.0233      0.056      1.928      2.795        377 3.5950e+01 0.0000e+00
      1.990    20.7224     4.4444     49.500  33.881143     37.022      6.995   234.8544     5.1476     2.1390     0.0233      0.058      1.950      2.828        378 3.6277e+01 0.0000e+00
      2.008    20.7018     4.3680     48.644  33.988074     37.151      6.994   234.5137     5.1435     2.2196     0.0233      0.064      1.971      2.859        379 3.6240e+01 0.0000e+00
      2.033    20.6833     4.3299     48.217  34.136536     37.320      6.992   234.7787     5.1152     2.1793     0.0234      0.074      1.994      2.893        380 3.6279e+01 0.0000e+00
      2.060    20.6689     4.3351     48.269  34.200542     37.428      6.991   234.7030     5.1597     2.1927     0.0234      0.085      2.019      2.928        381 3.6657e+01 0.0000e+00
      2.084    20.6612     4.3538     48.470  34.116019     37.321      6.990   235.5737     5.1476     2.2196     0.0234      0.091      2.039      2.957        382 3.6248e+01 0.0000e+00
      2.094    20.6573     4.3677     48.622  34.152764     37.394      6.971   235.2709     5.1314     2.1524     0.0234      0.090      2.049      2.972        383 3.5721e+01 0.0000e+00
      2.089    20.6551     4.3780     48.739  34.214132     37.462      6.959   235.0437     5.1718     2.1927     0.0234      0.080      2.050      2.973        384 3.6028e+01 0.0000e+00
      2.088    20.6544     4.3677     48.626  34.158275     37.403      6.959   235.2330     5.1799     2.1793     0.0234      0.066      2.054      2.978        385 3.6061e+01 0.0000e+00
      2.105    20.6488     4.3777     48.739  34.133312     37.375      6.961   235.4223     4.9009     2.2062     0.0234      0.055      2.071      3.003        386 3.5779e+01 0.0000e+00
      2.141    20.6378     4.3832     48.796  34.215543     37.467      6.961   235.7630     4.9252     2.1390     0.0234      0.053      2.098      3.043        387 3.5776e+01 0.0000e+00
      2.172    20.6301     4.3947     48.915  34.293190     37.563      6.958   236.0280     4.8888     2.1927     0.0235      0.055      2.126      3.084        388 3.5726e+01 0.0000e+00
      2.192    20.6249     4.4013     48.977  34.303592     37.573      6.954   236.4823     4.8969     2.2062     0.0235      0.059      2.147      3.114        389 3.5535e+01 0.0000e+00
      2.204    20.6210     4.4085     49.045  34.291572     37.579      6.947   236.0280     4.8888     2.2599     0.0235      0.065      2.161      3.134        390 3.5568e+01 0.0000e+00
      2.214    20.6155     4.3983     48.922  34.308153     37.583      6.945   235.9902     4.9737     2.1122     0.0235      0.072      2.174      3.152        391 3.5999e+01 0.0000e+00
      2.233    20.6082     4.3851     48.767  34.312616     37.617      6.939   236.4444     4.9414     2.1927     0.0235      0.079      2.189      3.174        392 3.5568e+01 0.0000e+00
      2.249    20.6057     4.3703     48.596  34.315675     37.591      6.932   236.8987     4.9778     2.0987     0.0235      0.079      2.201      3.192        393 3.5535e+01 0.0000e+00
      2.251    20.6079     4.3527     48.395  34.334005     37.658      6.913   236.4066     4.9737     2.2062     0.0235      0.069      2.206      3.199        394 3.5893e+01 0.0000e+00
      2.249    20.6097     4.3199     48.028  34.319464     37.599      6.908   236.7473     5.0465     2.0719     0.0235      0.053      2.207      3.201        395 3.5643e+01 0.0000e+00
      2.253    20.6106     4.2665     47.433  34.333772     37.658      6.907   236.5580     5.0101     2.2062     0.0235      0.041      2.215      3.212        396 3.5787e+01 0.0000e+00
      2.273    20.6069     4.2018     46.709  34.345856     37.626      6.907   236.5580     5.0101     2.2330     0.0235      0.036      2.235      3.241        397 3.5279e+01 0.0000e+00
      2.310    20.5971     4.1393     46.007  34.334083     37.656      6.904   237.3909     5.0222     2.1659     0.0235      0.042      2.267      3.288        398 3.4367e+01 0.0000e+00
      2.352    20.5851     4.0932     45.488  34.318766     37.598      6.896   237.6180     5.0182     2.2196     0.0235      0.054      2.302      3.340        399 3.3689e+01 0.0000e+00
      2.382    20.5730     4.0536     45.043  34.335264     37.667      6.886   237.3909     5.0222     2.0719     0.0235      0.068      2.332      3.382        400 3.3229e+01 0.0000e+00
      2.401    20.5628     4.0447     44.941  34.313558     37.616      6.883   237.4666     5.0465     2.1524     0.0235      0.083      2.354      3.415        401 3.3296e+01 0.0000e+00
      2.421    20.5546     4.0722     45.244  34.345783     37.687      6.876   237.6559     5.0061     2.1122     0.0235      0.096      2.374      3.445        402 3.2983e+01 0.0000e+00
      2.444    20.5476     4.1230     45.804  34.384132     37.726      6.870   237.9587     4.5693     2.1390     0.0235      0.105      2.393      3.472        403 3.2600e+01 0.0000e+00
      2.458    20.5417     4.1790     46.419  34.414121     37.764      6.862   238.0345     4.5896     2.1793     0.0235      0.105      2.407      3.492        404 3.2058e+01 0.0000e+00
      2.464    20.5394     4.2126     46.789  34.456750     37.831      6.854   238.0345     4.6179     2.1256     0.0236      0.093      2.415      3.503        405 3.2026e+01 0.0000e+00
      2.466    20.5383     4.1991     46.632  34.420052     37.775      6.842   238.1102     4.5815     2.1793     0.0235      0.075      2.423      3.514        406 3.2338e+01 0.0000e+00
      2.483    20.5336     4.1374     45.939  34.459793     37.838      6.839   237.5802     4.6017     2.2599     0.0236      0.061      2.439      3.537        407 3.1642e+01 0.0000e+00
      2.512    20.5261     4.0382     44.835  34.466608     37.839      6.838   238.2995     4.6098     2.2196     0.0236      0.057      2.465      3.575        408 3.0946e+01 0.0000e+00
      2.546    20.5185     3.9087     43.397  34.441229     37.812      6.830   238.7537     4.6381     2.1927     0.0235      0.061      2.493      3.615        409 3.0535e+01 0.0000e+00
      2.566    20.5126     3.7689     41.846  34.461723     37.849      6.824   238.8295     4.6057     2.1793     0.0236      0.066      2.513      3.644        410 3.0579e+01 0.0000e+00
      2.574    20.5089     3.6351     40.361  34.470765     37.855      6.821   238.0345     4.5855     2.0987     0.0236      0.069      2.524      3.660        411 3.0254e+01 0.0000e+00
      2.581    20.5057     3.5348     39.247  34.518951     37.922      6.817   238.0345     4.6745     2.0719     0.0236      0.071      2.533      3.674        412 2.9826e+01 0.0000e+00
      2.596    20.5005     3.4646     38.465  34.520385     37.925      6.816   238.3373     4.6947     2.1793     0.0236      0.073      2.547      3.693        413 2.9569e+01 0.0000e+00
      2.613    20.4941     3.4273     38.048  34.528295     37.927      6.812   238.5645     4.6704     2.1659     0.0236      0.071      2.562      3.715        414 2.8989e+01 0.0000e+00
      2.626    20.4892     3.4162     37.926  34.598079     38.024      6.810   238.1859     4.6624     2.2062     0.0236      0.065      2.576      3.736        415 2.8837e+01 0.0000e+00
      2.641    20.4817     3.4182     37.951  34.581825     37.999      6.808   238.5266     4.6098     2.3002     0.0236      0.057      2.592      3.759        416 2.8494e+01 0.0000e+00
      2.663    20.4733     3.4156     37.922  34.578182     38.003      6.800   238.7537     4.5977     2.3673     0.0236      0.054      2.608      3.783        417 2.8060e+01 0.0000e+00
      2.674    20.4704     3.4282     38.070  34.632273     38.070      6.792   238.3752     4.6057     2.3136     0.0236      0.056      2.620      3.801        418 2.8079e+01 0.0000e+00
      2.679    20.4706     3.4344     38.160  34.633142     38.077      6.782   237.9966     4.5936     2.3404     0.0236      0.056      2.629      3.814        419 2.7882e+01 0.0000e+00
      2.691    20.4718     3.4477     38.331  34.577104     38.018      6.784   238.4887     3.8981     2.2733     0.0236      0.056      2.641      3.831        420 2.7425e+01 0.0000e+00
      2.711    20.4722     3.4858     38.767  34.553727     37.987      6.781   238.8295     3.8860     2.2733     0.0236      0.055      2.653      3.848        421 2.6995e+01 0.0000e+00
      2.712    20.4712     3.5753     39.757  34.573263     38.017      6.779   238.1859     3.8981     2.3002     0.0236      0.050      2.660      3.858        422 2.7269e+01 0.0000e+00
      2.715    20.4686     3.7079     41.226  34.582448     38.017      6.779   238.4130     3.9143     2.3673     0.0236      0.045      2.666      3.867        423 2.7070e+01 0.0000e+00
      2.732    20.4652     3.8578     42.892  34.631268     38.079      6.774   239.0187     3.7566     2.2464     0.0236      0.041      2.674      3.878        424 2.6487e+01 0.0000e+00
      2.730    20.4671     3.9763     44.208  34.571822     38.020      6.765   238.0723     3.7647     2.2599     0.0236      0.035      2.676      3.880        425 2.7145e+01 0.0000e+00
      2.722    20.4699     4.0696     45.244  34.537802     37.961      6.766   238.3373     3.7687     2.3673     0.0236      0.028      2.674      3.878        426 2.6923e+01 0.0000e+00
      2.732    20.4704     4.1288     45.892  34.584637     38.052      6.761   238.8673     3.7768     2.2599     0.0236      0.024      2.673      3.877        427 2.6433e+01 0.0000e+00
      2.724    20.4815     4.1558     46.179  34.543192     37.957      6.757   238.5645     3.5382     2.2330     0.0236      0.015      2.661      3.860        428 2.7551e+01 0.0000e+00
      2.682    20.5085     4.1526     46.140  34.500407     37.957      6.758   238.3373     3.5220     2.1390     0.0236     -0.004      2.633      3.819        429 2.8847e+01 0.0000e+00
      2.649    20.5396     4.1082     45.647  34.370971     37.763      6.760   238.6023     3.5018     2.0853     0.0235     -0.024      2.610      3.786        430 2.8938e+01 0.0000e+00
      2.655    20.5546     4.0531     45.035  34.348389     37.741      6.754   239.3216     3.5018     2.2062     0.0235     -0.038      2.611      3.787        431 2.7989e+01 0.0000e+00
      2.683    20.5488     3.9874     44.303  34.439530     37.807      6.742   239.6623     3.5018     2.0584     0.0235     -0.040      2.629      3.813        432 2.7635e+01 0.0000e+00
      2.703    20.5424     3.9299     43.660  34.465132     37.825      6.733   239.7380     3.7768     2.3270     0.0236     -0.030      2.644      3.835        433 2.7544e+01 0.0000e+00
      2.700    20.5410     3.8810     43.118  34.464804     37.830      6.729   239.3973     3.7687     2.3270     0.0236     -0.018      2.645      3.836        434 2.7388e+01 0.0000e+00
      2.687    20.5398     3.8439     42.702  34.469596     37.835      6.729   239.1323     3.7566     2.2599     0.0236     -0.011      2.638      3.827        435 2.7647e+01 0.0000e+00
      2.686    20.5380     3.8049     42.257  34.459171     37.836      6.730   239.3595     3.7647     2.2733     0.0236      0.001      2.638      3.827        436 2.7349e+01 0.0000e+00
      2.700    20.5273     3.7786     41.939  34.477777     37.838      6.730   239.2459     3.5908     2.2867     0.0236      0.017      2.648      3.841        437 2.6808e+01 0.0000e+00
      2.715    20.5129     3.7578     41.680  34.535411     37.931      6.732   239.4730     3.5948     2.3002     0.0236      0.025      2.660      3.857        438 2.6746e+01 0.0000e+00
      2.720    20.5088     3.7234     41.280  34.535732     37.909      6.731   239.1702     3.5706     2.3002     0.0236      0.022      2.666      3.867        439 2.6945e+01 0.0000e+00
      2.720    20.5093     3.6894     40.900  34.507041     37.922      6.726   239.2080     3.5544     2.3136     0.0236      0.016      2.668      3.868        440 2.6790e+01 0.0000e+00
      2.719    20.5092     3.6831     40.826  34.482152     37.863      6.725   239.0566     3.4857     2.2867     0.0236      0.014      2.668      3.868        441 2.6826e+01 0.0000e+00
      2.719    20.5065     3.6869     40.862  34.507393     37.924      6.728   239.2080     3.5059     2.2733     0.0236      0.017      2.669      3.872        442 2.6936e+01 0.0000e+00
      2.726    20.5024     3.6960     40.957  34.534942     37.925      6.727   239.0945     3.4937     2.3002     0.0236      0.020      2.676      3.882        443 2.6506e+01 0.0000e+00
      2.740    20.5033     3.7121     41.124  34.536838     37.957      6.729   239.2459     3.4897     2.3002     0.0236      0.020      2.689      3.900        444 2.5984e+01 0.0000e+00
      2.757    20.5003     3.7423     41.447  34.534693     37.930      6.724   239.6245     3.8981     2.2196     0.0236      0.021      2.705      3.923        445 2.5658e+01 0.0000e+00
      2.777    20.4839     3.8165     42.265  34.507957     37.929      6.723   239.6623     3.9102     2.3136     0.0236      0.026      2.724      3.950        446 2.5131e+01 0.0000e+00
      2.798    20.4541     3.9578     43.829  34.540454     37.932      6.719   239.4352     3.9224     2.2867     0.0236      0.038      2.744      3.979        447 2.4391e+01 0.0000e+00
      2.818    20.4198     4.1628     46.100  34.553566     38.007      6.715   239.8516     3.8738     2.2733     0.0236      0.050      2.763      4.007        448 2.4116e+01 0.0000e+00
      2.835    20.3984     4.3991     48.726  34.550960     37.970      6.711   239.8137     4.0235     2.3404     0.0236      0.061      2.781      4.033        449 2.3694e+01 0.0000e+00
      2.855    20.3930     4.6626     51.653  34.573367     38.091      6.703   239.7380     4.0194     2.2733     0.0236      0.070      2.800      4.061        450 2.3147e+01 0.0000e+00
      2.876    20.3883     4.8890     54.157  34.496039     37.956      6.695   239.9652     4.0032     2.3002     0.0236      0.074      2.820      4.091        451 2.2651e+01 0.0000e+00
      2.897    20.3809     5.0834     56.297  34.558234     38.083      6.689   239.6245     4.0315     2.3404     0.0236      0.077      2.841      4.121        452 2.2215e+01 0.0000e+00
      2.920    20.3729     5.2213     57.803  34.584941     38.087      6.684   239.9273     4.0032     2.2733     0.0236      0.079      2.862      4.151        453 2.1757e+01 0.0000e+00
      2.940    20.3588     5.3079     58.737  34.522119     38.032      6.680   240.2680     3.8536     2.3404     0.0236      0.080      2.881      4.180        454 2.1219e+01 0.0000e+00
      2.957    20.3457     5.3728     59.423  34.517791     38.038      6.675   240.4195     3.8374     2.3673     0.0236      0.079      2.895      4.200        455 2.1096e+01 0.0000e+00
      2.961    20.3413     5.4222     59.941  34.501361     38.019      6.668   240.0409     3.8172     2.3136     0.0236      0.075      2.902      4.210        456 2.1080e+01 0.0000e+00
      2.961    20.3398     5.4609     60.346  34.512914     38.061      6.662   239.7759     3.8374     2.2330     0.0236      0.067      2.905      4.213        457 2.1028e+01 0.0000e+00
      2.965    20.3413     5.4982     60.739  34.473763     38.003      6.663   239.8137     2.9236     2.5150     0.0236      0.056      2.908      4.217        458 2.0952e+01 0.0000e+00
      2.968    20.3501     5.5376     61.150  34.461118     38.005      6.663   239.7380     2.9317     2.6627     0.0236      0.044      2.912      4.223        459 2.0755e+01 0.0000e+00
      2.975    20.3578     5.5754     61.542  34.469338     38.003      6.666   239.8895     2.9317     2.4479     0.0236      0.033      2.919      4.233        460 2.0458e+01 0.0000e+00
      2.986    20.3550     5.6228     62.040  34.463533     37.996      6.669   239.7380     2.9155     2.5419     0.0236      0.026      2.930      4.250        461 2.0239e+01 0.0000e+00
      3.002    20.3423     5.6705     62.543  34.438683     37.958      6.673   239.9273     2.7942     2.4881     0.0236      0.024      2.945      4.272        462 1.9940e+01 0.0000e+00
      3.021    20.3246     5.7075     62.931  34.411291     37.930      6.673   239.5487     2.7982     2.5284     0.0235      0.029      2.965      4.301        463 1.9367e+01 0.0000e+00
      3.048    20.3027     5.7170     63.018  34.408654     37.940      6.675   240.0787     2.8063     2.5284     0.0235      0.041      2.990      4.337        464 1.8760e+01 0.0000e+00
      3.077    20.2757     5.6982     62.794  34.412315     37.956      6.670   240.1166     2.8023     2.4747     0.0235      0.055      3.015      4.374        465 1.8325e+01 0.0000e+00
      3.099    20.2513     5.6782     62.557  34.406743     37.974      6.670   239.9652     2.4869     2.5016     0.0235      0.069      3.038      4.406        466 1.7951e+01 0.0000e+00
      3.115    20.2326     5.6944     62.721  34.385941     37.966      6.669   240.6087     2.4464     2.5150     0.0235      0.078      3.055      4.431        467 1.7632e+01 0.0000e+00
      3.131    20.2156     5.7263     63.060  34.408559     38.017      6.670   240.2302     2.4667     2.5150     0.0235      0.083      3.073      4.457        468 1.7305e+01 0.0000e+00
      3.153    20.1968     5.7492     63.302  34.289637     37.909      6.672   240.2680     2.4667     2.5150     0.0235      0.085      3.095      4.488        469 1.6752e+01 0.0000e+00
      3.182    20.1758     5.7101     62.859  34.237383     37.831      6.670   240.9495     2.1553     2.4881     0.0235      0.086      3.120      4.525        470 1.6205e+01 0.0000e+00
      3.209    20.1548     5.5946     61.574  34.443943     38.125      6.666   240.7223     2.1310     2.4747     0.0236      0.087      3.145      4.563        471 1.5840e+01 0.0000e+00
      3.232    20.1359     5.4096     59.523  34.477433     38.142      6.666   240.6087     2.1391     2.5419     0.0236      0.087      3.169      4.598        472 1.5498e+01 0.0000e+00
      3.257    20.1198     5.1689     56.860  34.432965     38.129      6.666   240.8737     2.1108     2.3941     0.0236      0.089      3.193      4.632        473 1.5124e+01 0.0000e+00
      3.279    20.1056     4.9497     54.433  34.469635     38.176      6.667   240.7980     2.1512     2.4747     0.0236      0.092      3.216      4.664        474 1.4807e+01 0.0000e+00
      3.300    20.0920     4.7465     52.186  34.342839     38.066      6.669   240.9495     2.3534     2.6224     0.0235      0.094      3.238      4.696        475 1.4477e+01 0.0000e+00
      3.326    20.0789     4.5902     50.456  34.175581     37.861      6.665   240.9873     2.3130     2.6761     0.0234      0.096      3.260      4.728        476 1.4108e+01 0.0000e+00
      3.346    20.0676     4.5037     49.492  34.143978     37.873      6.663   240.9873     2.3373     2.7567     0.0234      0.094      3.280      4.757        477 1.3852e+01 0.0000e+00
      3.362    20.0580     4.4800     49.217  34.233893     37.946      6.665   241.0630     2.3615     2.7567     0.0235      0.089      3.297      4.782        478 1.3644e+01 0.0000e+00
      3.381    20.0491     4.5144     49.580  34.419565     38.203      6.668   241.1766     2.3009     2.7836     0.0236      0.085      3.315      4.808        479 1.3380e+01 0.0000e+00
      3.399    20.0397     4.6029     50.537  34.476389     38.242      6.671   241.2523     2.2887     2.7298     0.0236      0.082      3.335      4.836        480 1.3102e+01 0.0000e+00
      3.420    20.0283     4.7090     51.688  34.459746     38.250      6.675   241.1387     2.2604     2.6224     0.0236      0.079      3.355      4.866        481 1.2724e+01 0.0000e+00
      3.445    20.0157     4.8155     52.841  34.469937     38.258      6.676   241.5930     2.2685     2.6896     0.0236      0.079      3.377      4.899        482 1.2419e+01 0.0000e+00
      3.466    20.0023     4.9167     53.936  34.463710     38.267      6.680   241.6687     2.3211     2.5150     0.0236      0.079      3.400      4.931        483 1.2190e+01 0.0000e+00
      3.490    19.9886     5.0062     54.905  34.467502     38.278      6.679   241.7823     2.3090     2.4613     0.0236      0.080      3.423      4.964        484 1.1830e+01 0.0000e+00
      3.513    19.9766     5.0608     55.492  34.435568     38.258      6.676   241.8959     2.3292     2.4344     0.0236      0.083      3.445      4.996        485 1.1573e+01 0.0000e+00
      3.533    19.9652     5.0732     55.617  34.414487     38.239      6.679   242.0095     2.3332     2.4479     0.0236      0.086      3.467      5.029        486 1.1280e+01 0.0000e+00
      3.561    19.9521     5.0448     55.297  34.404775     38.249      6.675   242.4259     2.4747     2.6761     0.0236      0.088      3.494      5.067        487 1.0821e+01 0.0000e+00
      3.594    19.9370     4.9828     54.607  34.358692     38.197      6.672   242.4637     2.4869     2.8238     0.0235      0.093      3.524      5.109        488 1.0553e+01 0.0000e+00
      3.622    19.9212     4.9302     54.021  34.293903     38.146      6.669   242.5773     2.4869     2.6761     0.0235      0.097      3.550      5.148        489 1.0317e+01 0.0000e+00
      3.643    19.9065     4.8874     53.544  34.218504     38.065      6.667   242.8802     2.4383     2.7701     0.0235      0.099      3.573      5.182        490 1.0057e+01 0.0000e+00
      3.665    19.8929     4.8752     53.406  34.244940     38.110      6.668   242.8423     2.3534     2.6493     0.0235      0.100      3.594      5.212        491 9.8736e+00 0.0000e+00
      3.686    19.8783     4.8760     53.411  34.349981     38.247      6.668   242.9938     2.3413     2.7030     0.0235      0.099      3.614      5.242        492 9.6538e+00 0.0000e+00
      3.706    19.8638     4.8920     53.579  34.414008     38.321      6.665   243.1830     2.3413     2.7298     0.0236      0.097      3.631      5.267        493 9.5012e+00 0.0000e+00
      3.718    19.8517     4.9233     53.911  34.521143     38.458      6.665   243.1830     2.3292     2.6761     0.0236      0.092      3.645      5.287        494 9.3930e+00 0.0000e+00
      3.728    19.8408     4.9507     54.199  34.572540     38.532      6.667   243.0695     2.3494     2.6896     0.0236      0.082      3.657      5.304        495 9.2842e+00 0.0000e+00
      3.742    19.8316     4.9351     54.013  34.527992     38.480      6.667   242.8045     2.3049     2.7298     0.0236      0.072      3.672      5.325        496 9.0868e+00 0.0000e+00
      3.762    19.8238     4.8673     53.257  34.487616     38.459      6.672   243.1073     2.2645     2.7433     0.0236      0.066      3.690      5.352        497 8.8018e+00 0.0000e+00
      3.784    19.8139     4.7928     52.431  34.474509     38.435      6.673   242.8802     2.2887     2.7433     0.0236      0.065      3.710      5.380        498 8.5989e+00 0.0000e+00
      3.802    19.8044     4.6561     50.927  34.455341     38.442      6.672   243.0695     2.2726     2.7970     0.0236      0.064      3.726      5.404        499 8.4800e+00 0.0000e+00
      3.812    19.7976     4.3913     48.026  34.363192     38.326      6.672   243.3723     2.1472     2.6493     0.0235      0.063      3.737      5.420        500 8.3701e+00 0.0000e+00
      3.820    19.7933     3.9853     43.581  34.411251     38.396      6.672   243.2209     2.1351     2.6896     0.0236      0.061      3.747      5.434        501 8.2841e+00 0.0000e+00
      3.830    19.7894     3.4368     37.581  34.484507     38.496      6.674   243.1830     2.1634     2.7433     0.0236      0.059      3.758      5.451        502 8.1342e+00 0.0000e+00
      3.847    19.7827     2.8760     31.446  34.479626     38.468      6.678   243.5995     2.1593     2.6224     0.0236      0.058      3.773      5.471        503 7.9573e+00 0.0000e+00
      3.862    19.7734     2.3344     25.524  34.565610     38.596      6.677   243.4102     2.0219     2.7567     0.0236      0.055      3.788      5.494        504 7.8458e+00 0.0000e+00
      3.878    19.7619     1.8147     19.841  34.644413     38.665      6.677   243.3723     2.0097     2.7433     0.0237      0.053      3.806      5.520        505 7.6557e+00 0.0000e+00
      3.902    19.7482     1.3790     15.077  34.559500     38.610      6.675   243.5616     2.0219     2.7298     0.0236      0.054      3.829      5.554        506 7.4116e+00 0.0000e+00
      3.934    19.7347     1.0203     11.154  34.878887     38.901      6.666   244.3945     2.0097     2.6493     0.0238      0.062      3.856      5.593        507 7.1226e+00 0.0000e+00
      3.960    19.7240     0.8141      8.897  35.759485     40.006      6.656   244.2809     2.0704     2.8910     0.0242      0.073      3.880      5.627        508 7.0339e+00 0.0000e+00
      3.973    19.7163     0.7150      7.811  36.073509     40.299      6.651   244.5080     2.0542     2.8776     0.0243      0.080      3.896      5.650        509 7.0005e+00 0.0000e+00
      3.986    19.7104     0.6623      7.234  36.059978     40.309      6.651   244.4323     2.1027     2.9581     0.0243      0.082      3.910      5.670        510 6.8660e+00 0.0000e+00
      4.000    19.7056     0.5980      6.531  36.250872     40.534      6.652   244.5080     2.0704     2.9447     0.0244      0.080      3.925      5.693        511 6.7514e+00 0.0000e+00
      4.020    19.7016     0.5102      5.571  36.310495     40.602      6.653   244.9245     2.0866     2.8507     0.0245      0.079      3.943      5.719        512 6.5551e+00 0.0000e+00
      4.042    19.6987     0.4099      4.476  36.489987     40.794      6.649   244.6973     2.0421     2.9178     0.0245      0.076      3.961      5.746        513 6.3951e+00 0.0000e+00
      4.056    19.6975     0.3116      3.403  36.591029     40.954      6.645   245.0759     2.0785     2.8776     0.0246      0.071      3.976      5.767        514 6.3258e+00 0.0000e+00
      4.065    19.6973     0.2253      2.460  36.451689     40.738      6.642   244.9245     2.0825     2.9715     0.0245      0.064      3.988      5.784        515 6.2735e+00 0.0000e+00
      4.078    19.6952     0.1479      1.615  36.455778     40.802      6.638   244.6595     2.0623     2.8507     0.0245      0.061      4.004      5.807        516 6.0436e+00 0.0000e+00
      4.106    19.6874     0.1025      1.119  36.615600     40.927      6.635   245.3030     2.0623     2.9044     0.0246      0.064      4.030      5.844        517 5.7507e+00 0.0000e+00
      4.143    19.6734     0.0936      1.022  37.053612     41.460      6.621   245.6059     2.0946     2.8238     0.0248      0.071      4.060      5.888        518 5.5838e+00 0.0000e+00
      4.170    19.6578     0.1208      1.318  37.423354     41.874      6.610   245.8330     2.0623     2.8641     0.0250      0.078      4.085      5.925        519 5.4609e+00 0.0000e+00
      4.185    19.6461     0.1633      1.783  37.430868     41.887      6.599   245.6438     2.0825     2.9581     0.0250      0.082      4.102      5.950        520 5.3525e+00 0.0000e+00
      4.196    19.6369     0.2071      2.261  37.429856     41.902      6.591   245.9845     1.8925     3.0790     0.0250      0.083      4.115      5.968        521 5.2599e+00 0.0000e+00
      4.208    19.6313     0.2440      2.664  37.424619     41.913      6.585   246.2873     1.8844     3.0924     0.0250      0.084      4.126      5.984        522 5.2314e+00 0.0000e+00
      4.216    19.6337     0.2769      3.023  37.378070     41.859      6.577   246.1359     1.8722     3.1058     0.0250      0.080      4.134      5.996        523 5.2309e+00 0.0000e+00
      4.221    19.6381     0.3059      3.339  37.369147     41.864      6.569   245.8330     1.8965     3.1327     0.0250      0.070      4.141      6.005        524 5.1800e+00 0.0000e+00
      4.229    19.6383     0.3296      3.598  37.317083     41.799      6.563   245.5680     1.8520     2.9447     0.0249      0.055      4.149      6.017        525 5.0915e+00 0.0000e+00
      4.242    19.6331     0.3423      3.737  37.264898     41.733      6.561   245.7195     1.8197     2.9178     0.0249      0.044      4.161      6.036        526 4.9973e+00 0.0000e+00
      4.259    19.6228     0.3487      3.807  37.315444     41.795      6.554   245.7952     1.7995     2.9178     0.0249      0.040      4.176      6.056        527 4.9154e+00 0.0000e+00
      4.273    19.6150     0.3537      3.861  37.313499     41.800      6.553   245.7195     1.8278     2.8507     0.0249      0.041      4.190      6.076        528 4.8284e+00 0.0000e+00
      4.284    19.6182     0.3551      3.873  37.267322     41.747      6.547   246.1359     1.8318     3.0924     0.0249      0.043      4.202      6.094        529 4.7545e+00 0.0000e+00
      4.296    19.6264     0.3542      3.861  37.313593     41.817      6.544   246.0602     1.8197     3.1730     0.0249      0.045      4.213      6.110        530 4.6971e+00 0.0000e+00
      4.308    19.6299     0.3435      3.743  37.315238     41.814      6.545   246.0223     1.8237     3.1193     0.0249      0.048      4.225      6.127        531 4.6305e+00 0.0000e+00
      4.320    19.6281     0.3229      3.517  37.265276     41.743      6.544   245.7952     1.8156     3.1461     0.0249      0.050      4.236      6.144        532 4.5833e+00 0.0000e+00
      4.333    19.6214     0.2951      3.214  37.316449     41.803      6.544   245.8330     1.7711     3.1058     0.0249      0.050      4.248      6.162        533 4.5292e+00 0.0000e+00
      4.344    19.6161     0.2636      2.870  37.370197     41.867      6.546   245.6438     1.7509     3.0655     0.0250      0.049      4.260      6.179        534 4.4608e+00 0.0000e+00
      4.355    19.6161     0.2295      2.499  37.376354     41.873      6.545   245.9088     1.7590     3.1461     0.0250      0.047      4.271      6.196        535 4.3896e+00 0.0000e+00
      4.369    19.6188     0.1944      2.117  37.368110     41.879      6.545   246.3252     1.7509     3.0790     0.0250      0.047      4.286      6.216        536 4.3049e+00 0.0000e+00
      4.387    19.6229     0.1679      1.829  37.380457     41.878      6.545   246.0602     1.7550     3.1730     0.0250      0.049      4.301      6.237        537 4.2342e+00 0.0000e+00
      4.399    19.6105     0.1485      1.617  37.538955     42.064      6.543   245.7573     1.6943     3.3475     0.0250      0.050      4.314      6.257        538 4.1430e+00 0.0000e+00
      4.412    19.5740     0.1340      1.459  38.060700     42.623      6.545   245.5680     1.7186     3.4415     0.0253      0.051      4.327      6.276        539 4.0753e+00 0.0000e+00
      4.427    19.5402     0.1297      1.411  38.837145     43.543      6.543   246.4766     1.6781     3.2804     0.0257      0.053      4.341      6.296        540 4.0158e+00 0.0000e+00
      4.440    19.5209     0.1301      1.416  39.301634     44.082      6.538   246.7038     1.6862     3.3475     0.0259      0.054      4.353      6.313        541 3.9850e+00 0.0000e+00
      4.448    19.5055     0.1350      1.469  39.588748     44.429      6.535   247.1202     1.4032     3.5624     0.0260      0.053      4.363      6.328        542 3.9423e+00 0.0000e+00
      4.459    19.4915     0.1389      1.512  40.170702     45.107      6.526   247.3852     1.4517     3.6295     0.0263      0.051      4.374      6.343        543 3.8500e+00 0.0000e+00
      4.472    19.4810     0.1453      1.581  40.742941     45.782      6.521   246.4009     1.4436     3.6027     0.0266      0.049      4.385      6.360        544 3.7805e+00 0.0000e+00
      4.483    19.4820     0.1496      1.628  40.893852     45.954      6.514   246.9688     1.4113     3.4818     0.0267      0.047      4.396      6.375        545 3.7508e+00 0.0000e+00
      4.490    19.4952     0.1563      1.700  40.516882     45.556      6.509   246.6280     1.5487     3.7772     0.0265      0.045      4.404      6.387        546 3.7184e+00 0.0000e+00
      4.498    19.4989     0.1560      1.696  40.084788     45.021      6.502   245.9088     1.5609     3.7504     0.0263      0.042      4.413      6.400        547 3.6276e+00 0.0000e+00
      4.513    19.4858     0.1614      1.754  40.541620     45.541      6.497   246.2873     1.5649     3.8041     0.0265      0.041      4.426      6.420        548 3.5605e+00 0.0000e+00
      4.530    19.4739     0.1636      1.778  41.579986     46.731      6.493   246.8173     1.5771     3.7772     0.0270      0.043      4.441      6.440        549 3.4845e+00 0.0000e+00
      4.540    19.4678     0.1606      1.745  41.818513     47.028      6.484   246.1359     1.6054     3.4818     0.0271      0.044      4.450      6.454        550 3.4508e+00 0.0000e+00
      4.542    19.4643     0.1565      1.700  41.401774     46.506      6.476   246.3252     1.6134     3.5490     0.0269      0.043      4.455      6.461        551 3.4522e+00 0.0000e+00
      4.546    19.4605     0.1493      1.622  41.119609     46.261      6.471   246.5523     1.6377     3.5758     0.0268      0.039      4.459      6.467        552 3.4193e+00 0.0000e+00
      4.553    19.4632     0.1515      1.646  41.160993     46.234      6.466   246.4388     1.6458     3.5758     0.0268      0.037      4.467      6.477        553 3.3866e+00 0.0000e+00
      4.564    19.4738     0.1457      1.583  40.875610     46.048      6.462   246.5523     1.5407     3.6295     0.0267      0.035      4.479      6.496        554 3.2813e+00 0.0000e+00
      4.585    19.4664     0.1463      1.589  40.881441     45.827      6.458   245.6438     1.5528     3.5892     0.0266      0.036      4.496      6.521        555 3.2015e+00 0.0000e+00
      4.606    19.4423     0.1447      1.571  41.776749     47.102      6.448   245.5680     1.5447     3.5624     0.0271      0.039      4.515      6.548        556 3.1514e+00 0.0000e+00
      4.621    19.4176     0.1466      1.592  42.105091     47.237      6.436   245.9466     1.5447     3.5758     0.0272      0.043      4.530      6.571        557 3.0503e+00 0.0000e+00
      4.633    19.3962     0.1517      1.647  42.193516     47.546      6.425   246.0980     2.7133     4.2069     0.0273      0.050      4.542      6.588        558 2.9929e+00 0.0000e+00
      4.641    19.3871     0.1480      1.606  42.497420     47.761      6.419   245.8330     2.7538     4.0592     0.0274      0.055      4.549      6.599        559 2.9926e+00 0.0000e+00
      4.644    19.3879     0.1478      1.606  42.409269     47.847      6.410   245.4545     2.7376     4.1264     0.0274      0.054      4.554      6.605        560 2.9997e+00 0.0000e+00
      4.646    19.3882     0.1450      1.576  42.273562     47.511      6.409   245.5302     2.7214     4.2069     0.0273      0.049      4.558      6.610        561 2.9867e+00 0.0000e+00
      4.652    19.3848     0.1463      1.590  42.399297     47.856      6.409   245.4166     2.7376     4.1398     0.0274      0.041      4.563      6.618        562 2.9454e+00 0.0000e+00
      4.659    19.3801     0.1471      1.599  42.460472     47.730      6.405   246.0223     7.0360     5.0663     0.0274      0.033      4.570      6.629        563 2.8785e+00 0.0000e+00
      4.670    19.3791     0.1494      1.625  42.464445     47.922      6.404   245.5680     7.0481     5.0797     0.0275      0.027      4.580      6.642        564 2.8613e+00 0.0000e+00
      4.679    19.3758     0.1466      1.593  42.394355     47.675      6.404   245.1516     7.0683     5.0395     0.0274      0.026      4.588      6.654        565 2.8380e+00 0.0000e+00
      4.686    19.3638     0.1488      1.617  42.933396     48.401      6.403   244.6973     7.0198     4.9723     0.0277      0.026      4.594      6.663        566 2.7838e+00 0.0000e+00
      4.690    19.3555     0.1488      1.615  43.395742     48.908      6.401   244.3566     9.2357     5.7108     0.0279      0.026      4.597      6.667        567 2.7927e+00 0.0000e+00
      4.688    19.3441     0.1488      1.614  42.976066     48.418      6.400   244.0916     9.2357     5.6840     0.0277      0.026      4.597      6.667        568 2.7912e+00 0.0000e+00
      4.686    19.3406     0.1541      1.672  42.802955     48.238      6.398   243.9023     9.2600     5.6303     0.0276      0.022      4.595      6.664        569 2.8349e+00 0.0000e+00
      4.683    19.3670     0.1481      1.608  42.780443     48.249      6.402   243.8266     9.2034     5.6571     0.0276      0.016      4.594      6.662        570 2.8510e+00 0.0000e+00
      4.683    19.3968     0.1446      1.570  42.559055     47.972      6.404   243.3723     9.4419     5.9928     0.0275      0.010      4.594      6.663        571 2.8079e+00 0.0000e+00
      4.688    19.4095     0.1406      1.527  42.455425     47.846      6.405   243.0316     9.4136     5.8451     0.0274      0.005      4.598      6.669        572 2.8017e+00 0.0000e+00
      4.694    19.4184     0.1370      1.488  42.494035     47.847      6.406   243.2209     9.4541     6.0197     0.0274      0.003      4.602      6.675        573 2.7763e+00 0.0000e+00
      4.696    19.4182     0.1390      1.510  42.540659     47.895      6.408   243.1452     9.4258     5.8317     0.0275      0.003      4.604      6.677        574 2.8193e+00 0.0000e+00
      4.693    19.4023     0.1328      1.442  42.486399     47.824      6.406   242.3502     9.9919     5.7914     0.0274      0.004      4.604      6.677        575 2.8295e+00 0.0000e+00
      4.695    19.3808     0.1323      1.438  42.561556     47.884      6.409   242.1987    10.0283     5.8183     0.0275      0.006      4.607      6.682        576 2.7487e+00 0.0000e+00
      4.705    19.3440     0.1373      1.492  42.862491     48.283      6.409   242.6152    10.0404     5.8451     0.0276      0.009      4.614      6.692        577 2.6987e+00 0.0000e+00
      4.715    19.3203     0.1399      1.521  42.853617     48.271      6.412   242.7666    10.0323     5.8854     0.0276      0.013      4.620      6.701        578 2.7140e+00 0.0000e+00
      4.712    19.3231     0.1491      1.620  42.869300     48.314      6.410   241.1009     9.6886     6.1003     0.0276      0.014      4.620      6.701        579 2.7469e+00 0.0000e+00
      4.708    19.3268     0.1618      1.758  42.813323     48.339      6.411   240.9873     9.6765     6.0734     0.0276      0.012      4.619      6.700        580 2.7469e+00 0.0000e+00
      4.712    19.3320     0.1730      1.880  42.537599     47.926      6.413   241.0630     9.7088     6.0331     0.0274      0.011      4.623      6.705        581 2.7298e+00 0.0000e+00
      4.722    19.3420     0.1842      1.996  42.559723     48.048      6.414   240.9495     9.6926     6.1003     0.0275      0.013      4.629      6.715        582 2.7040e+00 0.0000e+00
      4.727    19.3519     0.1942      2.100  42.578105     47.979      6.414   241.1009     9.6846     5.9794     0.0275      0.015      4.634      6.721        583 2.7017e+00 0.0000e+00
      4.727    19.3560     0.1991      2.149  42.455383     47.906      6.417   241.4416     8.8556     5.8988     0.0274      0.014      4.636      6.724        584 2.7145e+00 0.0000e+00
      4.730    19.3692     0.1994      2.150  42.208084     47.548      6.417   240.9873     8.8273     5.8988     0.0273      0.012      4.639      6.728        585 2.6857e+00 0.0000e+00
      4.734    19.3918     0.1953      2.102  41.877145     47.229      6.417   241.2523     8.8313     5.8854     0.0272      0.012      4.642      6.733        586 2.6649e+00 0.0000e+00
      4.736    19.4024     0.1798      1.935  41.710180     46.963      6.417   241.0630     8.8354     5.8183     0.0271      0.014      4.644      6.737        587 2.6770e+00 0.0000e+00
      4.739    19.4083     0.1630      1.754  41.822508     47.127      6.418   241.3659     8.3299     5.9526     0.0271      0.015      4.648      6.742        588 2.6467e+00 0.0000e+00
      4.746    19.4007     0.1491      1.604  41.470341     46.707      6.420   240.9495     8.2935     5.8586     0.0270      0.014      4.654      6.750        589 2.6353e+00 0.0000e+00
      4.751    19.3922     0.1362      1.464  41.792433     46.953      6.420   240.8359     8.2895     5.7914     0.0271      0.013      4.660      6.759        590 2.6142e+00 0.0000e+00
      4.758    19.3702     0.1243      1.336  41.955682     47.431      6.421   240.5330     8.2895     5.9794     0.0273      0.015      4.669      6.772        591 2.5666e+00 0.0000e+00
      4.774    19.2688     0.1170      1.258  43.047252     48.138      6.418   239.6623     8.1480     5.7646     0.0276      0.021      4.685      6.795        592 2.4990e+00 0.0000e+00
      4.800    19.1404     0.1118      1.202  46.575853     52.816      6.414   239.3216     8.1399     5.6974     0.0296      0.030      4.709      6.829        593 2.3914e+00 0.0000e+00
      4.831    19.0549     0.1141      1.224  49.908327     56.040      6.402   239.6623     8.1439     5.6840     0.0309      0.043      4.735      6.869        594 2.3080e+00 0.0000e+00
      4.856    18.9903     0.1113      1.191  51.274882     58.513      6.388   239.6623     8.1116     5.7914     0.0320      0.058      4.760      6.905        595 2.2279e+00 0.0000e+00
      4.877    18.9354     0.1120      1.196  52.799651     59.360      6.376   238.8295     7.2948     5.6840     0.0323      0.071      4.778      6.931        596 2.1775e+00 0.0000e+00
      4.886    18.9100     0.1203      1.284  54.630147     62.749      6.360   237.3530     7.3028     5.7377     0.0338      0.078      4.788      6.945        597 2.2054e+00 0.0000e+00
      4.886    18.8944     0.1207      1.289  53.271461     60.064      6.356   236.2930     7.2826     5.6034     0.0326      0.078      4.793      6.951        598 2.2063e+00 0.0000e+00
      4.893    18.8685     0.1292      1.379  54.817040     62.673      6.355   234.3623     7.2867     5.7377     0.0337      0.071      4.799      6.961        599 2.1109e+00 0.0000e+00
      4.904    18.8446     0.1256      1.339  58.347375     66.363      6.359   232.3559     5.8350     5.4154     0.0353      0.061      4.809      6.975        600 2.0560e+00 0.0000e+00
      4.915    18.8393     0.1273      1.355  60.516236     68.983      6.361   230.2737     5.8229     5.4289     0.0365      0.050      4.818      6.988        601 2.0471e+00 0.0000e+00
      4.920    18.8523     0.1222      1.299  59.451704     68.067      6.364   228.6080     5.8350     5.4826     0.0360      0.039      4.826      6.999        602 2.0343e+00 0.0000e+00
      4.927    18.8293     0.1280      1.359  57.534340     65.105      6.365   226.8287     5.8674     5.5229     0.0347      0.032      4.834      7.012        603 1.9819e+00 0.0000e+00
      4.941    18.7339     0.1289      1.368  61.150679     70.095      6.370   224.6330     5.8552     5.5363     0.0369      0.031      4.848      7.032        604 1.9047e+00 0.0000e+00
      4.964    18.6113     0.1247      1.321  63.562692     72.329      6.367   223.0051     5.3498     5.4826     0.0379      0.037      4.867      7.059        605 1.8634e+00 0.0000e+00
      4.983    18.5241     0.1267      1.342  63.916474     73.166      6.362   221.7180     5.3579     5.3886     0.0383      0.045      4.882      7.080        606 1.8428e+00 0.0000e+00
      4.986    18.4978     0.1240      1.312  64.066413     73.433      6.354   220.0523     5.3417     5.4289     0.0383      0.048      4.887      7.088        607 1.8316e+00 0.0000e+00
      4.981    18.5023     0.1272      1.344  63.435592     72.845      6.347   218.6137     5.3296     5.5363     0.0381      0.045      4.887      7.088        608 1.8373e+00 0.0000e+00
      4.983    18.4804     0.1277      1.349  63.632400     73.142      6.346   216.2287     5.6005     5.7108     0.0382      0.040      4.891      7.093        609 1.8117e+00 0.0000e+00
      4.998    18.4150     0.1272      1.342  64.326416     73.908      6.346   214.8658     5.5924     5.6571     0.0385      0.038      4.903      7.111        610 1.7526e+00 0.0000e+00
      5.017    18.3484     0.1199      1.263  65.096439     74.875      6.343   213.4272     5.5843     5.6974     0.0389      0.037      4.918      7.133        611 1.7434e+00 0.0000e+00
      5.028    18.2969     0.1249      1.315  65.436334     75.347      6.339   212.1022     5.6005     5.6169     0.0391      0.035      4.930      7.151        612 1.7326e+00 0.0000e+00
      5.037    18.2476     0.1249      1.315  65.477656     75.526      6.338   210.8908     5.5924     5.2140     0.0392      0.033      4.940      7.165        613 1.7185e+00 0.0000e+00
      5.047    18.1971     0.1246      1.312  65.431199     75.551      6.336   209.6794     5.6005     5.2409     0.0392      0.035      4.951      7.180        614 1.6924e+00 0.0000e+00
      5.061    18.1438     0.1197      1.260  65.494200     75.702      6.337   208.5437     5.6005     5.2006     0.0392      0.041      4.963      7.198        615 1.6514e+00 0.0000e+00
      5.076    18.1016     0.1213      1.277  65.726024     76.081      6.331   207.4836     5.6005     5.3617     0.0394      0.048      4.975      7.216        616 1.6550e+00 0.0000e+00
      5.083    18.0689     0.1188      1.249  65.796197     76.242      6.333   206.6508     5.9442     5.4289     0.0395      0.049      4.985      7.230        617 1.6473e+00 0.0000e+00
      5.091    18.0329     0.1205      1.265  65.793051     76.315      6.336   205.9315     5.9644     5.5094     0.0395      0.045      4.994      7.242        618 1.5947e+00 0.0000e+00
      5.102    17.9856     0.1218      1.278  65.967602     76.569      6.333   205.2501     5.9604     5.4826     0.0396      0.043      5.004      7.257        619 1.5721e+00 0.0000e+00
      5.116    17.9321     0.1176      1.233  66.380989     77.119      6.335   204.5308     5.9523     5.4020     0.0398      0.043      5.017      7.276        620 1.5598e+00 0.0000e+00
      5.129    17.8818     0.1194      1.251  66.734101     77.628      6.333   203.7358     5.3376     5.6840     0.0400      0.044      5.028      7.293        621 1.5264e+00 0.0000e+00
      5.138    17.8471     0.1196      1.252  66.805462     77.790      6.337   202.9029     5.3659     5.6840     0.0401      0.044      5.038      7.308        622 1.5092e+00 0.0000e+00
      5.146    17.8350     0.1190      1.245  66.856606     77.947      6.339   202.1458     5.3336     5.7108     0.0401      0.042      5.048      7.321        623 1.4498e+00 0.0000e+00
      5.158    17.8297     0.1210      1.265  66.997246     78.174      6.342   201.3508     5.3215     5.6571     0.0402      0.042      5.058      7.335        624 1.4148e+00 0.0000e+00
      5.166    17.8243     0.1203      1.257  67.046331     78.260      6.345   200.7829     5.0182     5.6437     0.0403      0.042      5.065      7.346        625 1.4191e+00 0.0000e+00
      5.170    17.8120     0.1206      1.260  67.122286     78.336      6.350   201.5022     5.0222     5.7646     0.0403      0.040      5.072      7.356        626 1.3813e+00 0.0000e+00
      5.182    17.7758     0.1185      1.237  67.199775     78.477      6.351   200.2151     4.9980     5.7646     0.0404      0.038      5.084      7.373        627 1.3696e+00 0.0000e+00
      5.200    17.7222     0.1180      1.231  67.306362     78.563      6.353   197.9815     5.0465     5.7108     0.0404      0.038      5.099      7.395        628 1.3663e+00 0.0000e+00
      5.215    17.6661     0.1166      1.215  67.672875     79.121      6.355   196.5429     5.0182     5.6706     0.0406      0.040      5.113      7.415        629 1.3489e+00 0.0000e+00
      5.226    17.6261     0.1170      1.219  68.080435     79.647      6.356   195.5586     4.8362     5.7243     0.0408      0.043      5.126      7.435        630 1.3171e+00 0.0000e+00
      5.241    17.6015     0.1175      1.224  68.433030     80.211      6.359   193.1357     4.8443     5.6303     0.0411      0.047      5.140      7.456        631 1.2769e+00 0.0000e+00
      5.259    17.5633     0.1164      1.213  68.719444     80.583      6.359   191.3186     4.8443     5.7780     0.0412      0.051      5.155      7.476        632 1.2516e+00 0.0000e+00
      5.268    17.5189     0.1149      1.197  69.001432     80.987      6.357   190.0693     4.8645     5.7243     0.0414      0.054      5.165      7.490        633 1.2343e+00 0.0000e+00
      5.273    17.4856     0.1168      1.217  69.211009     81.293      6.357   188.9715     3.8334     4.9857     0.0415      0.053      5.171      7.500        634 1.2179e+00 0.0000e+00
      5.279    17.4598     0.1169      1.218  69.320184     81.509      6.358   187.4950     3.8253     5.0395     0.0416      0.049      5.177      7.509        635 1.2016e+00 0.0000e+00
      5.286    17.4345     0.1137      1.183  69.489469     81.771      6.360   186.9272     3.8415     4.9857     0.0417      0.043      5.185      7.519        636 1.1392e+00 0.0000e+00
      5.296    17.4064     0.1123      1.167  69.921327     82.315      6.366   185.7914     3.8334     5.1737     0.0420      0.039      5.194      7.533        637 1.1202e+00 0.0000e+00
      5.307    17.3788     0.1157      1.202  70.446465     83.023      6.366   184.1636     3.4412     4.4218     0.0423      0.036      5.204      7.548        638 1.1318e+00 0.0000e+00
      5.317    17.3527     0.1133      1.177  70.648230     83.277      6.366   181.7407     3.4654     4.4755     0.0424      0.034      5.213      7.562        639 1.0877e+00 0.0000e+00
      5.325    17.3321     0.1146      1.190  70.739803     83.463      6.370   178.9014     3.4573     4.3681     0.0424      0.033      5.222      7.574        640 1.0616e+00 0.0000e+00
      5.333    17.3310     0.1072      1.113  70.689048     83.449      6.372   175.9107     3.4614     4.4352     0.0424      0.034      5.230      7.585        641 1.0302e+00 0.0000e+00
      5.341    17.3422     0.1066      1.107  70.503449     83.258      6.372   172.7685     3.1783     3.9249     0.0423      0.035      5.238      7.597        642 1.0284e+00 0.0000e+00
      5.350    17.3420     0.1111      1.153  70.436018     83.195      6.376   169.7400     3.1702     3.9652     0.0423      0.036      5.247      7.609        643 9.8521e-01 0.0000e+00
      5.358    17.3261     0.1065      1.106  70.386741     83.104      6.377   167.3171     3.1743     4.0055     0.0423      0.035      5.255      7.621        644 9.7940e-01 0.0000e+00
      5.366    17.2974     0.1067      1.108  70.297381     83.007      6.381   165.0078     3.1783     4.0592     0.0422      0.034      5.263      7.633        645 9.8620e-01 0.0000e+00
      5.377    17.2628     0.1068      1.109  70.279841     83.004      6.381   162.5092     3.1824     4.0055     0.0422      0.033      5.273      7.647        646 9.3599e-01 0.0000e+00
      5.388    17.2259     0.1088      1.129  70.260037     83.062      6.383   159.7078     3.1905     3.9249     0.0422      0.034      5.284      7.664        647 9.1097e-01 0.0000e+00
      5.401    17.1944     0.1056      1.095  70.203214     83.029      6.382   156.2628     3.1986     4.0055     0.0422      0.036      5.297      7.682        648 8.6804e-01 0.0000e+00
      5.414    17.1779     0.1084      1.124  70.083205     83.003      6.388   153.4992     3.1622     3.9786     0.0422      0.039      5.309      7.699        649 8.6322e-01 0.0000e+00
      5.423    17.1663     0.1015      1.052  69.874657     82.767      6.385   151.3413     3.0570     3.5758     0.0421      0.041      5.319      7.714        650 8.5572e-01 0.0000e+00
      5.435    17.1519     0.1045      1.082  69.898305     82.865      6.385   148.8428     3.0328     3.5624     0.0421      0.043      5.331      7.731        651 8.4035e-01 0.0000e+00
      5.449    17.1364     0.1037      1.075  69.964666     82.954      6.386   146.3442     3.0732     3.6564     0.0421      0.045      5.343      7.749        652 8.3045e-01 0.0000e+00
      5.460    17.1358     0.1064      1.104  69.851504     82.850      6.390   144.0728     3.0409     3.6832     0.0421      0.046      5.354      7.765        653 7.8474e-01 0.0000e+00
      5.470    17.1540     0.1024      1.062  69.801476     82.813      6.389   142.2556     3.0368     3.5624     0.0421      0.046      5.364      7.780        654 7.7286e-01 0.0000e+00
      5.481    17.1587     0.1022      1.060  69.878391     82.917      6.391   139.9463     3.0530     2.9715     0.0421      0.046      5.374      7.795        655 7.8372e-01 0.0000e+00
      5.491    17.1491     0.1044      1.082  69.904329     82.910      6.394   137.7884     3.0247     2.8776     0.0421      0.044      5.383      7.808        656 7.6824e-01 0.0000e+00
      5.498    17.1299     0.1010      1.047  69.858314     82.837      6.393   135.7820     3.0611     3.0118     0.0421      0.043      5.391      7.819        657 7.5573e-01 0.0000e+00
      5.503    17.0915     0.0945      0.980  70.173325     83.221      6.397   134.2677     3.0530     2.9178     0.0423      0.040      5.398      7.828        658 7.4699e-01 0.0000e+00
      5.511    17.0600     0.0996      1.033  70.730396     83.955      6.396   132.4127     3.4493     3.4147     0.0426      0.037      5.403      7.836        659 7.6528e-01 0.0000e+00
      5.514    17.0486     0.0993      1.030  70.858517     84.167      6.397   130.7470     3.4493     3.2938     0.0427      0.032      5.407      7.841        660 7.6128e-01 0.0000e+00
      5.515    17.0510     0.0961      0.997  70.816078     84.163      6.403   129.5734     3.4331     3.3744     0.0427      0.028      5.409      7.844        661 7.3568e-01 0.0000e+00
      5.516    17.0713     0.0967      1.003  70.812949     84.218      6.405   128.0970     3.4452     3.3475     0.0427      0.023      5.409      7.846        662 7.0247e-01 0.0000e+00
      5.517    17.0977 -9.990e-29 -9.990e-29  70.654452     83.982      6.403   126.5448     3.5544     3.5490     0.0426      0.017      5.410      7.847        663 7.1823e-01 0.0000e+00
      5.518    17.1105 -9.990e-29 -9.990e-29  70.567671     83.874      6.406   125.1441     3.5948     3.5221     0.0425      0.013      5.411      7.848        664 7.5470e-01 0.0000e+00
      5.518    17.1082 -9.990e-29 -9.990e-29  70.594121     83.820      6.409   124.0084     3.5665     3.5758     0.0425      0.009      5.411      7.849        665 7.2928e-01 0.0000e+00
      5.518    17.1049 -9.990e-29 -9.990e-29  70.621514     83.862      6.411   122.3805     3.5867     3.5490     0.0425      0.006      5.411      7.849        666 7.2389e-01 0.0000e+00
      5.518    17.1058 -9.990e-29 -9.990e-29  70.592987     83.800      6.413   121.1691     3.4129     3.1595     0.0425      0.003      5.412      7.850        667 7.4540e-01 0.0000e+00
      5.519    17.1045 -9.990e-29 -9.990e-29  70.629621     83.874      6.415   119.7684     3.4493     3.0924     0.0425      0.002      5.413      7.851        668 7.4034e-01 0.0000e+00
      5.520    17.1019 -9.990e-29 -9.990e-29  70.635346     83.870      6.418   118.5570     3.4614     3.0521     0.0425      0.002      5.413      7.852        669 7.0956e-01 0.0000e+00
      5.521    17.1019 -9.990e-29 -9.990e-29  70.585864     83.808      6.420   117.1941     3.4331     3.1730     0.0425      0.002      5.414      7.853        670 7.3908e-01 0.0000e+00
      5.522    17.1102 -9.990e-29 -9.990e-29  70.631782     83.878      6.421   116.1720     3.2511     2.7164     0.0425      0.002      5.415      7.854        671 7.4844e-01 0.0000e+00
      5.523    17.1175 -9.990e-29 -9.990e-29  70.697043     83.947      6.422   114.6577     3.2147     2.6224     0.0426      0.003      5.416      7.855        672 7.3193e-01 0.0000e+00
      5.524 -9.990e-29 -9.990e-29 -9.990e-29  70.742326     83.995      6.425   113.5977     3.2390     2.6761     0.0426      0.003      5.417      7.856        673 7.2792e-01 0.0000e+00
      5.524 -9.990e-29 -9.990e-29 -9.990e-29  70.753682     83.980      6.426   112.3484     3.2349     2.6493     0.0426      0.003      5.417      7.856        674 7.0861e-01 0.0000e+00
