* Sea-Bird SBE19plus  Data File:
* FileName = C:\R\Reservoirs\Data\DataNotYetUploadedToEDI\Raw_CTD\RawDownloads\100124_fcr10_S7809_0001.hex
* Software version 2.8.0.119
* Temperature SN = 7809
* Conductivity SN = 7809
* System UpLoad Time = Oct 01 2024 17:22:41
* <ApplicationData>
* <Seaterm232>
* <SoftwareVersion>2.8.0.119</SoftwareVersion>
* <BuildDate>07-Nov-2018</BuildDate>
* </Seaterm232>
* </ApplicationData>
* <InstrumentState>
* <HardwareData DeviceType='SBE19plus' SerialNumber='01907809'>
*
*    <Manufacturer>Sea-Bird Electronics, Inc.</Manufacturer>
*
*    <FirmwareVersion>3.1.8</FirmwareVersion>
*
*    <FirmwareDate>Mar  9 2016 16:22:29</FirmwareDate>
*
*    <CommandSetVersion>1.4</CommandSetVersion>
*
*    <PCBAssembly PCBSerialNum='120721' AssemblyNum='41054J'/>
*
*    <PCBAssembly PCBSerialNum='120715' AssemblyNum='41967A'/>
*
*    <PCBAssembly PCBSerialNum='116699' AssemblyNum='41606'/>
*
*    <PCBAssembly PCBSerialNum='120719' AssemblyNum='41059D'/>
*
*    <MfgDate>28-Apr-2017</MfgDate>
*
*    <InternalSensors>
*
*       <Sensor id='Main Temperature'>
*
*          <type>temperature0</type>
*
*          <SerialNumber>01907809</SerialNumber>
*
*       </Sensor>
*
*       <Sensor id='Main Conductivity'>
*
*          <type>conductivity-0</type>
*
*          <SerialNumber>01907809</SerialNumber>
*
*       </Sensor>
*
*       <Sensor id='Main Pressure'>
*
*          <type>strain-0</type>
*
*          <SerialNumber>10586018</SerialNumber>
*
*       </Sensor>
*
*    </InternalSensors>
*
*    <ExternalSensors>
*
*       <Sensor id='volt 0'>
*
*          <type>pH</type>
*
*          <SerialNumber>27-0363</SerialNumber>
*
*       </Sensor>
*
*       <Sensor id='volt 1'>
*
*          <type>ORP</type>
*
*          <SerialNumber>27-0363</SerialNumber>
*
*       </Sensor>
*
*       <Sensor id='volt 2'>
*
*          <type>OXY</type>
*
*          <SerialNumber>43-0434</SerialNumber>
*
*       </Sensor>
*
*       <Sensor id='volt 3'>
*
*          <type>PAR</type>
*
*          <SerialNumber>1122</SerialNumber>
*
*       </Sensor>
*
*       <Sensor id='volt 4'>
*
*          <type>ECO AFL/FL</type>
*
*          <SerialNumber>FLNTURT-2496</SerialNumber>
*
*       </Sensor>
*
*       <Sensor id='volt 5'>
*
*          <type>ECO-NTU</type>
*
*          <SerialNumber>FLNTURT-2496</SerialNumber>
*
*       </Sensor>
*
*       <Sensor id='serial'>
*
*          <type>not assigned</type>
*
*          <SerialNumber>not assigned</SerialNumber>
*
*       </Sensor>
*
*    </ExternalSensors>
*
* </HardwareData>
* <StatusData DeviceType='SBE19plus' SerialNumber='01907809'>
*
*    <DateTime>2024-10-01T17:21:52</DateTime>
*
*    <LoggingState>not logging</LoggingState>
*
*    <EventSummary numEvents='0'/>
*
*    <Power>
*
*       <vMain>12.1</vMain>
*
*       <vLith>8.3</vLith>
*
*       <iMain>63.1</iMain>
*
*       <iPump>70.7</iPump>
*
*       <iExt01>21.6</iExt01>
*
*       <iExt2345>40.3</iExt2345>
*
*    </Power>
*
*    <MemorySummary>
*
*       <Bytes>122268</Bytes>
*
*       <Samples>5316</Samples>
*
*       <SamplesFree>2855472</SamplesFree>
*
*       <SampleLength>23</SampleLength>
*
*       <Profiles>5</Profiles>
*
*    </MemorySummary>
*
* </StatusData>
* <ConfigurationData DeviceType='SBE19plus' SerialNumber='01907809'>
*
*    <ProfileMode>
*
*       <ScansToAverage>1</ScansToAverage>
*
*       <MinimumCondFreq>0</MinimumCondFreq>
*
*       <PumpDelay>45</PumpDelay>
*
*       <AutoRun>no</AutoRun>
*
*       <IgnoreSwitch>no</IgnoreSwitch>
*
*    </ProfileMode>
*
*    <Battery>
*
*       <Type>alkaline</Type>
*
*       <CutOff>7.5</CutOff>
*
*    </Battery>
*
*    <DataChannels>
*
*       <ExtVolt0>yes</ExtVolt0>
*
*       <ExtVolt1>yes</ExtVolt1>
*
*       <ExtVolt2>yes</ExtVolt2>
*
*       <ExtVolt3>yes</ExtVolt3>
*
*       <ExtVolt4>yes</ExtVolt4>
*
*       <ExtVolt5>yes</ExtVolt5>
*
*       <SBE38>no</SBE38>
*
*       <WETLABS>no</WETLABS>
*
*       <OPTODE>no</OPTODE>
*
*       <SBE63>no</SBE63>
*
*       <SeaFET>no</SeaFET>
*
*       <GTD>no</GTD>
*
*    </DataChannels>
*
*    <EchoCharacters>yes</EchoCharacters>
*
*    <OutputExecutedTag>yes</OutputExecutedTag>
*
*    <OutputFormat>raw HEX</OutputFormat>
*
* </ConfigurationData>
* <CalibrationCoefficients DeviceType='SBE19plus' SerialNumber='01907809'>
*
*    <Calibration format='TEMP1' id='Main Temperature'>
*
*       <SerialNum>01907809</SerialNum>
*
*       <CalDate>31-Jan-23</CalDate>
*
*       <TA0>1.218232e-03</TA0>
*
*       <TA1>2.815090e-04</TA1>
*
*       <TA2>-1.578887e-06</TA2>
*
*       <TA3>1.972343e-07</TA3>
*
*       <TOFFSET>0.000000e+00</TOFFSET>
*
*    </Calibration>
*
*    <Calibration format='WBCOND0' id='Main Conductivity'>
*
*       <SerialNum>01907809</SerialNum>
*
*       <CalDate>31-Jan-23</CalDate>
*
*       <G>-1.005652e+00</G>
*
*       <H>1.267963e-01</H>
*
*       <I>-1.561708e-04</I>
*
*       <J>2.645944e-05</J>
*
*       <CPCOR>-9.570000e-08</CPCOR>
*
*       <CTCOR>3.250000e-06</CTCOR>
*
*       <CSLOPE>1.000000e+00</CSLOPE>
*
*    </Calibration>
*
*    <Calibration format='STRAIN0' id='Main Pressure'>
*
*       <SerialNum>10586018</SerialNum>
*
*       <CalDate>20-Jan-23</CalDate>
*
*       <PA0>4.416439e-02</PA0>
*
*       <PA1>4.850502e-04</PA1>
*
*       <PA2>-3.090426e-12</PA2>
*
*       <PTCA0>5.254757e+05</PTCA0>
*
*       <PTCA1>1.050255e+01</PTCA1>
*
*       <PTCA2>-2.922435e-01</PTCA2>
*
*       <PTCB0>2.516687e+01</PTCB0>
*
*       <PTCB1>3.750000e-04</PTCB1>
*
*       <PTCB2>0.000000e+00</PTCB2>
*
*       <PTEMPA0>-5.470820e+01</PTEMPA0>
*
*       <PTEMPA1>5.485421e+01</PTEMPA1>
*
*       <PTEMPA2>-3.446578e-01</PTEMPA2>
*
*       <POFFSET>8.500000e-01</POFFSET>
*
*       <PRANGE>1.600000e+02</PRANGE>
*
*    </Calibration>
*
*    <Calibration format='VOLT0' id='Volt 0'>
*
*       <OFFSET>-4.920000e-02</OFFSET>
*
*       <SLOPE>1.248122e+00</SLOPE>
*
*    </Calibration>
*
*    <Calibration format='VOLT0' id='Volt 1'>
*
*       <OFFSET>-4.784000e-02</OFFSET>
*
*       <SLOPE>1.248871e+00</SLOPE>
*
*    </Calibration>
*
*    <Calibration format='VOLT0' id='Volt 2'>
*
*       <OFFSET>-4.864632e-02</OFFSET>
*
*       <SLOPE>1.248714e+00</SLOPE>
*
*    </Calibration>
*
*    <Calibration format='VOLT0' id='Volt 3'>
*
*       <OFFSET>-4.743790e-02</OFFSET>
*
*       <SLOPE>1.248571e+00</SLOPE>
*
*    </Calibration>
*
*    <Calibration format='VOLT0' id='Volt 4'>
*
*       <OFFSET>-4.671263e-02</OFFSET>
*
*       <SLOPE>1.248951e+00</SLOPE>
*
*    </Calibration>
*
*    <Calibration format='VOLT0' id='Volt 5'>
*
*       <OFFSET>-4.871053e-02</OFFSET>
*
*       <SLOPE>1.249136e+00</SLOPE>
*
*    </Calibration>
*
*    <Calibration format='FREQ0' id='external frequency channel'>
*
*       <EXTFREQSF>1.000014e+00</EXTFREQSF>
*
*    </Calibration>
*
* </CalibrationCoefficients>
* <EventCounters DeviceType='SBE19plus' SerialNumber='01907809'>
*
*    <EventSummary numEvents='0'/>
*
* </EventCounters></InstrumentState>
* <Headers>
*
* cast   1 01 Oct 2024 09:58:04 samples 1 to 783, avg = 1, stop = mag switch
*
# nquan = 15
# nvalues = 783                         
# units = specified
# name 0 = depFM: Depth [fresh water, m]
# name 1 = dz/dtM: Descent Rate [m/s]
# name 2 = sbeox0Mg/L: Oxygen, SBE 43 [mg/l]
# name 3 = sbeox0PS: Oxygen, SBE 43 [% saturation]
# name 4 = specc: Specific Conductance [uS/cm]
# name 5 = c0uS/cm: Conductivity [uS/cm]
# name 6 = flECO-AFL: Fluorescence, WET Labs ECO-AFL/FL [mg/m^3]
# name 7 = ph: pH
# name 8 = orp: Oxidation Reduction Potential [mV]
# name 9 = par/sat/log: PAR/Logarithmic, Satlantic
# name 10 = turbWETntu0: Turbidity, WET Labs ECO [NTU]
# name 11 = prdM: Pressure, Strain Gauge [db]
# name 12 = prdE: Pressure, Strain Gauge [psi]
# name 13 = tv290C: Temperature [ITS-90, deg C]
# name 14 = flag:  0.000e+00
# span 0 =     -0.671,      2.328       
# span 1 =     -0.329,      0.252       
# span 2 =     3.3886,     8.3618       
# span 3 =     38.047,     93.803       
# span 4 =      2.736,     45.573       
# span 5 =   2.516517,  41.783131       
# span 6 =    -0.1872,     9.7238       
# span 7 =     -2.218,      7.995       
# span 8 =  -558.1146,  1240.2209       
# span 9 = 8.0308e+00, 5.5180e+02       
# span 10 =     1.2318,   126.7361      
# span 11 =     -0.659,      2.284      
# span 12 =     -0.956,      3.312      
# span 13 =    20.2463,    21.0467      
# span 14 = 0.0000e+00, 0.0000e+00      
# interval = seconds: 0.25
# start_time = Oct 01 2024 09:58:04 [Instrument's time stamp, header]
# bad_flag = -9.990e-29
# <Sensors count="9" >
#   <sensor Channel="1" >
#     <!-- Count, Temperature -->
#     <TemperatureSensor SensorID="58" >
#       <SerialNumber>7809</SerialNumber>
#       <CalibrationDate>31-Jan-23</CalibrationDate>
#       <A0>1.21823180e-003</A0>
#       <A1>2.81508993e-004</A1>
#       <A2>-1.57888696e-006</A2>
#       <A3>1.97234302e-007</A3>
#       <Slope>1.00000000</Slope>
#       <Offset>0.0000</Offset>
#     </TemperatureSensor>
#   </sensor>
#   <sensor Channel="2" >
#     <!-- Frequency 0, Conductivity -->
#     <ConductivitySensor SensorID="3" >
#       <SerialNumber>7809</SerialNumber>
#       <CalibrationDate>31-Jan-23</CalibrationDate>
#       <UseG_J>1</UseG_J>
#       <!-- Cell const and series R are applicable only for wide range sensors. -->
#       <SeriesR>0.0000</SeriesR>
#       <CellConst>2000.0000</CellConst>
#       <ConductivityType>0</ConductivityType>
#       <Coefficients equation="0" >
#         <A>0.00000000e+000</A>
#         <B>0.00000000e+000</B>
#         <C>0.00000000e+000</C>
#         <D>0.00000000e+000</D>
#         <M>0.0</M>
#         <CPcor>-9.57000000e-008</CPcor>
#       </Coefficients>
#       <Coefficients equation="1" >
#         <G>-1.00565232e+000</G>
#         <H>1.26796307e-001</H>
#         <I>-1.56170788e-004</I>
#         <J>2.64594368e-005</J>
#         <CPcor>-9.57000000e-008</CPcor>
#         <CTcor>3.2500e-006</CTcor>
#         <!-- WBOTC not applicable unless ConductivityType = 1. -->
#         <WBOTC>0.00000000e+000</WBOTC>
#       </Coefficients>
#       <Slope>1.00000000</Slope>
#       <Offset>0.00000</Offset>
#     </ConductivitySensor>
#   </sensor>
#   <sensor Channel="3" >
#     <!-- Count, Pressure, Strain Gauge -->
#     <PressureSensor SensorID="46" >
#       <SerialNumber>7809</SerialNumber>
#       <CalibrationDate>20-Jan-23</CalibrationDate>
#       <PA0>4.41643944e-002</PA0>
#       <PA1>4.85050239e-004</PA1>
#       <PA2>-3.09042623e-012</PA2>
#       <PTEMPA0>-5.47081996e+001</PTEMPA0>
#       <PTEMPA1>5.48542136e+001</PTEMPA1>
#       <PTEMPA2>-3.44657813e-001</PTEMPA2>
#       <PTCA0>5.25475731e+005</PTCA0>
#       <PTCA1>1.05025484e+001</PTCA1>
#       <PTCA2>-2.92243463e-001</PTCA2>
#       <PTCB0>2.51668750e+001</PTCB0>
#       <PTCB1>3.75000000e-004</PTCB1>
#       <PTCB2>0.00000000e+000</PTCB2>
#       <Offset>0.000000</Offset>
#     </PressureSensor>
#   </sensor>
#   <sensor Channel="4" >
#     <!-- A/D voltage 0, Oxygen, SBE 43 -->
#     <OxygenSensor SensorID="38" >
#       <SerialNumber>0434</SerialNumber>
#       <CalibrationDate>18-Feb-23</CalibrationDate>
#       <Use2007Equation>1</Use2007Equation>
#       <CalibrationCoefficients equation="0" >
#         <!-- Coefficients for Owens-Millard equation. -->
#         <Boc>0.0000</Boc>
#         <Soc>0.0000e+000</Soc>
#         <offset>0.0000</offset>
#         <Pcor>0.00e+000</Pcor>
#         <Tcor>0.0000</Tcor>
#         <Tau>0.0</Tau>
#       </CalibrationCoefficients>
#       <CalibrationCoefficients equation="1" >
#         <!-- Coefficients for Sea-Bird equation - SBE calibration in 2007 and later. -->
#         <Soc>5.1878e-001</Soc>
#         <offset>-0.5046</offset>
#         <A>-4.2788e-003</A>
#         <B> 1.5372e-004</B>
#         <C>-2.1853e-006</C>
#         <D0> 2.5826e+000</D0>
#         <D1> 1.92634e-004</D1>
#         <D2>-4.64803e-002</D2>
#         <E> 3.6000e-002</E>
#         <Tau20> 0.9900</Tau20>
#         <H1>-3.3000e-002</H1>
#         <H2> 5.0000e+003</H2>
#         <H3> 1.4500e+003</H3>
#       </CalibrationCoefficients>
#     </OxygenSensor>
#   </sensor>
#   <sensor Channel="5" >
#     <!-- A/D voltage 1, PAR/Logarithmic, Satlantic -->
#     <PARLog_SatlanticSensor SensorID="76" >
#       <SerialNumber>1122</SerialNumber>
#       <CalibrationDate>08-Sep-2021</CalibrationDate>
#       <a0>9.6751e-001</a0>
#       <a1>8.0992e-001</a1>
#       <Im>1.3589e+000</Im>
#       <Multiplier>1.0000e+000</Multiplier>
#     </PARLog_SatlanticSensor>
#   </sensor>
#   <sensor Channel="6" >
#     <!-- A/D voltage 2, pH -->
#     <pH_Sensor SensorID="43" >
#       <SerialNumber>0363</SerialNumber>
#       <CalibrationDate>28-Feb-23</CalibrationDate>
#       <Slope>4.7364</Slope>
#       <Offset>2.5433</Offset>
#     </pH_Sensor>
#   </sensor>
#   <sensor Channel="7" >
#     <!-- A/D voltage 3, Oxidation Reduction Potential -->
#     <OxidationReductionPotentialSensor SensorID="41" >
#       <SerialNumber>0363</SerialNumber>
#       <CalibrationDate>28-Feb-23</CalibrationDate>
#       <B>2.499480</B>
#       <M>-0.496195</M>
#       <Offset>0.0</Offset>
#     </OxidationReductionPotentialSensor>
#   </sensor>
#   <sensor Channel="8" >
#     <!-- A/D voltage 4, Fluorometer, WET Labs ECO-AFL/FL -->
#     <FluoroWetlabECO_AFL_FL_Sensor SensorID="20" >
#       <SerialNumber>FLNTURT-2496</SerialNumber>
#       <CalibrationDate>02-Sep-2021</CalibrationDate>
#       <ScaleFactor>4.80000000e+001</ScaleFactor>
#       <!-- Dark output -->
#       <Vblank>0.0550</Vblank>
#     </FluoroWetlabECO_AFL_FL_Sensor>
#   </sensor>
#   <sensor Channel="9" >
#     <!-- A/D voltage 5, Turbidity Meter, WET Labs, ECO-NTU -->
#     <TurbidityMeter SensorID="67" >
#       <SerialNumber>FLNTURT--2496</SerialNumber>
#       <CalibrationDate>02-Sep-2021</CalibrationDate>
#       <ScaleFactor>197.000000</ScaleFactor>
#       <!-- Dark output -->
#       <DarkVoltage>0.070000</DarkVoltage>
#     </TurbidityMeter>
#   </sensor>
# </Sensors>
# datcnv_date = Oct 01 2024 17:28:00, 7.26.7.129 [datcnv_vars = 14]
# datcnv_in = C:\R\Reservoirs\Data\DataNotYetUploadedToEDI\Raw_CTD\RawDownloads\100124_fcr10_S7809001.hex C:\R\Reservoirs\Data\DataNotYetUploadedToEDI\Raw_CTD\RawDownloads\SBE19plusV2_7809_start20230701.xmlcon
# datcnv_skipover = 0
# datcnv_ox_hysteresis_correction = yes
# datcnv_ox_tau_correction = yes
# filter_date = Oct 01 2024 17:28:26, 7.26.7.129
# filter_in = C:\R\Reservoirs\Data\DataNotYetUploadedToEDI\Raw_CTD\RawDownloads\100124_fcr10_S7809001.cnv
# filter_low_pass_tc_A = 0.030
# filter_low_pass_tc_B = 0.150
# filter_low_pass_A_vars = sbeox0Mg/L prdM prdE tv290C
# filter_low_pass_B_vars = depFM dz/dtM sbeox0PS specc c0uS/cm flECO-AFL ph orp par/sat/log turbWETntu0
# alignctd_date = Oct 01 2024 17:28:59, 7.26.7.129
# alignctd_in = C:\R\Reservoirs\Data\DataNotYetUploadedToEDI\Raw_CTD\RawDownloads\100124_fcr10_S7809001.cnv
# alignctd_adv = dz/dtM 1.000, sbeox0PS 1.000, specc 1.000, c0uS/cm 1.000, flECO-AFL 1.000, ph 1.000, orp 1.000, turbWETntu0 1.000                                                                                                   
# file_type = ascii
*END*
     -0.671 1.7090e-10     8.1264     89.854      2.810   2.543104    -0.0079      6.092   338.0328 5.0376e+02     6.2147     -0.658     -0.954    20.2463 0.0000e+00
     -0.671 1.8799e-09     8.1284     89.860      2.795   2.529456     0.0075      6.092   263.7625 5.0781e+02     6.2805     -0.658     -0.954    20.2465 0.0000e+00
     -0.671 2.0679e-08     8.1265     89.860      2.783   2.518985     0.0043      6.075   193.5728 5.0350e+02     6.2915     -0.658     -0.954    20.2467 0.0000e+00
     -0.671 2.2747e-07     8.1278     89.865      2.810   2.543193    -0.0218      6.052   141.2952 4.9529e+02     6.2447     -0.658     -0.954    20.2468 0.0000e+00
     -0.671 4.1702e-07     8.1300     89.884      2.838   2.568772    -0.0336      6.095    40.7084 4.7524e+02     6.2273     -0.658     -0.954    20.2470 0.0000e+00
     -0.671 2.2747e-07     8.1299     89.904      2.845   2.574875    -0.0305      6.260  -253.8523 4.4138e+02     6.1846     -0.658     -0.954    20.2471 0.0000e+00
     -0.671 2.0681e-08     8.1300     89.894      2.891   2.616992    -0.0425      6.533  -527.0570 4.2194e+02     6.0700     -0.658     -0.954    20.2474 0.0000e+00
     -0.671 1.8966e-09     8.1297     89.876      2.981   2.697927    -0.0539      7.078  -558.1146 4.2473e+02     5.4905     -0.658     -0.954    20.2476 0.0000e+00
     -0.671 3.5427e-10     8.1315     89.859      3.086   2.793306    -0.0343      7.594  -158.6461 4.2943e+02     4.4718     -0.658     -0.954    20.2476 0.0000e+00
     -0.671 2.0326e-09     8.1359     89.844      3.255   2.946717    -0.0305      7.160   671.6807 4.1718e+02     3.8988     -0.658     -0.955    20.2478 0.0000e+00
     -0.671 2.2189e-08     8.1325     89.846      3.490   3.159180    -0.0584      5.555  1090.2322 3.8539e+02     3.7552     -0.658     -0.954    20.2479 0.0000e+00
     -0.671 2.4406e-07     8.1310     89.844      3.685   3.335084    -0.0710      3.258   972.0091 3.5767e+02     3.3498     -0.658     -0.954    20.2481 0.0000e+00
     -0.671 4.4745e-07     8.1305     89.829      3.786   3.426532    -0.0590      1.658   885.7765 3.4332e+02     2.7207     -0.658     -0.954    20.2481 0.0000e+00
     -0.671 2.4406e-07     8.1270     89.839      3.803   3.441352    -0.0460      1.918   865.3183 3.3222e+02     2.3311     -0.658     -0.954    20.2485 0.0000e+00
     -0.671 2.2188e-08     8.1287     89.869      3.743   3.387579    -0.0556      3.013   852.9357 3.2244e+02     2.1922     -0.658     -0.954    20.2487 0.0000e+00
     -0.671 2.0171e-09     8.1293     89.869      3.698   3.346503    -0.0673      3.497   863.2254 3.0200e+02     1.9639     -0.658     -0.954    20.2486 0.0000e+00
     -0.671 1.8348e-10     8.1256     89.865      3.743   3.388137    -0.0541      3.252   872.5439 2.6462e+02     1.6201     -0.658     -0.954    20.2490 0.0000e+00
     -0.671 1.7916e-11     8.1258     89.881      3.809   3.447532    -0.0451      2.567   871.1349 2.2060e+02     1.3836     -0.658     -0.954    20.2495 0.0000e+00
     -0.671 1.5216e-11     8.1330     89.880      3.861   3.494507    -0.0590      1.262   872.6030 1.8229e+02     1.2897     -0.658     -0.954    20.2498 0.0000e+00
     -0.671 1.5084e-10     8.1300     89.862      3.951   3.576021    -0.0638     -0.426   874.5494 1.6348e+02     1.3048     -0.658     -0.954    20.2504 0.0000e+00
     -0.670 1.6578e-09     8.1279     89.840      4.058   3.672928    -0.0536     -1.610   874.8792 1.6047e+02     1.3272     -0.657     -0.953    20.2514 0.0000e+00
     -0.670 1.8235e-08     8.1327     89.824      4.175   3.779326    -0.0599     -2.054   874.9571 1.5166e+02     1.2870     -0.657     -0.953    20.2524 0.0000e+00
     -0.670 2.0059e-07     8.1310     89.830      4.322   3.912238    -0.0658     -2.178   874.8030 1.3371e+02     1.2972     -0.657     -0.953    20.2532 0.0000e+00
     -0.670      0.000     8.1292     89.846      4.433   4.012976    -0.0490     -2.218   875.5101 1.2297e+02     1.3479     -0.657     -0.953    20.2540 0.0000e+00
     -0.670      0.000     8.1272     89.858      4.471   4.047096    -0.0405     -2.217   883.9372 1.2172e+02     1.3537     -0.657     -0.953    20.2547 0.0000e+00
     -0.670      0.000     8.1240     89.874      4.497   4.071382    -0.0538     -2.159   974.5436 1.2673e+02     1.2989     -0.657     -0.954    20.2555 0.0000e+00
     -0.670      0.002     8.1255     89.905      4.617   4.179908    -0.0683     -1.517  1140.5729 1.4372e+02     1.2318     -0.658     -0.953    20.2563 0.0000e+00
     -0.670      0.008     8.1276     89.932      4.730   4.282313    -0.0251      0.284  1231.1698 1.7681e+02     1.2595     -0.657     -0.954    20.2565 0.0000e+00
     -0.670      0.017     8.1279     89.906      4.672   4.232599     0.4763      2.584  1239.4059 2.1892e+02     1.5316     -0.658     -0.953    20.2574 0.0000e+00
     -0.670      0.027     8.1288     89.796      4.711   4.275686     1.3828      4.324  1240.1545 2.6105e+02     1.9599     -0.659     -0.955    20.2572 0.0000e+00
     -0.664      0.033     8.1316     89.593      4.861   4.423179     1.8886      5.359  1240.2209 3.0145e+02     2.2364     -0.657     -0.953    20.2589 0.0000e+00
     -0.645      0.036     8.1372     89.353      4.791   4.368817     1.9812      5.964  1240.2084 3.3005e+02     2.3473     -0.633     -0.919    20.2576 0.0000e+00
     -0.625      0.036     8.1338     89.168      4.656   4.251928     2.3771      6.324  1240.0044 3.4055e+02     2.6509     -0.606     -0.880    20.2613 0.0000e+00
     -0.615      0.032     8.1121     89.065      4.678   4.276917     3.0968      6.549  1237.7538 3.4134e+02     3.1751     -0.601     -0.871    20.3469 0.0000e+00
     -0.614      0.023     8.0674     89.020      5.173   4.734307     3.5084      6.702  1212.9972 3.4175e+02     3.4930     -0.604     -0.877    20.4951 0.0000e+00
     -0.611      0.014     8.0256     89.024      9.921   9.085332     3.5679      6.821   940.6738 3.4364e+02     3.5574     -0.600     -0.869    20.6018 0.0000e+00
     -0.609      0.017     7.9980     89.056     23.428  21.458637     3.5909      6.931   428.5527 3.4492e+02     3.6110     -0.596     -0.863    20.6613 0.0000e+00
     -0.609      0.039     7.9849     89.095     38.845  35.592372     3.6115      7.033   133.2647 3.4482e+02     3.6979     -0.597     -0.866    20.7077 0.0000e+00
     -0.612      0.075     7.9715     89.225     45.573  41.783131     3.6100      7.115   110.5506 3.4029e+02     3.7538     -0.601     -0.872    20.7470 0.0000e+00
     -0.605      0.117     7.9726     89.879     45.368  41.628302     3.6139      7.176   121.1380 3.3892e+02     3.8084     -0.606     -0.877    20.7759 0.0000e+00
     -0.570      0.160     7.9674     90.676     44.049  40.448122     3.6500      7.211   111.3954 3.6134e+02     3.8455     -0.572     -0.829    20.7853 0.0000e+00
     -0.505      0.201     7.9805     90.722     43.276  39.762852     3.9130      7.218    98.5822 4.0331e+02     3.8268     -0.498     -0.723    20.7956 0.0000e+00
     -0.430      0.235     7.9553     90.589     43.382  39.879604     4.3967      7.213   105.1677 4.3874e+02     3.8222     -0.415     -0.603    20.8357 0.0000e+00
     -0.363      0.252     8.0076     90.849     44.070  40.527070     4.6541      7.208   125.3732 4.5490e+02     3.8229     -0.353     -0.513    20.8766 0.0000e+00
     -0.301      0.246     8.1531     91.322     44.494  40.927610     4.6951      7.205   131.4859 4.3209e+02     3.8354     -0.302     -0.438    20.9103 0.0000e+00
     -0.231      0.221     8.0907     91.868     44.060  40.533833     4.8594      7.200   128.3981 3.6179e+02     3.8372     -0.225     -0.326    20.9394 0.0000e+00
     -0.164      0.185     8.0604     92.319     43.152  39.700762     5.1253      7.193   139.1468 2.9925e+02     3.8106     -0.153     -0.220    20.9585 0.0000e+00
     -0.114      0.146     8.1020     92.649     42.436  39.041808     5.2549      7.183   149.5963 2.9150e+02     3.7861     -0.105     -0.152    20.9765 0.0000e+00
     -0.086      0.106     8.1337     92.985     42.090  38.722240     5.2362      7.176   151.8395 3.0058e+02     3.7470     -0.079     -0.114    20.9895 0.0000e+00
     -0.076      0.066     8.1972     93.376     41.920  38.565679     5.0832      7.172   153.1051 2.9632e+02     3.7814     -0.073     -0.105    20.9952 0.0000e+00
     -0.072      0.033     8.2323     93.660     41.760  38.418013     4.8192      7.174   154.2296 3.0060e+02     3.8602     -0.071     -0.104    20.9965 0.0000e+00
     -0.070      0.013     8.2603     93.768     41.666  38.332898     4.6750      7.179   155.3686 3.1124e+02     3.8806     -0.068     -0.098    20.9961 0.0000e+00
     -0.071      0.003     8.2826     93.796     41.627  38.298064     4.6462      7.187   156.5519 3.0899e+02     3.8575     -0.067     -0.099    20.9942 0.0000e+00
     -0.074      0.000     8.3304     93.803     41.643  38.314125     4.6454      7.194   157.8677 2.9219e+02     3.8200     -0.073     -0.106    20.9929 0.0000e+00
     -0.076     -0.002     8.3564     93.798     41.734  38.400176     4.6988      7.201   159.4905 2.8050e+02     3.8365     -0.076     -0.110    20.9937 0.0000e+00
     -0.074     -0.004     8.3603     93.781     41.717  38.386635     4.7507      7.208   161.2888 2.8704e+02     3.8521     -0.073     -0.105    20.9948 0.0000e+00
     -0.073     -0.004     8.3616     93.757     41.596  38.277324     4.7571      7.214   162.4897 2.9394e+02     3.8045     -0.070     -0.102    20.9962 0.0000e+00
     -0.074     -0.004     8.3618     93.700     41.533  38.220754     4.7673      7.219   163.1689 2.9557e+02     3.7388     -0.072     -0.105    20.9985 0.0000e+00
     -0.077     -0.005     8.3613     93.584     41.521  38.210311     4.8075      7.218   164.5100 3.0030e+02     3.7404     -0.076     -0.111    21.0001 0.0000e+00
     -0.079     -0.005     8.3586     93.507     41.524  38.214515     4.8437      7.212   166.1437 3.0799e+02     3.8239     -0.078     -0.113    21.0025 0.0000e+00
     -0.080     -0.005     8.3567     93.546     41.516  38.208130     4.8719      7.205   167.3488 3.1670e+02     3.8608     -0.078     -0.113    21.0056 0.0000e+00
     -0.082     -0.006     8.3542     93.159     41.502  38.196568     4.8823      7.200   168.6703 3.1255e+02     3.8103     -0.082     -0.118    21.0071 0.0000e+00
     -0.082     -0.009     8.3402     91.183     41.506  38.201635     4.9192      7.196   170.0757 3.0435e+02     3.7259     -0.081     -0.117    21.0082 0.0000e+00
     -0.082     -0.013     8.3251     87.196     41.509  38.205940     5.0191      7.195   170.9200 3.2184e+02     3.6934     -0.079     -0.115    21.0097 0.0000e+00
     -0.085     -0.017     8.3399     82.057     41.484  38.185160     5.0911      7.197   171.3931 3.3778e+02     3.7599     -0.082     -0.119    21.0116 0.0000e+00
     -0.091     -0.018     8.3579     76.729     41.434  38.140765     5.1068      7.201   172.0960 3.3341e+02     3.8114     -0.088     -0.128    21.0131 0.0000e+00
     -0.100     -0.017     8.2034     71.760     41.403  38.113362     5.0601      7.208   172.7077 3.3321e+02     3.7699     -0.099     -0.142    21.0141 0.0000e+00
     -0.108     -0.015     7.8015     67.550     41.395  38.107663     4.9675      7.218   172.8518 3.2655e+02     3.7713     -0.109     -0.157    21.0165 0.0000e+00
     -0.112     -0.010     7.3130     64.338     41.355  38.071862     4.9188      7.228   173.1506 3.1949e+02     3.8632     -0.113     -0.163    21.0191 0.0000e+00
     -0.111     -0.005     6.8260     62.245     41.274  37.997781     4.9125      7.238   173.9975 3.3587e+02     3.9238     -0.110     -0.159    21.0209 0.0000e+00
     -0.109      0.000     6.3684     61.333     41.247  37.973440     4.9000      7.246   175.0030 3.5487e+02     3.8892     -0.106     -0.154    21.0224 0.0000e+00
     -0.107      0.003     5.9857     61.281     41.311  38.031389     4.8673      7.253   175.7576 3.5156e+02     3.7863     -0.105     -0.152    21.0240 0.0000e+00
     -0.105      0.004     5.6996     61.530     41.346  38.063864     4.8493      7.261   176.3256 3.3804e+02     3.7727     -0.103     -0.148    21.0253 0.0000e+00
     -0.105      0.004     5.5042     61.763     41.331  38.048804     4.8503      7.267   176.8803 3.3901e+02     3.8615     -0.102     -0.148    21.0258 0.0000e+00
     -0.106      0.004     5.4348     61.876     41.322  38.039676     4.8288      7.272   177.3020 3.4586e+02     3.9031     -0.105     -0.152    21.0259 0.0000e+00
     -0.106      0.004     5.4548     61.835     41.298  38.016949     4.7894      7.279   177.5524 3.4180e+02     3.8661     -0.105     -0.153    21.0253 0.0000e+00
     -0.103      0.003     5.4830     61.645     41.241  37.964385     4.7574      7.287   177.8423 3.3655e+02     3.7905     -0.102     -0.147    21.0247 0.0000e+00
     -0.099      0.003     5.5072     61.348     41.183  37.911780     4.7485      7.297   178.3118 3.3891e+02     3.7741     -0.097     -0.140    21.0244 0.0000e+00
     -0.097      0.002     5.5173     61.005     41.158  37.888559     4.7403      7.307   178.7558 3.4515e+02     3.8388     -0.094     -0.137    21.0237 0.0000e+00
     -0.099      0.001     5.5147     60.679     41.143  37.873989     4.7170      7.316   179.0800 3.4696e+02     3.8897     -0.097     -0.141    21.0231 0.0000e+00
     -0.101      0.000     5.4952     60.376     41.131  37.862530     4.6992      7.324   179.5645 3.4293e+02     3.8427     -0.100     -0.145    21.0230 0.0000e+00
     -0.102 -5.742e-08     5.4677     60.073     41.147  37.876921     4.6827      7.332   180.1400 3.4045e+02     3.7483     -0.101     -0.147    21.0226 0.0000e+00
     -0.101 -6.316e-07     5.4342     59.843     41.195  37.921076     4.6760      7.339   180.5323 3.3844e+02     3.7742     -0.100     -0.146    21.0220 0.0000e+00
     -0.099      0.000     5.4046     59.779     41.228  37.952208     4.6940      7.345   180.8657 3.3561e+02     3.8823     -0.098     -0.141    21.0215 0.0000e+00
     -0.098      0.000     5.3814     59.909     41.211  37.936054     4.7093      7.352   181.3313 3.3759e+02     3.9279     -0.096     -0.139    21.0213 0.0000e+00
     -0.099     -0.001     5.3499     60.204     41.189  37.916136     4.7018      7.360   181.9473 3.4316e+02     3.8810     -0.097     -0.140    21.0214 0.0000e+00
     -0.101     -0.003     5.3260     60.576     41.174  37.901748     4.6873      7.368   182.5484 3.4609e+02     3.7944     -0.099     -0.143    21.0215 0.0000e+00
     -0.102     -0.003     5.3202     60.925     41.159  37.889006     4.7002      7.376   182.9214 3.4629e+02     3.8026     -0.100     -0.145    21.0218 0.0000e+00
     -0.103     -0.003     5.3317     61.207     41.159  37.888984     4.7404      7.383   183.1010 3.4649e+02     3.8769     -0.101     -0.146    21.0222 0.0000e+00
     -0.104     -0.002     5.3616     61.403     41.173  37.901479     4.7739      7.390   183.3430 3.4643e+02     3.8736     -0.102     -0.148    21.0220 0.0000e+00
     -0.104     -0.001     5.3988     61.479     41.186  37.913164     4.7892      7.398   183.7831 3.4590e+02     3.7969     -0.103     -0.149    21.0218 0.0000e+00
     -0.104     -0.001     5.4305     61.429     41.175  37.903355     4.7926      7.405   184.2060 3.4541e+02     3.7350     -0.102     -0.148    21.0216 0.0000e+00
     -0.104      0.000     5.4558     61.279     41.182  37.909804     4.7982      7.412   184.4979 3.4513e+02     3.7744     -0.102     -0.148    21.0218 0.0000e+00
     -0.104 -1.877e-08     5.4748     61.064     41.202  37.927683     4.8153      7.418   184.7319 3.4420e+02     3.8637     -0.101     -0.147    21.0220 0.0000e+00
     -0.104 -2.064e-07     5.4819     60.837     41.203  37.929152     4.8167      7.426   184.9700 3.4228e+02     3.8582     -0.102     -0.147    21.0219 0.0000e+00
     -0.104 -2.034e-07     5.4762     60.630     41.201  37.927569     4.7816      7.433   185.3118 3.4186e+02     3.7760     -0.102     -0.148    21.0219 0.0000e+00
     -0.104 1.8432e-08     5.4623     60.452     41.180  37.908547     4.7486      7.439   185.7669 3.4362e+02     3.7238     -0.103     -0.149    21.0218 0.0000e+00
     -0.104 4.0779e-07     5.4407     60.313     41.160  37.889521     4.7582      7.445   186.2571 3.4415e+02     3.7394     -0.103     -0.149    21.0219 0.0000e+00
     -0.103      0.000     5.4193     60.203     41.159  37.887896     4.7813      7.451   186.6785 3.4310e+02     3.8275     -0.101     -0.147    21.0219 0.0000e+00
     -0.103      0.000     5.4017     60.113     41.160  37.888898     4.7450      7.457   187.0764 3.4313e+02     3.8324     -0.101     -0.147    21.0218 0.0000e+00
     -0.104      0.001     5.3840     60.027     41.175  37.901642     4.6698      7.463   187.3685 3.4344e+02     3.7305     -0.102     -0.148    21.0218 0.0000e+00
     -0.104      0.001     5.3733     59.917     41.190  37.915066     4.6289      7.469   187.4570 3.4281e+02     3.7231     -0.103     -0.149    21.0216 0.0000e+00
     -0.104      0.001     5.3632     59.771     41.200  37.924289     4.6252      7.474   187.6305 3.4266e+02     3.7770     -0.102     -0.148    21.0214 0.0000e+00
     -0.103      0.000     5.3556     59.578     41.228  37.949709     4.6419      7.480   188.0030 3.4327e+02     3.7666     -0.101     -0.146    21.0213 0.0000e+00
     -0.103 5.5896e-08     5.3496     59.380     41.248  37.968589     4.6477      7.486   188.5193 3.4485e+02     3.6317     -0.101     -0.146    21.0211 0.0000e+00
     -0.103 6.1485e-07     5.3394     59.315     41.241  37.962192     4.6283      7.492   189.1411 3.4710e+02     3.4791     -0.101     -0.146    21.0204 0.0000e+00
     -0.103      0.000     5.3273     59.361     41.213  37.935819     4.6154      7.498   189.6696 3.4881e+02     3.4582     -0.101     -0.146    21.0199 0.0000e+00
     -0.104      0.000     5.3103     59.263     41.179  37.903544     4.6165      7.503   189.9199 3.4901e+02     3.5159     -0.102     -0.148    21.0198 0.0000e+00
     -0.104      0.001     5.2858     58.954     41.164  37.889238     4.5840      7.506   190.0159 3.4765e+02     3.6640     -0.102     -0.147    21.0197 0.0000e+00
     -0.103      0.001     5.2772     58.541     41.165  37.889759     4.5128      7.510   190.2280 3.4682e+02     3.8149     -0.101     -0.146    21.0196 0.0000e+00
     -0.102      0.001     5.2975     58.074     41.188  37.909845     4.4636      7.515   190.5917 3.4771e+02     3.8028     -0.100     -0.145    21.0191 0.0000e+00
     -0.102      0.002     5.2886     57.554     41.224  37.941719     4.4466      7.520   190.9720 3.5018e+02     3.7571     -0.100     -0.144    21.0187 0.0000e+00
     -0.102      0.002     5.2544     56.983     41.242  37.957862     4.4411      7.524   191.2125 3.5325e+02     3.7741     -0.099     -0.143    21.0181 0.0000e+00
     -0.102      0.002     5.2186     56.446     41.266  37.978109     4.4458      7.527   191.4341 3.5473e+02     3.8034     -0.100     -0.145    21.0169 0.0000e+00
     -0.101      0.002     5.1754     56.021     41.287  37.996150     4.4454      7.528   191.6726 3.5533e+02     3.8039     -0.100     -0.144    21.0153 0.0000e+00
     -0.100      0.001     5.1319     55.682     41.277  37.985627     4.4292      7.532   191.8592 3.5753e+02     3.7454     -0.098     -0.142    21.0141 0.0000e+00
     -0.099      0.001     5.0769     55.372     41.272  37.977785     4.4402      7.537   192.0559 3.5984e+02     3.6434     -0.097     -0.140    21.0132 0.0000e+00
     -0.099      0.001     5.0250     55.054     41.260  37.964794     4.4960      7.540   192.1582 3.6209e+02     3.5615     -0.097     -0.141    21.0120 0.0000e+00
     -0.100      0.000     4.9903     54.734     41.251  37.955461     4.5380      7.542   192.1493 3.6242e+02     3.5745     -0.098     -0.142    21.0100 0.0000e+00
     -0.101 1.8647e-08     4.9615     54.426     41.293  37.991852     4.5318      7.545   192.1203 3.5780e+02     3.5956     -0.099     -0.143    21.0071 0.0000e+00
     -0.101 2.0512e-07     4.9359     54.098     41.330  38.024057     4.4964      7.548   192.2384 3.5564e+02     3.5784     -0.099     -0.143    21.0041 0.0000e+00
     -0.100 2.0574e-07     4.9075     53.727     41.335  38.027562     4.4756      7.550   192.4579 3.5804e+02     3.6053     -0.098     -0.142    21.0018 0.0000e+00
     -0.099 2.6090e-08     4.8774     53.329     41.343  38.034225     4.4886      7.552   192.4516 3.5908e+02     3.6133     -0.097     -0.141    20.9998 0.0000e+00
     -0.099 8.3623e-08     4.8524     52.928     41.353  38.041151     4.4957      7.555   192.2491 3.5928e+02     3.6065     -0.098     -0.142    20.9981 0.0000e+00
     -0.099 9.0136e-07     4.8243     52.547     41.362  38.047851     4.4780      7.556   192.1597 3.5984e+02     3.6596     -0.098     -0.142    20.9964 0.0000e+00
     -0.100      0.000     4.7901     52.178     41.368  38.051771     4.4573      7.556   192.2314 3.6035e+02     3.7432     -0.098     -0.142    20.9945 0.0000e+00
     -0.100      0.000     4.7547     51.798     41.341  38.025088     4.4621      7.556   192.1690 3.6072e+02     3.8317     -0.099     -0.143    20.9924 0.0000e+00
     -0.099      0.001     4.7177     51.422     41.292  37.979059     4.4863      7.556   191.9215 3.6051e+02     3.8758     -0.098     -0.141    20.9904 0.0000e+00
     -0.099      0.003     4.6839     51.075     41.250  37.939436     4.4837      7.555   191.8208 3.6028e+02     3.8315     -0.097     -0.140    20.9885 0.0000e+00
     -0.099      0.005     4.6534     50.768     41.237  37.926755     4.4556      7.553   191.9837 3.6135e+02     3.7402     -0.097     -0.141    20.9866 0.0000e+00
     -0.098      0.007     4.6181     50.502     41.267  37.952640     4.4374      7.551   192.3425 3.6535e+02     3.7283     -0.097     -0.141    20.9852 0.0000e+00
     -0.096      0.007     4.5841     50.246     41.317  37.998573     4.4389      7.551   192.7177 3.6962e+02     3.8249     -0.094     -0.137    20.9834 0.0000e+00
     -0.092      0.007     4.5530     49.977     41.362  38.037937     4.4479      7.552   192.9926 3.7300e+02     3.8498     -0.090     -0.129    20.9818 0.0000e+00
     -0.089      0.007     4.5253     49.704     41.374  38.047844     4.4374      7.554   193.2574 3.7640e+02     3.7219     -0.086     -0.126    20.9808 0.0000e+00
     -0.087      0.006     4.5030     49.431     41.384  38.054894     4.4041      7.556   193.5091 3.7567e+02     3.5765     -0.085     -0.124    20.9796 0.0000e+00
     -0.087      0.004     4.4817     49.157     41.390  38.059725     4.3785      7.558   193.7986 3.7321e+02     3.5259     -0.086     -0.124    20.9781 0.0000e+00
     -0.087      0.004     4.4567     48.886     41.373  38.042790     4.3773      7.560   194.0906 3.7160e+02     3.5537     -0.086     -0.125    20.9764 0.0000e+00
     -0.087      0.004     4.4324     48.617     41.372  38.040507     4.3819      7.561   194.2873 3.7258e+02     3.5708     -0.086     -0.124    20.9748 0.0000e+00
     -0.086      0.005     4.4087     48.344     41.364  38.032125     4.3838      7.561   194.4561 3.7748e+02     3.5620     -0.084     -0.122    20.9731 0.0000e+00
     -0.084      0.008     4.3838     48.076     41.336  38.004900     4.3835      7.561   194.4961 3.7839e+02     3.5506     -0.082     -0.119    20.9713 0.0000e+00
     -0.082      0.011     4.3599     47.831     41.363  38.028607     4.3703      7.560   194.5139 3.7549e+02     3.5359     -0.081     -0.117    20.9698 0.0000e+00
     -0.080      0.015     4.3363     47.611     41.472  38.128382     4.3820      7.560   194.7567 3.7178e+02     3.6231     -0.079     -0.114    20.9685 0.0000e+00
     -0.077      0.016     4.3122     47.452     41.615  38.259423     4.4175      7.561   195.0223 3.6607e+02     3.7850     -0.077     -0.111    20.9669 0.0000e+00
     -0.071      0.014     4.2867     47.347     41.706  38.343872     4.4330      7.563   195.1438 3.5686e+02     3.8538     -0.072     -0.104    20.9655 0.0000e+00
     -0.062      0.012     4.2667     47.207     41.685  38.324500     4.4361      7.563   195.1082 3.4886e+02     3.8056     -0.059     -0.086    20.9642 0.0000e+00
     -0.057      0.011     4.2445     47.004     41.567  38.215570     4.4466      7.561   194.7641 3.5258e+02     3.7146     -0.052     -0.076    20.9639 0.0000e+00
     -0.059      0.013     4.2292     46.779     41.449  38.105581     4.4768      7.558   194.2530 3.6056e+02     3.6761     -0.056     -0.082    20.9639 0.0000e+00
     -0.063      0.016     4.2260     46.613     41.414  38.073411     4.4933      7.554   193.8321 3.6303e+02     3.6475     -0.065     -0.093    20.9640 0.0000e+00
     -0.063      0.018     4.2125     46.541     41.423  38.080428     4.4795      7.552   193.4607 3.5860e+02     3.5740     -0.066     -0.095    20.9650 0.0000e+00
     -0.054      0.021     4.1942     46.541     41.407  38.063506     4.4591      7.552   193.2905 3.4186e+02     3.5382     -0.055     -0.079    20.9640 0.0000e+00
     -0.040      0.025     4.1701     46.600     41.403  38.059183     4.4383      7.553   193.4940 3.2065e+02     3.5571     -0.037     -0.054    20.9610 0.0000e+00
     -0.030      0.027     4.1546     46.720     41.438  38.091603     4.4282      7.553   193.8565 3.1160e+02     3.5967     -0.026     -0.038    20.9611 0.0000e+00
     -0.026      0.024     4.1498     46.894     41.488  38.138215     4.4292      7.554   194.0596 3.1217e+02     3.6081     -0.025     -0.036    20.9613 0.0000e+00
     -0.023      0.019     4.1498     47.053     41.533  38.178568     4.4245      7.555   194.2296 3.1192e+02     3.5580     -0.023     -0.033    20.9576 0.0000e+00
     -0.019      0.013     4.1560     47.129     41.557  38.198768     4.4214      7.553   194.5353 3.0768e+02     3.5711     -0.018     -0.027    20.9549 0.0000e+00
     -0.015      0.011     4.1649     47.093     41.552  38.192073     4.4337      7.552   194.7447 2.9848e+02     3.7335     -0.013     -0.019    20.9564 0.0000e+00
     -0.012      0.012     4.1846     46.960     41.520  38.161069     4.4563      7.553   194.9539 2.8343e+02     3.8808     -0.011     -0.016    20.9585 0.0000e+00
     -0.012      0.014     4.2000     46.757     41.499  38.141186     4.4781      7.554   195.3441 2.6875e+02     3.8496     -0.012     -0.018    20.9576 0.0000e+00
     -0.010      0.014     4.2085     46.500     41.500  38.142044     4.4892      7.554   195.7623 2.6287e+02     3.7661     -0.011     -0.016    20.9546 0.0000e+00
     -0.005      0.013     4.2048     46.242     41.531  38.171437     4.5081      7.552   196.3973 2.5956e+02     3.7926     -0.006     -0.008    20.9521 0.0000e+00
      0.002      0.011     4.1911     45.995     41.609  38.242750     4.5321      7.547   197.1708 2.5156e+02     3.8635      0.003      0.004    20.9503 0.0000e+00
      0.007      0.008     4.1748     45.747     41.679  38.306257     4.5379      7.541   197.6299 2.4519e+02     3.9059      0.009      0.013    20.9493 0.0000e+00
      0.008      0.004     4.1480     45.538     41.748  38.368176     4.4947      7.536   197.9907 2.4696e+02     3.8957      0.008      0.012    20.9498 0.0000e+00
      0.005     -0.001     4.1250     45.358     41.874  38.483741     4.4089      7.534   198.4352 2.5122e+02     3.8412      0.004      0.008    20.9505 0.0000e+00
      0.003     -0.004     4.1052     45.167     42.027  38.624753     4.3740      7.532   198.8751 2.5240e+02     3.8285      0.002      0.004    20.9503 0.0000e+00
      0.001     -0.004     4.0793     44.964     42.153  38.740513     4.3812      7.531   199.1796 2.5151e+02     3.8792      0.001      0.001    20.9492 0.0000e+00
     -0.001     -0.002     4.0620     44.766     42.228  38.804580     4.3787      7.531   199.3627 2.4870e+02     3.9079     -0.001     -0.001    20.9473 0.0000e+00
     -0.001      0.001     4.0485     44.602     42.266  38.828251     4.3773      7.534   199.6264 2.4479e+02     3.8334     -0.002     -0.003    20.9458 0.0000e+00
     -0.000      0.003     4.0303     44.501     42.287  38.836329     4.3729      7.539   199.7876 2.4364e+02     3.7303     -0.001     -0.002    20.9467 0.0000e+00
      0.002      0.005     4.0120     44.464     42.300  38.838767     4.3758      7.544   199.7629 2.4563e+02     3.7539      0.002      0.003    20.9498 0.0000e+00
      0.005      0.005     3.9934     44.452     42.328  38.857713     4.4034      7.550   199.7569 2.4704e+02     3.8459      0.006      0.009    20.9442 0.0000e+00
      0.007      0.004     3.9793     44.462     42.352  38.875015     4.4411      7.556   199.8877 2.4729e+02     3.8856      0.008      0.011    20.9281 0.0000e+00
      0.007      0.002     3.9708     44.518     42.336  38.857578     4.4405      7.563   200.0543 2.4831e+02     3.8586      0.008      0.012    20.9132 0.0000e+00
      0.006      0.000     3.9705     44.603     42.316  38.837267     4.4116      7.569   200.0500 2.5080e+02     3.7931      0.005      0.009    20.9022 0.0000e+00
      0.004     -0.001     3.9708     44.735     42.298  38.819811     4.4165      7.575   200.0079 2.5175e+02     3.8107      0.004      0.006    20.8939 0.0000e+00
      0.004     -0.001     3.9686     44.943     42.248  38.773434     4.4587      7.580   200.1473 2.4966e+02     3.8314      0.004      0.006    20.8886 0.0000e+00
      0.005      0.000     3.9775     45.213     41.983  38.530367     4.4888      7.585   200.3590 2.4774e+02     3.7368      0.005      0.006    20.8854 0.0000e+00
      0.006      0.001     3.9833     45.606     41.440  38.038477     4.4809      7.589   200.5882 2.4774e+02     3.6233      0.006      0.008    20.8839 0.0000e+00
      0.006      0.002     3.9934     46.585     40.992  37.648808     4.4554      7.592   200.7683 2.4762e+02     3.5525      0.006      0.009    20.8826 0.0000e+00
      0.007      0.002     4.0138     49.054     40.793  37.499436     4.4792      7.595   200.8155 2.4693e+02     3.6315      0.007      0.010    20.8821 0.0000e+00
      0.007      0.001     4.0374     53.362     40.694  37.438130     4.5612      7.600   200.9000 2.4576e+02     3.8274      0.006      0.009    20.8822 0.0000e+00
      0.007      0.001     4.0644     58.805     40.649  37.415248     4.6061      7.604   201.0163 2.4327e+02     3.9051      0.007      0.010    20.8832 0.0000e+00
      0.008      0.001     4.1078     64.285     40.635  37.413168     4.5975      7.609   201.1028 2.4116e+02     3.8198      0.007      0.011    20.9093 0.0000e+00
      0.008      0.001     4.3076     68.955     40.629  37.412992     4.5816      7.614   201.2585 2.4052e+02     3.7186      0.008      0.011    20.9616 0.0000e+00
      0.008      0.001     4.7206     72.485     40.626  37.413130     4.5809      7.619   201.4365 2.4020e+02     3.7402      0.007      0.011    21.0011 0.0000e+00
      0.008      0.001     5.2393     74.801     40.626  37.414844     4.5969      7.623   201.6199 2.3870e+02     3.8413      0.008      0.011    21.0214 0.0000e+00
      0.008      0.001     5.7574     75.838     40.646  37.433715     4.5915      7.627   201.9271 2.3607e+02     3.8831      0.007      0.010    21.0329 0.0000e+00
      0.008      0.001     6.1782     75.706     40.664  37.450931     4.5576      7.631   202.2252 2.3401e+02     3.8349      0.008      0.011    21.0386 0.0000e+00
      0.008      0.001     6.4919     74.796     40.644  37.432638     4.5287      7.634   202.2989 2.3271e+02     3.7706      0.008      0.012    21.0416 0.0000e+00
      0.009      0.001     6.7030     73.599     40.612  37.402898     4.5251      7.635   202.2154 2.3110e+02     3.7893      0.009      0.013    21.0427 0.0000e+00
      0.009      0.001     6.7928     72.478     40.618  37.408628     4.5389      7.637   202.1632 2.2936e+02     3.8566      0.009      0.014    21.0433 0.0000e+00
      0.009      0.001     6.7672     71.612     40.650  37.438460     4.5365      7.641   202.2700 2.2744e+02     3.8326      0.009      0.013    21.0438 0.0000e+00
      0.009      0.001     6.6683     71.001     40.659  37.446311     4.5048      7.646   202.4735 2.2589e+02     3.7049      0.009      0.013    21.0439 0.0000e+00
      0.009      0.001     6.5515     70.549     40.653  37.440102     4.4723      7.651   202.6446 2.2538e+02     3.5758      0.009      0.013    21.0436 0.0000e+00
      0.010      0.001     6.4453     70.174     40.638  37.426849     4.4683      7.655   202.7903 2.2487e+02     3.5354      0.010      0.014    21.0438 0.0000e+00
      0.010      0.001     6.3691     69.863     40.623  37.412971     4.4902      7.659   202.9449 2.2422e+02     3.5916      0.009      0.014    21.0439 0.0000e+00
      0.010      0.001     6.3188     69.635     40.608  37.399218     4.5199      7.663   203.0514 2.2371e+02     3.6753      0.009      0.014    21.0437 0.0000e+00
      0.011      0.001     6.2812     69.481     40.595  37.387471     4.5527      7.665   203.1309 2.2217e+02     3.7276      0.010      0.015    21.0440 0.0000e+00
      0.011      0.001     6.2480     69.360     40.606  37.397855     4.5782      7.667   203.2180 2.2000e+02     3.7453      0.010      0.015    21.0443 0.0000e+00
      0.011      0.001     6.2191     69.251     40.606  37.397854     4.5875      7.670   203.3303 2.1918e+02     3.7870      0.011      0.016    21.0445 0.0000e+00
      0.011      0.001     6.1986     69.157     40.595  37.387460     4.5823      7.675   203.4560 2.1868e+02     3.7538      0.011      0.016    21.0444 0.0000e+00
      0.012      0.001     6.1875     69.092     40.608  37.399091     4.5562      7.679   203.4470 2.1769e+02     3.5832      0.012      0.017    21.0442 0.0000e+00
      0.012      0.002     6.1770     69.092     40.621  37.411573     4.5215      7.681   203.4801 2.1649e+02     3.4997      0.011      0.017    21.0441 0.0000e+00
      0.012      0.002     6.1666     69.149     40.620  37.411469     4.5043      7.684   203.6837 2.1405e+02     3.5305      0.011      0.017    21.0441 0.0000e+00
      0.013      0.003     6.1589     69.198     40.605  37.397834     4.4980      7.686   203.8444 2.1173e+02     3.5454      0.013      0.018    21.0441 0.0000e+00
      0.014      0.003     6.1506     69.210     40.579  37.373625     4.4792      7.687   204.0465 2.1055e+02     3.5430      0.014      0.020    21.0444 0.0000e+00
      0.015      0.003     6.1506     69.212     40.578  37.372576     4.4515      7.691   204.2346 2.0933e+02     3.5359      0.014      0.020    21.0447 0.0000e+00
      0.016      0.002     6.1591     69.214     40.591  37.385153     4.4292      7.694   204.2255 2.0867e+02     3.5283      0.016      0.024    21.0448 0.0000e+00
      0.017      0.001     6.1645     69.224     40.606  37.398788     4.4426      7.695   204.2800 2.0922e+02     3.5536      0.018      0.026    21.0454 0.0000e+00
      0.017      0.001     6.1633     69.244     40.619  37.410525     4.4966      7.695   204.5505 2.1027e+02     3.6365      0.018      0.026    21.0456 0.0000e+00
      0.015      0.001     6.1638     69.244     40.608  37.400150     4.5418      7.695   204.7424 2.1055e+02     3.6767      0.015      0.021    21.0455 0.0000e+00
      0.014      0.001     6.1643     69.239     40.608  37.400256     4.5488      7.696   204.7069 2.0990e+02     3.6301      0.012      0.018    21.0457 0.0000e+00
      0.016      0.002     6.1634     69.257     40.621  37.411802     4.5473      7.698   204.8103 2.0972e+02     3.6539      0.016      0.023    21.0458 0.0000e+00
      0.018      0.003     6.1681     69.278     40.623  37.412842     4.5900      7.700   205.0461 2.0942e+02     3.7938      0.019      0.027    21.0457 0.0000e+00
      0.018      0.003     6.1672     69.283     40.623  37.412833     4.6492      7.703   205.2351 2.0864e+02     3.8859      0.017      0.025    21.0451 0.0000e+00
      0.019      0.002     6.1644     69.253     40.622  37.411698     4.6638      7.704   205.4599 2.0814e+02     3.8800      0.018      0.026    21.0449 0.0000e+00
      0.020      0.001     6.1686     69.178     40.608  37.399123     4.6415      7.704   205.6138 2.0719e+02     3.8245      0.020      0.029    21.0448 0.0000e+00
      0.021      0.000     6.1699     69.089     40.595  37.387690     4.6123      7.703   205.8053 2.0660e+02     3.7959      0.021      0.031    21.0445 0.0000e+00
      0.021      0.001     6.1714     68.991     40.610  37.400371     4.5940      7.701   206.0537 2.0796e+02     3.8424      0.021      0.031    21.0443 0.0000e+00
      0.019      0.002     6.1697     68.893     40.637  37.425543     4.5954      7.700   206.2087 2.1069e+02     3.8738      0.019      0.028    21.0445 0.0000e+00
      0.017      0.003     6.1605     68.850     40.652  37.438225     4.6036      7.699   206.3881 2.1177e+02     3.8677      0.016      0.022    21.0447 0.0000e+00
      0.018      0.004     6.1531     68.835     40.640  37.426792     4.5850      7.697   206.6747 2.0983e+02     3.8370      0.015      0.022    21.0443 0.0000e+00
      0.022      0.004     6.1457     68.776     40.626  37.414225     4.5453      7.696   206.9206 2.0793e+02     3.8094      0.022      0.031    21.0434 0.0000e+00
      0.027      0.004     6.1327     68.681     40.625  37.413186     4.5314      7.696   207.0381 2.0820e+02     3.8417      0.028      0.040    21.0424 0.0000e+00
      0.028      0.004     6.1304     68.569     40.625  37.414225     4.5339      7.697   207.1495 2.0990e+02     3.8521      0.029      0.042    21.0419 0.0000e+00
      0.026      0.003     6.1337     68.488     40.638  37.426792     4.5092      7.699   207.3200 2.1084e+02     3.7976      0.025      0.036    21.0420 0.0000e+00
      0.023      0.000     6.1257     68.499     40.650  37.438224     4.4736      7.701   207.4655 2.0985e+02     3.7641      0.021      0.031    21.0421 0.0000e+00
      0.023     -0.003     6.1179     68.603     40.637  37.425543     4.4618      7.704   207.5319 2.0845e+02     3.7889      0.021      0.031    21.0426 0.0000e+00
      0.026     -0.004     6.1061     68.745     40.610  37.400371     4.4656      7.706   207.6069 2.0817e+02     3.8581      0.026      0.037    21.0438 0.0000e+00
      0.026     -0.003     6.0958     68.878     40.597  37.387689     4.4942      7.706   207.6847 2.0995e+02     3.8155      0.028      0.040    21.0446 0.0000e+00
      0.023     -0.002     6.0970     68.968     40.610  37.399112     4.5500      7.707   207.7833 2.1360e+02     3.6145      0.023      0.033    21.0441 0.0000e+00
      0.018     -0.002     6.1087     69.010     40.622  37.411574     4.5830      7.707   207.9392 2.1661e+02     3.5130      0.016      0.024    21.0435 0.0000e+00
      0.017     -0.002     6.1231     69.039     40.621  37.411469     4.5768      7.708   208.0205 2.1668e+02     3.5789      0.015      0.022    21.0427 0.0000e+00
      0.019     -0.001     6.1355     69.052     40.606  37.397843     4.5421      7.711   208.0783 2.1447e+02     3.7276      0.019      0.027    21.0419 0.0000e+00
      0.022      0.000     6.1452     69.044     40.579  37.373730     4.4873      7.713   208.1213 2.1275e+02     3.8420      0.022      0.032    21.0418 0.0000e+00
      0.022      0.001     6.1455     69.034     40.579  37.373730     4.4478      7.714   208.1964 2.1227e+02     3.8003      0.023      0.033    21.0424 0.0000e+00
      0.021      0.001     6.1494     69.032     40.606  37.397843     4.4388      7.715   208.4706 2.1230e+02     3.7012      0.020      0.030    21.0434 0.0000e+00
      0.019      0.000     6.1507     69.053     40.621  37.411460     4.4452      7.718   208.6826 2.1239e+02     3.6697      0.018      0.027    21.0444 0.0000e+00
      0.018     -0.001     6.1485     69.103     40.621  37.411468     4.5251      7.720   208.6956 2.1175e+02     3.7272      0.017      0.025    21.0453 0.0000e+00
      0.019     -0.001     6.1481     69.162     40.606  37.397945     4.6645      7.723   208.7996 2.1088e+02     3.7806      0.018      0.027    21.0458 0.0000e+00
      0.021     -0.002     6.1464     69.197     40.581  37.374862     4.7235      7.726   208.9931 2.1078e+02     3.7681      0.021      0.031    21.0456 0.0000e+00
      0.022     -0.004     6.1488     69.193     40.593  37.386191     4.7144      7.729   209.0566 2.1156e+02     3.7477      0.022      0.032    21.0452 0.0000e+00
      0.020     -0.005     6.1534     69.155     40.616  37.408006     4.6700      7.730   209.0507 2.1318e+02     3.7733      0.020      0.029    21.0448 0.0000e+00
      0.016     -0.005     6.1606     69.114     40.591  37.384818     4.5948      7.733   209.0933 2.1486e+02     3.8388      0.016      0.023    21.0446 0.0000e+00
      0.012     -0.001     6.1635     69.102     40.563  37.359647     4.5462      7.735   209.1422 2.1652e+02     3.8567      0.012      0.017    21.0447 0.0000e+00
      0.011      0.004     6.1636     69.121     40.561  37.357472     4.5152      7.736   209.2118 2.1723e+02     3.8188      0.010      0.014    21.0447 0.0000e+00
      0.011      0.007     6.1589     69.157     40.562  37.358522     4.5365      7.736   209.3329 2.1461e+02     3.7560      0.009      0.013    21.0453 0.0000e+00
      0.016      0.008     6.1534     69.199     40.577  37.372338     4.6115      7.736   209.4884 2.0920e+02     3.6777      0.014      0.021    21.0459 0.0000e+00
      0.025      0.008     6.1533     69.254     40.604  37.397614     4.6487      7.735   209.7147 2.0531e+02     3.6239      0.026      0.037    21.0463 0.0000e+00
      0.030      0.008     6.1546     69.302     40.618  37.410324     4.6362      7.732   210.0038 2.0601e+02     3.5836      0.033      0.048    21.0467 0.0000e+00
      0.027      0.006     6.1595     69.332     40.606  37.399101     4.5692      7.729   210.3171 2.0829e+02     3.6004      0.027      0.040    21.0466 0.0000e+00
      0.022      0.003     6.1611     69.334     40.596  37.388822     4.4714      7.726   210.5771 2.0870e+02     3.7244      0.018      0.026    21.0466 0.0000e+00
      0.022     -0.001     6.1683     69.321     40.622  37.412956     4.4349      7.725   210.6529 2.0715e+02     3.8534      0.020      0.029    21.0461 0.0000e+00
      0.027     -0.002     6.1721     69.312     40.648  37.437080     4.4525      7.725   210.6309 2.0501e+02     3.8958      0.028      0.041    21.0456 0.0000e+00
      0.030      0.000     6.1752     69.271     40.638  37.426688     4.4855      7.726   210.6549 2.0505e+02     3.8612      0.031      0.046    21.0458 0.0000e+00
      0.027      0.001     6.1760     69.212     40.625  37.414215     4.5332      7.729   210.6856 2.0755e+02     3.8102      0.027      0.039    21.0456 0.0000e+00
      0.023      0.000     6.1714     69.152     40.624  37.413184     4.5712      7.732   210.7443 2.0871e+02     3.8266      0.022      0.031    21.0451 0.0000e+00
      0.022      0.000     6.1755     69.057     40.626  37.414216     4.5882      7.734   210.8476 2.0661e+02     3.8885      0.020      0.029    21.0444 0.0000e+00
      0.025      0.000     6.1696     68.916     40.641  37.426689     4.5807      7.738   210.9885 2.0410e+02     3.8759      0.024      0.035    21.0437 0.0000e+00
      0.028      0.001     6.1630     68.747     40.653  37.437081     4.5633      7.742   211.1570 2.0348e+02     3.7767      0.028      0.041    21.0434 0.0000e+00
      0.029      0.001     6.1606     68.588     40.627  37.412957     4.5611      7.745   211.2500 2.0393e+02     3.7144      0.029      0.042    21.0427 0.0000e+00
      0.028      0.001     6.1519     68.479     40.601  37.388826     4.5701      7.746   211.3386 2.0450e+02     3.7370      0.027      0.039    21.0413 0.0000e+00
      0.025      0.001     6.1391     68.415     40.612  37.399129     4.5894      7.748   211.4539 2.0485e+02     3.7765      0.024      0.035    21.0402 0.0000e+00
      0.024      0.001     6.1229     68.370     40.625  37.410623     4.6028      7.750   211.3536 2.0473e+02     3.8167      0.023      0.033    21.0398 0.0000e+00
      0.026      0.001     6.1067     68.322     40.615  37.400888     4.5910      7.752   211.1588 2.0404e+02     3.8470      0.024      0.035    21.0397 0.0000e+00
      0.029      0.001     6.0978     68.249     40.624  37.408334     4.5715      7.756   211.1634 2.0283e+02     3.8349      0.028      0.041    21.0399 0.0000e+00
      0.030      0.001     6.0933     68.173     40.654  37.437197     4.5668      7.760   211.3237 2.0259e+02     3.8412      0.031      0.045    21.0393 0.0000e+00
      0.029      0.001     6.0892     68.100     40.649  37.432597     4.5758      7.763   211.5475 2.0372e+02     3.8548      0.028      0.042    21.0382 0.0000e+00
      0.027      0.000     6.0873     68.031     40.631  37.416163     4.5806      7.764   211.7185 2.0407e+02     3.7948      0.025      0.037    21.0378 0.0000e+00
      0.026 -1.863e-08     6.0785     68.005     40.645  37.428867     4.5748      7.764   211.7562 2.0319e+02     3.7308      0.024      0.035    21.0380 0.0000e+00
      0.027 -2.050e-07     6.0717     68.010     40.679  37.459294     4.5718      7.766   211.7455 2.0246e+02     3.7294      0.026      0.037    21.0380 0.0000e+00
      0.028      0.000     6.0669     68.020     40.687  37.466775     4.6114      7.768   211.7617 2.0190e+02     3.7780      0.028      0.040    21.0382 0.0000e+00
      0.029      0.000     6.0567     68.036     40.676  37.455867     4.6870      7.770   211.7796 2.0128e+02     3.8410      0.029      0.042    21.0386 0.0000e+00
      0.029     -0.001     6.0565     68.036     40.674  37.454308     4.7123      7.772   211.9623 2.0197e+02     3.8418      0.029      0.042    21.0383 0.0000e+00
      0.027     -0.001     6.0580     68.009     40.667  37.447924     4.6839      7.773   212.3357 2.0343e+02     3.7864      0.027      0.039    21.0377 0.0000e+00
      0.025     -0.001     6.0577     67.953     40.662  37.442134     4.6436      7.774   212.5086 2.0360e+02     3.7519      0.023      0.035    21.0374 0.0000e+00
      0.025     -0.001     6.0611     67.852     40.669  37.447754     4.5995      7.776   212.5043 2.0300e+02     3.8018      0.024      0.034    21.0371 0.0000e+00
      0.026     -0.002     6.0610     67.717     40.675  37.452421     4.5838      7.778   212.5413 2.0236e+02     3.8764      0.026      0.037    21.0369 0.0000e+00
      0.028     -0.003     6.0582     67.582     40.656  37.435115     4.5860      7.779   212.6119 2.0132e+02     3.8686      0.027      0.039    21.0366 0.0000e+00
      0.029     -0.005     6.0548     67.482     40.649  37.428873     4.5762      7.780   212.7554 2.0127e+02     3.8105      0.029      0.042    21.0355 0.0000e+00
      0.027     -0.008     6.0452     67.425     40.662  37.440402     4.5656      7.780   212.9861 2.0291e+02     3.7884      0.028      0.041    21.0342 0.0000e+00
      0.022     -0.011     6.0320     67.383     40.670  37.447602     4.5737      7.780   213.2503 2.0503e+02     3.8409      0.022      0.031    21.0341 0.0000e+00
      0.016     -0.013     6.0190     67.368     40.676  37.452475     4.5917      7.780   213.3684 2.0730e+02     3.8981      0.014      0.021    21.0342 0.0000e+00
      0.013     -0.015     6.0090     67.400     40.659  37.435859     4.5922      7.781   213.2954 2.0921e+02     3.8657      0.012      0.018    21.0340 0.0000e+00
      0.012     -0.017     6.0063     67.431     40.660  37.437056     4.5880      7.783   213.1419 2.1080e+02     3.7912      0.011      0.017    21.0340 0.0000e+00
      0.009     -0.017     6.0018     67.450     40.693  37.466953     4.5905      7.784   213.0611 2.1364e+02     3.7832      0.008      0.012    21.0338 0.0000e+00
      0.005     -0.016     5.9982     67.517     40.707  37.480063     4.5891      7.786   213.1791 2.1674e+02     3.8371      0.006      0.008    21.0329 0.0000e+00
     -0.003     -0.014     6.0045     67.612     40.695  37.468664     4.5963      7.787   213.2780 2.2008e+02     3.8618     -0.003     -0.003    21.0318 0.0000e+00
     -0.010     -0.011     6.0089     67.702     40.682  37.456038     4.6110      7.787   213.2247 2.2418e+02     3.8082     -0.013     -0.017    21.0311 0.0000e+00
     -0.013     -0.009     6.0050     67.772     40.680  37.454309     4.6164      7.788   213.2230 2.2494e+02     3.7699     -0.015     -0.021    21.0310 0.0000e+00
     -0.011     -0.007     6.0140     67.787     40.674  37.447754     4.6114      7.789   213.3434 2.2279e+02     3.7741     -0.010     -0.015    21.0312 0.0000e+00
     -0.008     -0.006     6.0239     67.758     40.666  37.440247     4.6184      7.791   213.4761 2.2207e+02     3.7903     -0.007     -0.010    21.0309 0.0000e+00
     -0.008     -0.006     6.0304     67.728     40.652  37.426994     4.6502      7.793   213.5359 2.2289e+02     3.7953     -0.007     -0.011    21.0302 0.0000e+00
     -0.012     -0.005     6.0403     67.697     40.639  37.414417     4.6797      7.796   213.5499 2.2458e+02     3.7324     -0.012     -0.017    21.0297 0.0000e+00
     -0.017     -0.002     6.0402     67.647     40.639  37.415093     4.6840      7.798   213.3882 2.2719e+02     3.7470     -0.018     -0.026    21.0292 0.0000e+00
     -0.022      0.003     6.0358     67.623     40.661  37.435168     4.6853      7.799   210.8075 2.2854e+02     3.8700     -0.023     -0.034    21.0287 0.0000e+00
     -0.022      0.007     6.0332     67.664     40.696  37.466783     4.6871      7.798   205.8346 2.2588e+02     3.9214     -0.025     -0.036    21.0286 0.0000e+00
     -0.015      0.008     6.0325     67.752     40.711  37.480064     4.6641      7.796   202.9062 2.2023e+02     3.8564     -0.017     -0.024    21.0285 0.0000e+00
     -0.004      0.006     6.0257     67.838     40.699  37.468847     4.6321      7.793   202.6744 2.1551e+02     3.7673     -0.002     -0.003    21.0280 0.0000e+00
      0.002      0.005     6.0214     67.855     40.687  37.458058     4.6171      7.784   203.1179 2.1696e+02     3.7654      0.006      0.008    21.0272 0.0000e+00
     -0.002      0.005     6.0271     67.794     40.708  37.476533     4.6231      7.772   203.5374 2.2495e+02     3.7989     -0.000      0.001    21.0268 0.0000e+00
     -0.012      0.006     6.0354     67.715     40.737  37.501863     4.5961      7.762   203.6154 2.3384e+02     3.7976     -0.014     -0.020    21.0269 0.0000e+00
     -0.016      0.008     6.0462     67.634     40.747  37.510498     4.5243      7.757   203.4589 2.3574e+02     3.7832     -0.022     -0.032    21.0270 0.0000e+00
     -0.009      0.011     6.0488     67.539     40.755  37.517473     4.4788      7.756   203.1940 2.2979e+02     3.7613     -0.011     -0.016    21.0266 0.0000e+00
      0.003      0.016     6.0391     67.425     40.760  37.522746     4.4626      7.757   202.9940 2.2737e+02     3.8064      0.006      0.008    21.0259 0.0000e+00
      0.011      0.020     6.0327     67.252     40.746  37.510794     4.4864      7.759   202.9339 2.2827e+02     3.8836      0.013      0.020    21.0252 0.0000e+00
      0.015      0.020     6.0269     67.024     40.734  37.499872     4.5415      7.759   202.8965 2.2667e+02     3.8757      0.015      0.022    21.0244 0.0000e+00
      0.015      0.016     6.0165     66.790     40.753  37.517602     4.5626      7.760   202.8006 2.2584e+02     3.8136      0.015      0.021    21.0240 0.0000e+00
      0.018      0.008     6.0097     66.552     40.772  37.534804     4.5667      7.762   202.8074 2.2295e+02     3.7476      0.015      0.022    21.0242 0.0000e+00
      0.023      0.000     5.9941     66.330     40.753  37.517493     4.5832      7.762   203.3227 2.1755e+02     3.7269      0.021      0.031    21.0242 0.0000e+00
      0.029     -0.004     5.9705     66.185     40.733  37.498665     4.5959      7.758   204.1258 2.1844e+02     3.7680      0.031      0.045    21.0242 0.0000e+00
      0.028     -0.006     5.9509     66.123     40.732  37.497521     4.5870      7.751   204.5168 2.2757e+02     3.7662      0.034      0.048    21.0244 0.0000e+00
      0.015     -0.010     5.9296     66.107     40.738  37.503658     4.5759      7.745   204.6938 2.3507e+02     3.7050      0.014      0.020    21.0247 0.0000e+00
      0.003     -0.020     5.9062     66.118     40.744  37.509413     4.5866      7.743   204.8040 2.2961e+02     3.6779     -0.007     -0.009    21.0249 0.0000e+00
      0.007     -0.036     5.8938     66.187     40.737  37.503643     4.6160      7.744   204.5586 2.1969e+02     3.7117      0.006      0.009    21.0248 0.0000e+00
      0.014     -0.052     5.8901     66.366     40.730  37.497353     4.6484      7.748   204.2226 2.2690e+02     3.7716      0.021      0.032    21.0247 0.0000e+00
      0.005     -0.064     5.8888     66.619     40.728  37.496833     4.6536      7.752   204.1828 2.4981e+02     3.7870      0.012      0.018    21.0254 0.0000e+00
     -0.024     -0.071     5.8897     66.837     40.728  37.497353     4.6619      7.754   204.3352 2.8358e+02     3.7611     -0.019     -0.027    21.0260 0.0000e+00
     -0.064     -0.073     5.8920     66.965     40.735  37.503642     4.6991      7.757   204.2585 3.2980e+02     3.7666     -0.065     -0.095    21.0262 0.0000e+00
     -0.097     -0.070     5.9095     67.046     40.740  37.509410     4.7288      7.761   203.9438 3.5264e+02     3.8196     -0.104     -0.150    21.0266 0.0000e+00
     -0.111     -0.064     5.9365     67.114     40.733  37.503636     4.7551      7.764   203.7996 3.4119e+02     3.8883     -0.116     -0.168    21.0274 0.0000e+00
     -0.108     -0.056     5.9582     67.145     40.726  37.497289     4.7676      7.768   203.8050 3.4202e+02     3.8800     -0.106     -0.154    21.0287 0.0000e+00
     -0.105     -0.047     5.9666     67.135     40.725  37.496129     4.7871      7.773   203.6651 3.7250e+02     3.7875     -0.096     -0.138    21.0297 0.0000e+00
     -0.120     -0.041     5.9722     67.097     40.718  37.489613     4.8499      7.776   203.5714 4.0875e+02     3.7273     -0.112     -0.162    21.0298 0.0000e+00
     -0.146     -0.037     5.9808     67.052     40.709  37.481952     4.9033      7.778   203.7035 4.3038e+02     3.7318     -0.146     -0.212    21.0299 0.0000e+00
     -0.166     -0.033     5.9824     67.006     40.693  37.466953     4.9246      7.778   203.8865 4.4287e+02     3.7741     -0.169     -0.244    21.0301 0.0000e+00
     -0.173     -0.025     5.9819     66.968     40.658  37.435183     4.8164      7.778   203.9763 4.4962e+02     3.7946     -0.174     -0.252    21.0305 0.0000e+00
     -0.168     -0.012     5.9771     66.968     40.635  37.415092     4.5849      7.779   203.9288 4.5150e+02     3.7748     -0.165     -0.240    21.0309 0.0000e+00
     -0.162      0.001     5.9731     67.026     40.633  37.414399     4.4648      7.781   203.8298 4.5622e+02     3.7735     -0.157     -0.227    21.0309 0.0000e+00
     -0.161      0.009     5.9695     67.165     40.645  37.426810     4.4718      7.786   203.7258 4.5929e+02     3.8126     -0.156     -0.228    21.0311 0.0000e+00
     -0.161      0.010     5.9636     67.362     40.657  37.438242     4.4863      7.791   203.6167 4.5852e+02     3.8730     -0.159     -0.231    21.0319 0.0000e+00
     -0.160      0.008     5.9643     67.551     40.643  37.425715     4.4817      7.794   203.5435 4.5527e+02     3.8546     -0.159     -0.229    21.0331 0.0000e+00
     -0.156      0.006     5.9672     67.704     40.618  37.402259     4.4579      7.797   203.4431 4.5278e+02     3.7602     -0.153     -0.222    21.0348 0.0000e+00
     -0.152      0.006     5.9803     67.839     40.624  37.408457     4.4567      7.801   203.4352 4.5448e+02     3.7572     -0.148     -0.214    21.0361 0.0000e+00
     -0.150      0.007     6.0010     67.961     40.655  37.437196     4.4839      7.805   203.7062 4.5715e+02     3.7846     -0.146     -0.212    21.0370 0.0000e+00
     -0.151      0.007     6.0180     68.030     40.650  37.432466     4.4954      7.808   204.5684 4.5982e+02     3.7156     -0.149     -0.215    21.0371 0.0000e+00
     -0.152      0.006     6.0312     68.033     40.631  37.414731     4.4788      7.811   205.1700 4.6177e+02     3.6052     -0.150     -0.218    21.0372 0.0000e+00
     -0.149      0.005     6.0421     68.006     40.629  37.413127     4.4494      7.813   204.4412 4.6102e+02     3.5095     -0.147     -0.214    21.0375 0.0000e+00
     -0.145      0.004     6.0553     67.976     40.629  37.413076     4.4402      7.813   203.7578 4.5801e+02     3.4807     -0.142     -0.205    21.0376 0.0000e+00
     -0.143      0.004     6.0623     67.955     40.629  37.414104     4.4591      7.814   203.7049 4.5494e+02     3.4953     -0.139     -0.202    21.0376 0.0000e+00
     -0.143      0.003     6.0601     67.945     40.641  37.425559     4.4779      7.817   203.6298 4.5413e+02     3.5154     -0.140     -0.203    21.0375 0.0000e+00
     -0.144      0.002     6.0575     67.952     40.640  37.424666     4.4764      7.821   203.6239 4.5518e+02     3.5531     -0.142     -0.205    21.0377 0.0000e+00
     -0.144      0.001     6.0542     67.977     40.616  37.403308     4.4564      7.825   203.6336 4.5579e+02     3.6432     -0.142     -0.206    21.0383 0.0000e+00
     -0.144      0.001     6.0520     68.002     40.635  37.421138     4.4283      7.828   203.5749 4.5573e+02     3.7852     -0.142     -0.206    21.0386 0.0000e+00
     -0.143      0.001     6.0517     68.037     40.666  37.449886     4.4038      7.832   203.5168 4.5575e+02     3.8354     -0.140     -0.204    21.0388 0.0000e+00
     -0.142      0.001     6.0510     68.084     40.648  37.433620     4.3927      7.836   203.9637 4.5581e+02     3.8410     -0.139     -0.202    21.0391 0.0000e+00
     -0.142      0.001     6.0554     68.114     40.628  37.414836     4.3763      7.839   209.4085 4.5585e+02     3.8523     -0.138     -0.201    21.0396 0.0000e+00
     -0.143      0.001     6.0559     68.128     40.626  37.413129     4.3557      7.842   214.6278 4.5525e+02     3.8359     -0.139     -0.203    21.0402 0.0000e+00
     -0.143      0.001     6.0589     68.134     40.626  37.412983     4.3606      7.844   210.1121 4.5345e+02     3.8814     -0.141     -0.204    21.0404 0.0000e+00
     -0.143      0.001     6.0651     68.135     40.627  37.413073     4.3771      7.846   204.8843 4.5150e+02     3.9247     -0.141     -0.205    21.0404 0.0000e+00
     -0.142      0.002     6.0668     68.130     40.628  37.414217     4.3801      7.846   204.3324 4.5121e+02     3.8803     -0.139     -0.202    21.0407 0.0000e+00
     -0.141      0.005     6.0682     68.134     40.641  37.426816     4.3980      7.847   204.2995 4.5214e+02     3.7894     -0.138     -0.200    21.0409 0.0000e+00
     -0.141      0.009     6.0681     68.161     40.653  37.438501     4.4347      7.847   204.4868 4.5339e+02     3.7483     -0.138     -0.201    21.0405 0.0000e+00
     -0.140      0.012     6.0693     68.197     40.641  37.428587     4.4581      7.846   204.7044 4.5387e+02     3.7932     -0.138     -0.200    21.0401 0.0000e+00
     -0.135      0.013     6.0677     68.230     40.646  37.433854     4.4805      7.846   204.7793 4.5616e+02     3.8533     -0.134     -0.194    21.0399 0.0000e+00
     -0.129      0.011     6.0673     68.259     40.651  37.438730     4.4894      7.847   204.7040 4.4639e+02     3.8261     -0.127     -0.184    21.0403 0.0000e+00
     -0.122      0.008     6.0705     68.284     40.636  37.424086     4.4663      7.847   204.6545 4.2135e+02     3.7374     -0.118     -0.172    21.0411 0.0000e+00
     -0.119      0.004     6.0740     68.320     40.662  37.447166     4.4506      7.846   204.8693 4.2152e+02     3.7370     -0.114     -0.165    21.0425 0.0000e+00
     -0.121      0.002     6.0764     68.367     40.682  37.463960     4.4652      7.845   205.2363 4.4869e+02     3.8221     -0.117     -0.170    21.0434 0.0000e+00
     -0.127      0.001     6.0799     68.388     40.653  37.436774     4.4684      7.845   205.4777 4.6650e+02     3.9127     -0.125     -0.182    21.0432 0.0000e+00
     -0.130      0.001     6.0808     68.362     40.653  37.435735     4.4394      7.846   205.5513 4.7577e+02     3.9778     -0.130     -0.189    21.0430 0.0000e+00
     -0.127      0.002     6.0837     68.292     40.670  37.451399     4.4149      7.846   205.5244 4.6779e+02     3.9940     -0.126     -0.183    21.0417 0.0000e+00
     -0.122      0.004     6.0906     68.195     40.652  37.435800     4.4040      7.846   205.4966 4.3264e+02     4.0055     -0.119     -0.173    21.0392 0.0000e+00
     -0.119      0.006     6.0926     68.094     40.653  37.437502     4.4242      7.845   205.6453 4.1244e+02     4.0149     -0.114     -0.166    21.0380 0.0000e+00
     -0.119      0.007     6.0909     68.023     40.690  37.471969     4.4685      7.845   205.8590 4.2185e+02     3.9373     -0.116     -0.167    21.0376 0.0000e+00
     -0.120      0.007     6.0832     67.985     40.690  37.471813     4.4816      7.846   206.0161 4.2592e+02     3.8180     -0.119     -0.173    21.0379 0.0000e+00
     -0.120      0.007     6.0748     67.960     40.651  37.435615     4.4744      7.848   206.5976 4.1079e+02     3.8029     -0.119     -0.172    21.0393 0.0000e+00
     -0.116      0.006     6.0634     67.935     40.629  37.415033     4.4733      7.851   211.7724 3.9614e+02     3.8232     -0.114     -0.166    21.0402 0.0000e+00
     -0.111      0.003     6.0572     67.936     40.627  37.413332     4.4852      7.854   216.7886 3.9149e+02     3.7557     -0.108     -0.158    21.0400 0.0000e+00
     -0.108     -0.002     6.0550     68.004     40.629  37.415044     4.5096      7.855   212.7849 3.9174e+02     3.7052     -0.105     -0.153    21.0401 0.0000e+00
     -0.108     -0.007     6.0529     68.094     40.652  37.435729     4.5181      7.852   208.0180 3.9777e+02     3.7239     -0.105     -0.152    21.0400 0.0000e+00
     -0.113     -0.009     6.0509     68.149     40.694  37.473073     4.5132      7.848   207.5928 4.1186e+02     3.7775     -0.109     -0.158    21.0395 0.0000e+00
     -0.121     -0.006     6.0470     68.178     40.709  37.485830     4.5258      7.845   207.6438 4.3064e+02     3.8411     -0.118     -0.171    21.0392 0.0000e+00
     -0.129     -0.001     6.0566     68.187     40.685  37.463054     4.5628      7.841   207.6874 4.4407e+02     3.8774     -0.128     -0.186    21.0394 0.0000e+00
     -0.130      0.005     6.0669     68.137     40.674  37.451517     4.5939      7.839   207.7759 4.3164e+02     3.8406     -0.131     -0.190    21.0397 0.0000e+00
     -0.122      0.010     6.0706     68.002     40.698  37.473244     4.5936      7.834   208.3708 3.9933e+02     3.7716     -0.121     -0.176    21.0384 0.0000e+00
     -0.112      0.014     6.0728     67.805     40.697  37.471930     4.5840      7.826   209.2878 3.8437e+02     3.7949     -0.108     -0.157    21.0361 0.0000e+00
     -0.104      0.015     6.0758     67.598     40.657  37.435625     4.5936      7.816   209.7421 3.8516e+02     3.8497     -0.099     -0.144    21.0345 0.0000e+00
     -0.103      0.013     6.0728     67.425     40.635  37.415019     4.6016      7.808   209.7346 3.8262e+02     3.8534     -0.101     -0.147    21.0334 0.0000e+00
     -0.104      0.012     6.0593     67.283     40.632  37.413147     4.5901      7.803   209.8850 3.7828e+02     3.8394     -0.103     -0.150    21.0329 0.0000e+00
     -0.104      0.017     6.0406     67.166     40.631  37.412987     4.4883      7.797   210.6130 3.7792e+02     3.8165     -0.101     -0.146    21.0328 0.0000e+00
     -0.104      0.032     6.0194     67.103     40.631  37.413091     4.3024      7.788   211.8269 3.7886e+02     3.8162     -0.102     -0.148    21.0327 0.0000e+00
     -0.100      0.054     6.0054     67.114     40.633  37.414404     4.2146      7.781   212.2587 3.7222e+02     3.8354     -0.101     -0.146    21.0326 0.0000e+00
     -0.087      0.079     5.9932     67.201     40.650  37.428864     4.2253      7.778   211.1016 3.4909e+02     3.8436     -0.090     -0.130    21.0334 0.0000e+00
     -0.062      0.100     5.9806     67.314     40.686  37.461011     4.2493      7.780   209.8824 3.0949e+02     3.8467     -0.067     -0.096    21.0351 0.0000e+00
     -0.024      0.115     5.9751     67.384     40.714  37.485815     4.2883      7.783   209.4767 2.7281e+02     3.8051     -0.028     -0.041    21.0356 0.0000e+00
      0.020      0.123     5.9751     67.409     40.702  37.474945     4.3146      7.786   209.2077 2.5216e+02     3.7853      0.024      0.035    21.0345 0.0000e+00
      0.055      0.123     5.9851     67.437     40.682  37.456485     4.3257      7.789   209.0388 2.4026e+02     3.8462      0.059      0.085    21.0329 0.0000e+00
      0.082      0.114     5.9984     67.468     40.679  37.452988     4.3223      7.790   209.2411 2.2739e+02     3.8581      0.078      0.113    21.0316 0.0000e+00
      0.109      0.098     6.0050     67.457     40.657  37.432655     4.3070      7.789   209.5029 2.1417e+02     3.7921      0.108      0.157    21.0309 0.0000e+00
      0.134      0.079     6.0042     67.410     40.622  37.401010     4.2995      7.787   209.4512 2.0546e+02     3.7325      0.134      0.195    21.0309 0.0000e+00
      0.154      0.064     6.0065     67.371     40.608  37.387647     4.3060      7.788   209.3037 2.0157e+02     3.7512      0.152      0.222    21.0307 0.0000e+00
      0.169      0.049     6.0125     67.380     40.620  37.397987     4.3193      7.791   209.2689 2.0141e+02     3.8134      0.169      0.245    21.0302 0.0000e+00
      0.176      0.032     6.0106     67.439     40.621  37.399116     4.2351      7.795   209.2883 2.0346e+02     3.7325      0.174      0.253    21.0301 0.0000e+00
      0.179      0.011     6.0047     67.512     40.624  37.401297     4.0544      7.798   209.3660 2.0416e+02     3.5591      0.173      0.251    21.0299 0.0000e+00
      0.184     -0.009     6.0000     67.568     40.649  37.424372     3.9571      7.799   209.6922 2.0326e+02     3.4939      0.181      0.263    21.0298 0.0000e+00
      0.187     -0.019     6.0003     67.599     40.648  37.424287     3.9651      7.796   210.2207 2.0597e+02     3.5579      0.191      0.276    21.0298 0.0000e+00
      0.177     -0.014     6.0076     67.620     40.622  37.400269     4.0012      7.791   210.4218 2.1462e+02     3.7180      0.181      0.261    21.0295 0.0000e+00
      0.152     -0.001     6.0150     67.648     40.608  37.387796     4.0195      7.790   210.2310 2.2429e+02     3.8247      0.148      0.214    21.0288 0.0000e+00
      0.134      0.012     6.0201     67.654     40.621  37.400383     4.0025      7.792   210.0652 2.2531e+02     3.7888      0.118      0.171    21.0285 0.0000e+00
      0.147      0.023     6.0230     67.632     40.648  37.425548     3.9961      7.796   210.0513 2.1314e+02     3.7285      0.133      0.193    21.0291 0.0000e+00
      0.182      0.031     6.0226     67.618     40.663  37.438244     4.0421      7.800   210.0633 1.9918e+02     3.7451      0.185      0.267    21.0299 0.0000e+00
      0.208      0.036     6.0275     67.618     40.651  37.426977     4.1180      7.804   210.0374 1.9520e+02     3.8181      0.215      0.311    21.0303 0.0000e+00
      0.213      0.031     6.0284     67.608     40.640  37.416236     4.1475      7.807   209.9968 1.9780e+02     3.8254      0.212      0.308    21.0303 0.0000e+00
      0.206      0.018     6.0239     67.571     40.660  37.435271     4.1325      7.811   210.0022 1.9802e+02     3.7649      0.201      0.291    21.0303 0.0000e+00
      0.201      0.004     6.0232     67.526     40.694  37.466766     4.1280      7.816   210.0172 1.9577e+02     3.6678      0.194      0.281    21.0298 0.0000e+00
      0.201     -0.002     6.0241     67.501     40.708  37.479762     4.1354      7.819   210.0057 1.9499e+02     3.5731      0.196      0.285    21.0298 0.0000e+00
      0.205     -0.001     6.0240     67.504     40.693  37.465507     4.1465      7.822   210.0359 1.9476e+02     3.5771      0.201      0.293    21.0297 0.0000e+00
      0.206      0.003     6.0199     67.530     40.645  37.421312     4.1452      7.825   210.0380 1.9564e+02     3.5787      0.203      0.294    21.0296 0.0000e+00
      0.206      0.006     6.0144     67.585     40.610  37.389596     4.1280      7.827   210.0310 1.9684e+02     3.5251      0.202      0.292    21.0297 0.0000e+00
      0.206      0.008     6.0124     67.655     40.621  37.399298     4.1304      7.830   210.0370 1.9626e+02     3.5772      0.202      0.293    21.0296 0.0000e+00
      0.207      0.012     6.0131     67.703     40.635  37.411718     4.1489      7.833   210.1108 1.9467e+02     3.7298      0.203      0.295    21.0298 0.0000e+00
      0.211      0.019     6.0147     67.716     40.636  37.412848     4.1523      7.832   210.8372 1.9232e+02     3.8333      0.206      0.298    21.0299 0.0000e+00
      0.216      0.032     6.0201     67.711     40.636  37.412960     4.1384      7.825   212.0232 1.8989e+02     3.8388      0.211      0.305    21.0297 0.0000e+00
      0.222      0.049     6.0279     67.690     40.636  37.413074     4.1227      7.817   212.7490 1.8721e+02     3.7958      0.218      0.318    21.0298 0.0000e+00
      0.231      0.066     6.0327     67.660     40.637  37.414219     4.1284      7.812   213.0738 1.8270e+02     3.7918      0.223      0.324    21.0298 0.0000e+00
      0.249      0.079     6.0326     67.646     40.651  37.426805     4.1494      7.810   213.1968 1.7405e+02     3.8239      0.236      0.342    21.0296 0.0000e+00
      0.281      0.085     6.0325     67.640     40.664  37.438342     4.1604      7.812   213.2041 1.6212e+02     3.8432      0.274      0.398    21.0296 0.0000e+00
      0.316      0.084     6.0308     67.633     40.652  37.426806     4.1441      7.815   213.3331 1.5303e+02     3.8202      0.314      0.455    21.0296 0.0000e+00
      0.342      0.075     6.0263     67.645     40.638  37.414228     4.1019      7.817   213.5531 1.4863e+02     3.8183      0.339      0.491    21.0295 0.0000e+00
      0.359      0.062     6.0260     67.658     40.637  37.413179     4.0830      7.820   213.7991 1.4649e+02     3.8894      0.356      0.517    21.0291 0.0000e+00
      0.366      0.048     6.0264     67.630     40.638  37.414115     4.0992      7.823   213.9840 1.4620e+02     3.8938      0.361      0.524    21.0283 0.0000e+00
      0.369      0.038     6.0241     67.581     40.651  37.425547     4.1225      7.826   214.0678 1.4604e+02     3.8029      0.360      0.522    21.0282 0.0000e+00
      0.374      0.032     6.0256     67.550     40.651  37.424489     4.1399      7.830   214.1240 1.4366e+02     3.7474      0.364      0.527    21.0285 0.0000e+00
      0.385      0.030     6.0297     67.539     40.626  37.401320     4.1351      7.834   214.2330 1.4046e+02     3.7689      0.376      0.546    21.0288 0.0000e+00
      0.396      0.031     6.0254     67.546     40.624  37.399231     4.1307      7.837   214.4396 1.3816e+02     3.8242      0.391      0.567    21.0286 0.0000e+00
      0.405      0.032     6.0196     67.577     40.624  37.399231     4.1626      7.839   214.6429 1.3661e+02     3.8350      0.400      0.579    21.0278 0.0000e+00
      0.411      0.034     6.0175     67.608     40.628  37.401320     4.2122      7.841   214.7128 1.3549e+02     3.7975      0.403      0.584    21.0266 0.0000e+00
      0.416      0.036     6.0169     67.626     40.653  37.424490     4.2397      7.842   214.8542 1.3384e+02     3.7796      0.406      0.590    21.0257 0.0000e+00
      0.424      0.040     6.0166     67.672     40.654  37.425557     4.2452      7.844   215.2343 1.3128e+02     3.8236      0.414      0.602    21.0258 0.0000e+00
      0.436      0.046     6.0200     67.736     40.641  37.414219     4.2462      7.844   215.6082 1.2808e+02     3.8515      0.426      0.618    21.0254 0.0000e+00
      0.450      0.052     6.0255     67.772     40.641  37.414324     4.2590      7.844   215.8470 1.2478e+02     3.7763      0.442      0.640    21.0240 0.0000e+00
      0.465      0.057     6.0229     67.765     40.656  37.426814     4.2919      7.844   216.0574 1.2179e+02     3.7339      0.457      0.662    21.0236 0.0000e+00
      0.480      0.057     6.0284     67.725     40.671  37.438333     4.3118      7.843   216.2595 1.1850e+02     3.7483      0.470      0.682    21.0248 0.0000e+00
      0.497      0.055     6.0360     67.679     40.660  37.426683     4.3076      7.843   216.3981 1.1512e+02     3.7457      0.488      0.708    21.0256 0.0000e+00
      0.514      0.050     6.0391     67.630     40.645  37.412858     4.3411      7.844   216.5279 1.1262e+02     3.8055      0.505      0.732    21.0251 0.0000e+00
      0.526      0.044     6.0390     67.590     40.628  37.398088     4.4083      7.845   216.7099 1.1101e+02     3.8559      0.516      0.749    21.0235 0.0000e+00
      0.535      0.037     6.0338     67.579     40.603  37.375005     4.4296      7.847   216.8789 1.0972e+02     3.8088      0.525      0.761    21.0213 0.0000e+00
      0.542      0.032     6.0307     67.586     40.616  37.387580     4.4153      7.848   216.9364 1.0860e+02     3.7480      0.531      0.771    21.0195 0.0000e+00
      0.548      0.029     6.0259     67.606     40.655  37.423220     4.4016      7.849   216.9754 1.0761e+02     3.7355      0.538      0.780    21.0188 0.0000e+00
      0.553      0.029     6.0208     67.633     40.657  37.425204     4.3892      7.851   217.1776 1.0657e+02     3.7948      0.543      0.787    21.0195 0.0000e+00
      0.559      0.031     6.0210     67.622     40.643  37.411567     4.3825      7.851   217.4025 1.0532e+02     3.8157      0.548      0.795    21.0202 0.0000e+00
      0.567      0.034     6.0219     67.592     40.616  37.385250     4.3781      7.852   217.5430 1.0364e+02     3.7496      0.554      0.804    21.0202 0.0000e+00
      0.577      0.038     6.0221     67.572     40.591  37.360824     4.3866      7.854   217.6720 1.0162e+02     3.7122      0.565      0.819    21.0201 0.0000e+00
      0.588      0.042     6.0287     67.554     40.603  37.370046     4.4180      7.855   217.8439 9.9657e+01     3.7395      0.578      0.838    21.0206 0.0000e+00
      0.599      0.045     6.0259     67.560     40.603  37.369836     4.4581      7.855   218.0730 9.7812e+01     3.8066      0.588      0.853    21.0200 0.0000e+00
      0.611      0.046     6.0215     67.629     40.591  37.358289     4.4810      7.856   218.2049 9.5790e+01     3.8059      0.600      0.868    21.0183 0.0000e+00
      0.624      0.045     6.0221     67.794     40.591  37.357342     4.4956      7.857   218.1485 9.3787e+01     3.7314      0.613      0.888    21.0164 0.0000e+00
      0.637      0.042     6.0187     68.054     40.592  37.358391     4.5427      7.859   218.0789 9.2032e+01     3.7264      0.624      0.906    21.0145 0.0000e+00
      0.648      0.037     6.0188     68.342     40.606  37.370970     4.5847      7.859   218.1375 9.0464e+01     3.8132      0.636      0.922    21.0130 0.0000e+00
      0.658      0.032     6.0233     68.582     40.619  37.382516     4.5863      7.860   218.1695 8.9275e+01     3.8926      0.646      0.937    21.0121 0.0000e+00
      0.665      0.027     6.0381     68.781     40.606  37.371092     4.5793      7.861   218.2073 8.8550e+01     3.8664      0.654      0.948    21.0116 0.0000e+00
      0.670      0.026     6.0633     68.966     40.593  37.359756     4.5413      7.861   218.4223 8.8284e+01     3.7699      0.658      0.954    21.0116 0.0000e+00
      0.672      0.028     6.0932     69.091     40.607  37.372351     4.4848      7.861   218.7038 8.8065e+01     3.7503      0.658      0.955    21.0113 0.0000e+00
      0.675      0.033     6.1130     69.091     40.633  37.396474     4.4613      7.860   218.9436 8.7014e+01     3.8339      0.660      0.957    21.0111 0.0000e+00
      0.684      0.038     6.1289     68.988     40.634  37.397609     4.4580      7.858   219.1714 8.5060e+01     3.8927      0.670      0.971    21.0118 0.0000e+00
      0.699      0.042     6.1476     68.872     40.622  37.386072     4.4616      7.858   219.3931 8.2883e+01     3.8468      0.686      0.995    21.0125 0.0000e+00
      0.714      0.043     6.1615     68.772     40.621  37.383890     4.4622      7.857   219.5586 8.0904e+01     3.7569      0.701      1.017    21.0127 0.0000e+00
      0.729      0.040     6.1614     68.682     40.607  37.371218     4.4658      7.856   219.6239 7.9319e+01     3.7624      0.716      1.038    21.0125 0.0000e+00
      0.740      0.034     6.1467     68.584     40.594  37.359766     4.4890      7.857   219.6665 7.8351e+01     3.8455      0.728      1.054    21.0121 0.0000e+00
      0.746      0.029     6.1372     68.474     40.607  37.372333     4.5260      7.857   219.8159 7.7872e+01     3.8390      0.734      1.063    21.0118 0.0000e+00
      0.749      0.027     6.1283     68.406     40.633  37.396248     4.5632      7.857   219.9671 7.7614e+01     3.7170      0.735      1.066    21.0115 0.0000e+00
      0.751      0.027     6.1206     68.386     40.632  37.395104     4.5732      7.857   220.0328 7.7115e+01     3.5667      0.734      1.065    21.0115 0.0000e+00
      0.756      0.028     6.1135     68.376     40.592  37.358508     4.5714      7.858   220.0075 7.5819e+01     3.4906      0.739      1.071    21.0117 0.0000e+00
      0.767      0.029     6.0998     68.351     40.566  37.334489     4.5577      7.859   219.9199 7.4134e+01     3.5828      0.752      1.090    21.0118 0.0000e+00
      0.780      0.031     6.0942     68.300     40.592  37.358518     4.5072      7.860   220.0920 7.2860e+01     3.7591      0.767      1.112    21.0119 0.0000e+00
      0.789      0.034     6.0943     68.234     40.632  37.395218     4.4531      7.860   220.4534 7.2270e+01     3.8121      0.776      1.126    21.0118 0.0000e+00
      0.794      0.036     6.0936     68.173     40.634  37.397507     4.4281      7.859   220.6756 7.2031e+01     3.7455      0.779      1.130    21.0121 0.0000e+00
      0.798      0.037     6.0923     68.137     40.622  37.386187     4.4793      7.859   220.8866 7.1328e+01     3.7387      0.781      1.132    21.0121 0.0000e+00
      0.808      0.037     6.0872     68.155     40.622  37.385261     4.5888      7.858   221.1115 6.9696e+01     3.7987      0.788      1.143    21.0119 0.0000e+00
      0.823      0.036     6.0802     68.218     40.623  37.386310     4.6455      7.857   221.3300 6.7708e+01     3.7879      0.806      1.169    21.0118 0.0000e+00
      0.838      0.035     6.0748     68.266     40.637  37.398869     4.6403      7.855   221.5495 6.6412e+01     3.7439      0.826      1.197    21.0118 0.0000e+00
      0.848      0.032     6.0702     68.295     40.649  37.410196     4.6256      7.853   221.6145 6.6019e+01     3.7463      0.834      1.209    21.0116 0.0000e+00
      0.850      0.029     6.0711     68.323     40.634  37.396361     4.5843      7.853   221.5131 6.5781e+01     3.7820      0.834      1.210    21.0114 0.0000e+00
      0.852      0.028     6.0809     68.348     40.593  37.358498     4.5237      7.854   221.4416 6.5157e+01     3.8338      0.834      1.209    21.0113 0.0000e+00
      0.858      0.029     6.0842     68.368     40.566  37.333125     4.4838      7.855   221.5250 6.4229e+01     3.8258      0.840      1.218    21.0111 0.0000e+00
      0.866      0.033     6.0858     68.386     40.577  37.343405     4.4684      7.856   221.5755 6.3298e+01     3.7538      0.851      1.234    21.0111 0.0000e+00
      0.876      0.038     6.0891     68.407     40.589  37.355878     4.5463      7.857   221.5353 6.2264e+01     3.7142      0.858      1.244    21.0111 0.0000e+00
      0.887      0.040     6.0910     68.444     40.589  37.357021     4.7097      7.857   221.6405 6.0916e+01     3.7575      0.868      1.259    21.0111 0.0000e+00
      0.901      0.039     6.0930     68.509     40.589  37.357228     4.8043      7.857   221.8153 5.9668e+01     3.7994      0.884      1.282    21.0111 0.0000e+00
      0.913      0.036     6.0943     68.587     40.590  37.358383     4.8079      7.857   221.9283 5.8836e+01     3.7419      0.897      1.301    21.0108 0.0000e+00
      0.921      0.034     6.0959     68.659     40.604  37.370979     4.7202      7.857   222.0605 5.8347e+01     3.6432      0.905      1.313    21.0114 0.0000e+00
      0.926      0.031     6.0978     68.711     40.617  37.382620     4.5594      7.857   222.2089 5.8074e+01     3.5622      0.908      1.317    21.0134 0.0000e+00
      0.931      0.029     6.1047     68.731     40.607  37.372227     4.4782      7.858   222.3459 5.7577e+01     3.5494      0.911      1.322    21.0145 0.0000e+00
      0.939      0.029     6.1119     68.719     40.607  37.372226     4.4956      7.858   222.5129 5.6750e+01     3.6250      0.920      1.333    21.0141 0.0000e+00
      0.948      0.030     6.1192     68.689     40.619  37.382610     4.6369      7.858   222.6799 5.6105e+01     3.6216      0.930      1.349    21.0134 0.0000e+00
      0.956      0.030     6.1240     68.664     40.607  37.370855     4.8790      7.860   222.7300 5.5596e+01     3.5431      0.937      1.359    21.0127 0.0000e+00
      0.963      0.030     6.1260     68.661     40.592  37.357011     5.0093      7.863   222.7745 5.4851e+01     3.5288      0.944      1.368    21.0123 0.0000e+00
      0.971      0.029     6.1245     68.690     40.576  37.342135     5.0389      7.865   222.7884 5.4051e+01     3.5516      0.953      1.382    21.0117 0.0000e+00
      0.980      0.027     6.1210     68.723     40.550  37.317899     5.1291      7.866   222.7259 5.3447e+01     3.6144      0.962      1.394    21.0113 0.0000e+00
      0.987      0.026     6.1188     68.764     40.550  37.317785     5.2596      7.867   222.7068 5.3042e+01     3.7072      0.968      1.404    21.0109 0.0000e+00
      0.992      0.025     6.1170     68.849     40.575  37.340763     5.3183      7.869   222.7291 5.2626e+01     3.7852      0.972      1.411    21.0104 0.0000e+00
      0.997      0.025     6.1218     68.950     40.576  37.341908     5.3221      7.871   222.8239 5.2057e+01     3.8399      0.976      1.417    21.0102 0.0000e+00
      1.003      0.026     6.1250     69.047     40.565  37.331618     5.2891      7.872   222.9059 5.1523e+01     3.8559      0.984      1.428    21.0101 0.0000e+00
      1.010      0.028     6.1254     69.147     40.578  37.343260     5.2109      7.873   222.9461 5.1032e+01     3.8422      0.991      1.438    21.0099 0.0000e+00
      1.017      0.030     6.1355     69.225     40.593  37.355761     5.1589      7.874   223.0517 5.0387e+01     3.8117      0.996      1.445    21.0093 0.0000e+00
      1.026      0.030     6.1457     69.270     40.593  37.355866     5.1430      7.875   223.1500 4.9666e+01     3.7939      1.005      1.458    21.0091 0.0000e+00
      1.036      0.029     6.1525     69.305     40.580  37.344528     5.1432      7.876   223.1890 4.9050e+01     3.7977      1.016      1.474    21.0090 0.0000e+00
      1.044      0.026     6.1635     69.340     40.581  37.345586     5.0622      7.876   223.1786 4.8589e+01     3.7895      1.025      1.487    21.0087 0.0000e+00
      1.050      0.023     6.1708     69.358     40.606  37.368661     4.8795      7.877   223.1097 4.8250e+01     3.7980      1.031      1.495    21.0085 0.0000e+00
      1.055      0.021     6.1734     69.358     40.607  37.369700     4.7729      7.878   223.1316 4.7987e+01     3.7965      1.035      1.501    21.0084 0.0000e+00
      1.059      0.020     6.1764     69.345     40.595  37.358155     4.7555      7.880   223.2711 4.7811e+01     3.7724      1.038      1.506    21.0085 0.0000e+00
      1.062      0.021     6.1801     69.300     40.593  37.355970     4.8031      7.881   223.4192 4.7615e+01     3.8131      1.040      1.509    21.0087 0.0000e+00
      1.066      0.022     6.1821     69.226     40.579  37.343289     4.9151      7.882   223.5458 4.7219e+01     3.8448      1.044      1.514    21.0089 0.0000e+00
      1.073      0.023     6.1810     69.164     40.566  37.331734     4.9861      7.884   223.5977 4.6675e+01     3.8149      1.052      1.526    21.0090 0.0000e+00
      1.082      0.024     6.1815     69.136     40.579  37.343167     4.9963      7.884   223.6165 4.6134e+01     3.7932      1.061      1.540    21.0088 0.0000e+00
      1.089      0.025     6.1775     69.132     40.591  37.354618     5.0050      7.884   223.6008 4.5683e+01     3.8207      1.069      1.551    21.0083 0.0000e+00
      1.095      0.025     6.1690     69.142     40.579  37.343281     5.0409      7.885   223.5794 4.5378e+01     3.8746      1.073      1.558    21.0082 0.0000e+00
      1.099      0.025     6.1626     69.176     40.568  37.333002     5.0559      7.887   223.7028 4.5115e+01     3.8297      1.078      1.563    21.0083 0.0000e+00
      1.104      0.026     6.1606     69.232     40.594  37.357242     5.0453      7.888   223.8023 4.4705e+01     3.7572      1.082      1.569    21.0083 0.0000e+00
      1.110      0.029     6.1611     69.284     40.622  37.382537     5.0458      7.889   223.8358 4.4164e+01     3.7827      1.088      1.578    21.0081 0.0000e+00
      1.118      0.031     6.1613     69.298     40.626  37.385026     5.0458      7.890   223.9350 4.3559e+01     3.8314      1.097      1.590    21.0082 0.0000e+00
      1.128      0.031     6.1641     69.283     40.629  37.387336     5.0446      7.891   223.9695 4.2927e+01     3.8670      1.106      1.604    21.0085 0.0000e+00
      1.138      0.030     6.1700     69.252     40.654  37.410471     5.0474      7.893   223.9095 4.2397e+01     3.8375      1.117      1.620    21.0080 0.0000e+00
      1.146      0.030     6.1766     69.180     40.724  37.474382     5.0386      7.894   223.8973 4.2046e+01     3.7478      1.126      1.633    21.0071 0.0000e+00
      1.152      0.030     6.1771     69.057     40.781  37.525524     4.9631      7.893   223.9938 4.1801e+01     3.7052      1.130      1.639    21.0064 0.0000e+00
      1.157      0.030     6.1747     68.883     40.779  37.521186     4.8498      7.892   224.1297 4.1467e+01     3.7323      1.134      1.644    21.0058 0.0000e+00
      1.163      0.030     6.1737     68.618     40.742  37.485378     4.8087      7.892   224.3358 4.0897e+01     3.8017      1.139      1.652    21.0054 0.0000e+00
      1.173      0.031     6.1677     68.214     40.729  37.473298     4.8163      7.893   224.5076 4.0223e+01     3.8276      1.149      1.668    21.0053 0.0000e+00
      1.183      0.031     6.1557     67.686     40.760  37.502039     4.7665      7.895   224.4871 3.9694e+01     3.8402      1.161      1.686    21.0035 0.0000e+00
      1.193      0.030     6.1431     67.141     40.775  37.515612     4.6725      7.895   224.4313 3.9313e+01     3.9201      1.170      1.697    21.0000 0.0000e+00
      1.200      0.027     6.1209     66.714     40.769  37.510507     4.6297      7.895   224.4353 3.8966e+01     4.0073      1.178      1.707    20.9979 0.0000e+00
      1.206      0.022     6.0855     66.459     40.761  37.503765     4.6318      7.896   224.4491 3.8661e+01     4.0752      1.183      1.716    20.9976 0.0000e+00
      1.211      0.017     6.0342     66.363     40.755  37.497548     4.5809      7.898   224.4256 3.8389e+01     4.0568      1.188      1.724    20.9978 0.0000e+00
      1.216      0.012     5.9802     66.361     40.756  37.498789     4.4797      7.899   224.4092 3.8197e+01     3.9906      1.194      1.731    20.9982 0.0000e+00
      1.218      0.011     5.9410     66.378     40.778  37.518770     4.4245      7.901   224.5087 3.8176e+01     3.9926      1.196      1.735    20.9988 0.0000e+00
      1.218      0.012     5.9187     66.398     40.812  37.548772     4.4207      7.901   224.6837 3.8229e+01     4.0128      1.195      1.733    20.9987 0.0000e+00
      1.218      0.015     5.9125     66.438     40.808  37.544264     4.5083      7.901   224.8036 3.8140e+01     4.0641      1.192      1.729    20.9982 0.0000e+00
      1.221      0.019     5.9152     66.452     40.790  37.527716     4.6687      7.900   224.8398 3.7765e+01     4.0999      1.195      1.733    20.9985 0.0000e+00
      1.230      0.022     5.9176     66.406     40.802  37.539065     4.7368      7.900   224.8635 3.7240e+01     4.0357      1.206      1.748    20.9985 0.0000e+00
      1.240      0.025     5.9167     66.315     40.819  37.554575     4.7319      7.900   224.9180 3.6864e+01     4.0391      1.217      1.765    20.9975 0.0000e+00
      1.247      0.027     5.9238     66.190     40.855  37.588335     4.6763      7.900   225.0683 3.6649e+01     4.1415      1.224      1.775    20.9964 0.0000e+00
      1.252      0.028     5.9262     66.056     40.901  37.629975     4.5555      7.899   225.3038 3.6444e+01     4.1469      1.229      1.781    20.9956 0.0000e+00
      1.257      0.027     5.9206     65.934     40.884  37.613849     4.4867      7.899   225.5278 3.6143e+01     4.0696      1.232      1.787    20.9958 0.0000e+00
      1.264      0.025     5.9129     65.816     40.852  37.583715     4.4772      7.899   225.6266 3.5687e+01     4.0268      1.238      1.796    20.9966 0.0000e+00
      1.272      0.023     5.9003     65.661     40.851  37.582905     4.4903      7.900   225.5524 3.5261e+01     4.0393      1.248      1.809    20.9971 0.0000e+00
      1.280      0.022     5.8878     65.476     40.874  37.604062     4.5288      7.900   225.4912 3.5025e+01     4.0839      1.256      1.822    20.9967 0.0000e+00
      1.285      0.022     5.8769     65.310     40.923  37.649148     4.5513      7.901   225.5742 3.4865e+01     4.0883      1.261      1.829    20.9960 0.0000e+00
      1.288      0.021     5.8685     65.170     40.962  37.683852     4.5378      7.902   225.6967 3.4676e+01     4.0233      1.263      1.831    20.9954 0.0000e+00
      1.292      0.020     5.8550     65.080     40.987  37.706391     4.5152      7.902   225.7672 3.4438e+01     3.9473      1.266      1.836    20.9950 0.0000e+00
      1.298      0.020     5.8352     65.057     41.016  37.731283     4.4951      7.903   225.8238 3.4136e+01     3.9556      1.272      1.844    20.9948 0.0000e+00
      1.304      0.021     5.8218     65.003     41.017  37.731003     4.4691      7.904   225.8643 3.3828e+01     4.0556      1.279      1.854    20.9949 0.0000e+00
      1.310      0.022     5.8083     64.816     40.987  37.703005     4.4588      7.904   225.8276 3.3568e+01     4.0972      1.284      1.863    20.9942 0.0000e+00
      1.316      0.022     5.7983     64.552     40.995  37.710033     4.4543      7.905   225.7239 3.3343e+01     4.0485      1.290      1.872    20.9926 0.0000e+00
      1.321      0.022     5.8007     64.323     41.042  37.752527     4.4473      7.907   225.7289 3.3148e+01     4.0130      1.295      1.879    20.9908 0.0000e+00
      1.326      0.023     5.8010     64.119     41.066  37.772603     4.4583      7.908   225.8879 3.2959e+01     4.0435      1.300      1.886    20.9893 0.0000e+00
      1.331      0.025     5.7822     63.912     41.057  37.762401     4.4707      7.907   226.0117 3.2714e+01     4.1110      1.304      1.891    20.9885 0.0000e+00
      1.336      0.026     5.7514     63.707     41.051  37.756084     4.4717      7.906   226.0216 3.2394e+01     4.1454      1.309      1.898    20.9886 0.0000e+00
      1.344      0.026     5.7350     63.516     41.055  37.759675     4.4039      7.906   226.0066 3.2037e+01     4.1527      1.318      1.912    20.9882 0.0000e+00
      1.353      0.026     5.7171     63.359     41.035  37.742372     4.2668      7.906   226.0888 3.1717e+01     4.1299      1.328      1.926    20.9858 0.0000e+00
      1.361      0.026     5.6985     63.241     41.029  37.737233     4.1957      7.908   226.2418 3.1480e+01     4.1433      1.335      1.936    20.9828 0.0000e+00
      1.366      0.026     5.6808     63.163     41.054  37.760994     4.2099      7.909   226.3938 3.1290e+01     4.2462      1.339      1.943    20.9819 0.0000e+00
      1.371      0.025     5.6616     63.112     41.071  37.775846     4.2561      7.909   226.5500 3.1092e+01     4.2816      1.344      1.949    20.9822 0.0000e+00
      1.376      0.025     5.6489     63.088     41.088  37.789906     4.3135      7.909   226.6683 3.0824e+01     4.2296      1.349      1.956    20.9827 0.0000e+00
      1.383      0.025     5.6369     63.083     41.104  37.804076     4.3455      7.909   226.7051 3.0487e+01     4.1976      1.356      1.967    20.9835 0.0000e+00
      1.392      0.025     5.6317     63.091     41.122  37.820251     4.3600      7.909   226.6515 3.0179e+01     4.2030      1.365      1.979    20.9845 0.0000e+00
      1.399      0.026     5.6258     63.120     41.164  37.858560     4.3472      7.909   226.6217 2.9978e+01     4.2942      1.372      1.990    20.9848 0.0000e+00
      1.404      0.027     5.6248     63.160     41.194  37.886537     4.2909      7.910   226.6896 2.9802e+01     4.4120      1.377      1.997    20.9828 0.0000e+00
      1.409      0.028     5.6251     63.198     41.215  37.904694     4.2452      7.910   226.7837 2.9541e+01     4.4320      1.382      2.003    20.9800 0.0000e+00
      1.416      0.029     5.6246     63.199     41.269  37.951179     4.2356      7.910   226.8992 2.9233e+01     4.3991      1.388      2.013    20.9798 0.0000e+00
      1.424      0.031     5.6285     63.114     41.330  38.004380     4.2412      7.910   226.9667 2.8930e+01     4.3900      1.396      2.025    20.9805 0.0000e+00
      1.432      0.033     5.6317     62.915     41.373  38.040281     4.3134      7.911   226.9978 2.8572e+01     4.4250      1.404      2.036    20.9802 0.0000e+00
      1.442      0.033     5.6366     62.626     41.407  38.067968     4.4422      7.912   227.1041 2.8151e+01     4.4801      1.414      2.050    20.9788 0.0000e+00
      1.452      0.032     5.6385     62.262     41.427  38.085313     4.5011      7.913   227.2194 2.7807e+01     4.5436      1.425      2.067    20.9759 0.0000e+00
      1.461      0.030     5.6332     61.806     41.470  38.123088     4.5089      7.913   227.1875 2.7563e+01     4.5791      1.433      2.078    20.9715 0.0000e+00
      1.468      0.029     5.6142     61.251     41.565  38.207404     4.5698      7.913   227.0623 2.7355e+01     4.5670      1.439      2.087    20.9664 0.0000e+00
      1.473      0.028     5.5882     60.648     41.648  38.279826     4.6631      7.913   227.0814 2.7161e+01     4.6021      1.445      2.095    20.9627 0.0000e+00
      1.479      0.028     5.5569     60.039     41.674  38.300702     4.6962      7.913   227.1612 2.6928e+01     4.5945      1.449      2.102    20.9612 0.0000e+00
      1.486      0.029     5.5169     59.367     41.642  38.269432     4.6793      7.913   227.2518 2.6640e+01     4.5087      1.456      2.112    20.9603 0.0000e+00
      1.494      0.031     5.4662     58.554     41.521  38.155577     4.7160      7.912   227.4887 2.6370e+01     4.4183      1.465      2.125    20.9568 0.0000e+00
      1.502      0.033     5.4097     57.650     41.357  38.002855     4.8151      7.912   227.7024 2.6111e+01     4.2530      1.472      2.136    20.9504 0.0000e+00
      1.511      0.034     5.3591     56.819     41.296  37.945845     4.8800      7.912   227.7713 2.5768e+01     4.1150      1.481      2.148    20.9460 0.0000e+00
      1.521      0.033     5.3029     56.219     41.327  37.973933     4.8682      7.911   227.7191 2.5403e+01     4.0489      1.492      2.164    20.9454 0.0000e+00
      1.531      0.032     5.2292     56.022     41.315  37.961726     4.7554      7.911   227.6732 2.5123e+01     3.9661      1.502      2.178    20.9432 0.0000e+00
      1.539      0.030     5.1417     56.356     41.277  37.925157     4.5734      7.912   227.7322 2.4944e+01     3.8991      1.510      2.190    20.9395 0.0000e+00
      1.545      0.028     5.0638     57.089     41.265  37.912517     4.4736      7.913   227.8313 2.4804e+01     3.8879      1.515      2.197    20.9384 0.0000e+00
      1.551      0.027     5.0054     57.984     41.221  37.872350     4.4722      7.912   227.9247 2.4595e+01     3.8988      1.520      2.204    20.9383 0.0000e+00
      1.557      0.028     4.9802     58.966     41.164  37.820245     4.4642      7.911   228.0014 2.4381e+01     3.8601      1.527      2.215    20.9369 0.0000e+00
      1.563      0.029     5.0160     59.987     41.131  37.790169     4.4353      7.911   228.0703 2.4209e+01     3.8298      1.532      2.222    20.9338 0.0000e+00
      1.570      0.031     5.0936     60.934     41.101  37.762524     4.4309      7.910   228.1552 2.3937e+01     3.8747      1.539      2.232    20.9315 0.0000e+00
      1.580      0.032     5.1724     61.786     41.077  37.739820     4.4449      7.909   228.2541 2.3604e+01     3.9242      1.549      2.247    20.9328 0.0000e+00
      1.589      0.032     5.2600     62.622     41.042  37.706018     4.4303      7.909   228.3196 2.3327e+01     3.9167      1.558      2.261    20.9344 0.0000e+00
      1.598      0.031     5.3577     63.496     41.006  37.671104     4.3201      7.909   228.3437 2.3098e+01     3.8517      1.568      2.275    20.9337 0.0000e+00
      1.606      0.030     5.4422     64.417     40.967  37.634959     4.1533      7.909   228.3738 2.2918e+01     3.8219      1.574      2.285    20.9336 0.0000e+00
      1.612      0.029     5.5148     65.422     40.914  37.586264     4.0780      7.909   228.4256 2.2753e+01     3.8633      1.580      2.292    20.9338 0.0000e+00
      1.618      0.029     5.5875     66.508     40.919  37.589988     4.0761      7.909   228.4538 2.2573e+01     3.9087      1.587      2.302    20.9307 0.0000e+00
      1.625      0.031     5.6672     67.557     40.951  37.616527     4.0138      7.909   228.5425 2.2377e+01     3.9952      1.593      2.311    20.9281 0.0000e+00
      1.632      0.034     5.7471     68.437     40.926  37.589862     3.8984      7.909   228.7240 2.2127e+01     4.1235      1.599      2.319    20.9280 0.0000e+00
      1.641      0.036     5.8355     69.114     40.926  37.584853     3.8381      7.908   228.8418 2.1819e+01     4.2298      1.608      2.332    20.9284 0.0000e+00
      1.652      0.037     5.9379     69.584     40.970  37.619417     3.8428      7.907   228.8476 2.1484e+01     4.3244      1.619      2.348    20.9279 0.0000e+00
      1.664      0.036     6.0372     69.839     40.985  37.627023     3.8128      7.906   228.8804 2.1153e+01     4.5152      1.632      2.367    20.9235 0.0000e+00
      1.675      0.035     6.1162     69.938     41.044  37.676818     3.7254      7.906   228.9804 2.0925e+01     4.7949      1.645      2.385    20.9193 0.0000e+00
      1.682      0.035     6.1767     69.930     41.228  37.840740     3.6677      7.906   229.1099 2.0811e+01     4.9397      1.651      2.394    20.9138 0.0000e+00
      1.687      0.035     6.2220     69.791     41.430  38.022580     3.6557      7.906   229.2423 2.0649e+01     4.9670      1.653      2.397    20.9048 0.0000e+00
      1.695      0.036     6.2419     69.394     41.517  38.098645     3.6387      7.906   229.2906 2.0366e+01     4.9549      1.660      2.407    20.8977 0.0000e+00
      1.705      0.037     6.2497     68.424     41.482  38.062404     3.5958      7.906   229.3493 2.0047e+01     4.8272      1.672      2.425    20.8927 0.0000e+00
      1.716      0.040     6.2507     66.523     41.382  37.965127     3.5622      7.905   229.5215 1.9717e+01     4.6869      1.682      2.441    20.8874 0.0000e+00
      1.728      0.041     6.2415     63.722     41.289  37.874317     3.5562      7.905   229.7389 1.9374e+01     4.6591      1.694      2.457    20.8822 0.0000e+00
      1.739      0.040     6.2166     60.567     41.272  37.852822     3.5567      7.906   229.8266 1.9074e+01     4.6274      1.707      2.475    20.8781 0.0000e+00
      1.749      0.039     6.1463     57.710     41.325  37.895584     3.5685      7.907   229.7208 1.8837e+01     4.5085      1.715      2.488    20.8733 0.0000e+00
      1.758      0.038     5.9790     55.635     41.387  37.947154     3.5739      7.907   229.6648 1.8633e+01     4.3831      1.724      2.501    20.8672 0.0000e+00
      1.767      0.038     5.7055     54.586     41.416  37.968684     3.5553      7.907   229.7521 1.8415e+01     4.2727      1.733      2.515    20.8603 0.0000e+00
      1.776      0.038     5.4042     54.630     41.419  37.965536     3.5441      7.908   229.8298 1.8153e+01     4.1986      1.741      2.525    20.8523 0.0000e+00
      1.786      0.039     5.1332     55.673     41.432  37.972536     3.5959      7.908   229.9153 1.7856e+01     4.1704      1.750      2.538    20.8455 0.0000e+00
      1.797      0.039     4.9414     57.386     41.455  37.989856     3.6903      7.909   230.0116 1.7558e+01     4.1374      1.763      2.556    20.8403 0.0000e+00
      1.807      0.039     4.8478     59.376     41.453  37.984575     3.7366      7.910   230.0477 1.7285e+01     4.0719      1.773      2.571    20.8335 0.0000e+00
      1.817      0.038     4.8517     61.294     41.444  37.972135     3.7312      7.911   230.0941 1.7019e+01     3.9934      1.781      2.585    20.8257 0.0000e+00
      1.827      0.037     4.9601     62.924     41.441  37.966355     3.7498      7.911   230.2277 1.6774e+01     4.0085      1.792      2.600    20.8199 0.0000e+00
      1.837      0.034     5.1250     64.207     41.457  37.978142     3.8123      7.911   230.3736 1.6544e+01     4.1511      1.801      2.613    20.8155 0.0000e+00
      1.846      0.032     5.3155     65.169     41.539  38.051184     3.8633      7.911   230.3960 1.6320e+01     4.2832      1.810      2.626    20.8107 0.0000e+00
      1.854      0.031     5.4952     65.904     41.651  38.151472     3.8750      7.911   230.4118 1.6165e+01     4.3072      1.819      2.638    20.8063 0.0000e+00
      1.861      0.030     5.6408     66.492     41.750  38.238858     3.8457      7.911   230.3933 1.6045e+01     4.3734      1.824      2.647    20.8023 0.0000e+00
      1.867      0.030     5.7573     66.960     41.871  38.346258     3.7999      7.911   230.2578 1.5879e+01     4.5719      1.830      2.654    20.7991 0.0000e+00
      1.874      0.031     5.8380     67.241     42.041  38.498168     3.7879      7.911   230.3221 1.5684e+01     4.7263      1.838      2.666    20.7965 0.0000e+00
      1.883      0.034     5.9029     67.236     42.243  38.679510     3.7996      7.910   230.5685 1.5483e+01     4.8051      1.846      2.678    20.7938 0.0000e+00
      1.891      0.036     5.9540     66.932     42.407  38.825461     3.7831      7.910   230.6550 1.5271e+01     4.9100      1.854      2.690    20.7904 0.0000e+00
      1.901      0.037     5.9985     66.345     42.527  38.930204     3.7383      7.909   230.5935 1.5048e+01     5.0383      1.864      2.704    20.7861 0.0000e+00
      1.912      0.037     6.0298     65.443     42.672  39.057506     3.7247      7.909   230.5140 1.4808e+01     5.1603      1.875      2.720    20.7817 0.0000e+00
      1.923      0.037     6.0283     64.196     42.927  39.285836     3.7345      7.908   230.3818 1.4583e+01     5.2923      1.886      2.737    20.7771 0.0000e+00
      1.933      0.037     6.0015     62.754     43.271  39.596712     3.6402      7.908   230.2001 1.4415e+01     5.5060      1.896      2.751    20.7718 0.0000e+00
      1.941      0.037     5.9496     61.364     43.534  39.833587     3.4427      7.909   230.1239 1.4273e+01     5.7633      1.904      2.761    20.7658 0.0000e+00
      1.948      0.038     5.8740     60.102     43.642  39.928701     3.3267      7.909   230.2343 1.4083e+01     5.8757      1.910      2.769    20.7596 0.0000e+00
      1.957      0.039     5.7568     58.749     43.637  39.921716     3.3206      7.909   230.4166 1.3873e+01     5.9077      1.920      2.784    20.7543 0.0000e+00
      1.968      0.041     5.6177     56.895     43.592  39.876054     3.3767      7.909   230.6072 1.3655e+01     5.9799      1.930      2.800    20.7494 0.0000e+00
      1.980      0.041     5.4911     54.383     43.538  39.820839     3.4722      7.909   230.7327 1.3382e+01     6.0314      1.942      2.817    20.7446 0.0000e+00
      1.992      0.040     5.3843     51.433     43.482  39.761809     3.5097      7.909   230.7290 1.3114e+01     6.0183      1.955      2.835    20.7408 0.0000e+00
      2.003      0.038     5.2819     48.316     43.458  39.733469     3.4889      7.909   230.7346 1.2897e+01     5.9240      1.965      2.850    20.7378 0.0000e+00
      2.013      0.034     5.1226     45.224     43.463  39.732027     3.4788      7.910   230.8006 1.2732e+01     5.8820      1.975      2.865    20.7337 0.0000e+00
      2.021      0.031     4.8861     42.369     43.483  39.744372     3.4286      7.910   230.8388 1.2627e+01     5.9538      1.983      2.876    20.7262 0.0000e+00
      2.026      0.030     4.6143     40.044     43.503  39.755787     3.3154      7.909   230.8521 1.2525e+01     6.0064      1.987      2.882    20.7165 0.0000e+00
      2.032      0.031     4.3310     38.568     43.498  39.743116     3.2339      7.909   230.8749 1.2390e+01     6.0060      1.993      2.890    20.7084 0.0000e+00
      2.040      0.033     4.0479     38.047     43.478  39.718084     3.2005      7.908   230.9434 1.2233e+01     5.9837      2.000      2.901    20.7020 0.0000e+00
      2.049      0.036     3.7837     38.355     43.473  39.706969     3.2025      7.908   230.9912 1.2039e+01     6.1466      2.008      2.913    20.6958 0.0000e+00
      2.059      0.038     3.5627     39.307     43.510  39.735638     3.2254      7.908   230.9370 1.1810e+01     6.5067      2.018      2.927    20.6889 0.0000e+00
      2.070      0.040     3.4272     40.656     43.597  39.810860     3.2278      7.908   230.8895 1.1574e+01     6.6832      2.030      2.944    20.6792 0.0000e+00
      2.082      0.041     3.3886     42.115     43.719  39.918370     3.2133      7.908   230.9336 1.1368e+01     6.6737      2.043      2.963    20.6696 0.0000e+00
      2.093      0.042     3.4206     43.461     43.839  40.020126     3.1838      7.907   231.0401 1.1215e+01     6.6998      2.053      2.978    20.6629 0.0000e+00
      2.101      0.043     3.5141     44.522     43.927  40.089231     3.1549      7.906   231.1441 1.1084e+01     6.8273      2.060      2.988    20.6578 0.0000e+00
      2.110      0.044     3.6467     45.170     43.972  40.119271     3.1552      7.903   231.2443 1.0910e+01     6.9183      2.068      3.000    20.6524 0.0000e+00
      2.122      0.044     3.7831     45.324     43.992  40.129469     3.1704      7.901   231.3053 1.0676e+01     6.8778      2.080      3.016    20.6488 0.0000e+00
      2.136      0.044     3.9108     45.009     44.020  40.149058     3.1721      7.900   231.2806 1.0434e+01     6.7817      2.095      3.038    20.6423 0.0000e+00
      2.149      0.045     4.0104     44.377     44.045  40.165715     3.1591      7.899   231.2900 1.0232e+01     6.6784      2.108      3.058    20.6267 0.0000e+00
      2.160      0.046     4.0729     43.599     44.024  40.140475     3.1542      7.897   231.4190 1.0077e+01     6.6531      2.119      3.074    20.6129 0.0000e+00
      2.168      0.048     4.0876     42.813     43.914  40.034263     3.1712      7.894   231.5489 9.9501e+00     6.6816      2.127      3.084    20.6049 0.0000e+00
      2.178      0.051     4.0532     42.104     43.772  39.896914     3.2488      7.892   231.4843 9.7837e+00     6.8852      2.134      3.095    20.5984 0.0000e+00
      2.191      0.053     3.9917     41.520     43.689  39.812515     3.3682      7.890   231.4115 9.5452e+00     7.2371      2.148      3.115    20.5916 0.0000e+00
      2.208      0.053     3.9180     41.170     43.657  39.775347     3.4253      7.888   231.5295 9.2942e+00     7.3495      2.166      3.141    20.5843 0.0000e+00
      2.227      0.051     3.8447     41.243     43.652  39.764812     3.4393      7.887   231.6201 9.0879e+00     7.3217      2.184      3.168    20.5780 0.0000e+00
      2.242      0.047     3.7815     41.841     43.707  39.812055     3.4789      7.886   231.6471 8.9407e+00     7.4815      2.200      3.191    20.5702 0.0000e+00
      2.253      0.042     3.7269     42.857     43.805  39.902324     3.7378      7.886   231.6838 8.8424e+00     8.8716      2.210      3.206    20.5582 0.0000e+00
      2.260      0.037     3.6884     44.022     43.805  39.904296     4.1982      7.886   231.7190 8.7646e+00    11.3537      2.216      3.215    20.5471 0.0000e+00
      2.266      0.033     3.6913     45.053     43.662  39.772440     4.4505      7.887   231.8152 8.6813e+00    12.8981      2.221      3.221    20.5405 0.0000e+00
      2.273      0.030     3.7490     45.771     43.523  39.640777     4.6000      7.887   231.9007 8.5825e+00    15.6567      2.228      3.232    20.5381 0.0000e+00
      2.282      0.030     3.8502     46.151     43.466  39.581616     5.9643      7.886   231.8917 8.4883e+00    44.5707      2.238      3.246    20.5396 0.0000e+00
      2.291      0.030     3.9643     46.364     43.454  39.564815     8.4203      7.885   231.8794 8.3980e+00    97.4871      2.247      3.258    20.5437 0.0000e+00
      2.299      0.029     4.0626     46.693     43.458  39.564547     9.7238      7.885   231.8375 8.3090e+00   126.1640      2.254      3.271    20.5440 0.0000e+00
      2.306      0.026     4.1294     47.297     43.475  39.578369     9.6148      7.885   231.7295 8.2566e+00   126.7361      2.262      3.281    20.5356 0.0000e+00
      2.313      0.022     4.1588     48.122     43.504  39.605009     7.2525      7.884   231.6065 8.2486e+00   105.0867      2.268      3.289    20.5251 0.0000e+00
      2.318      0.018     4.1670     49.060     43.531  39.632804     2.9182      7.884   231.5542 8.2569e+00    65.0898      2.273      3.297    20.5185 0.0000e+00
      2.322      0.014     4.1908     50.015     43.559  39.660591     0.5397      7.883   231.6134 8.2549e+00    43.1778      2.277      3.304    20.5150 0.0000e+00
      2.324      0.010     4.2495     50.851     43.585  39.687140     0.2920      7.883   231.7198 8.2411e+00    40.4960      2.280      3.307    20.5127 0.0000e+00
      2.326      0.006     4.3277     51.418     43.597  39.699959     0.1810      7.883   231.8938 8.2326e+00    33.2102      2.281      3.309    20.5133 0.0000e+00
      2.327      0.004     4.4130     51.608     43.582  39.688659     0.0382      7.883   231.9968 8.2406e+00    20.1947      2.282      3.309    20.5177 0.0000e+00
      2.327      0.002     4.5042     51.422     43.568  39.677445    -0.0367      7.883   231.9329 8.2536e+00    13.1031      2.282      3.309    20.5209 0.0000e+00
      2.327      0.001     4.5838     50.967     43.580  39.691301    -0.0506      7.884   231.8954 8.2628e+00    12.3681      2.282      3.310    20.5229 0.0000e+00
      2.327      0.001     4.6386     50.358     43.618  39.729274    -0.0631      7.885   231.9731 8.2664e+00    11.7528      2.283      3.311    20.5260 0.0000e+00
      2.327      0.001     4.6557     49.680     43.643  39.755794    -0.0702      7.885   232.0987 8.2606e+00    10.8557      2.282      3.310    20.5283 0.0000e+00
      2.328      0.001     4.6344     49.015     43.642  39.758111    -0.0623      7.885   232.2092 8.2499e+00    10.4369      2.283      3.311    20.5301 0.0000e+00
      2.328      0.001     4.5888     48.410     43.639  39.757290    -0.0424      7.885   232.2777 8.2384e+00    10.4810      2.283      3.312    20.5329 0.0000e+00
      2.328      0.001     4.5323     47.907     43.624  39.745866    -0.0457      7.884   232.3235 8.2282e+00    10.4667      2.283      3.311    20.5369 0.0000e+00
      2.328      0.000     4.4672     47.545     43.622  39.746919    -0.0683      7.884   232.3329 8.2235e+00    10.3319      2.283      3.311    20.5412 0.0000e+00
      2.328      0.000     4.4061     47.276     43.645  39.770021    -0.0744      7.885   232.3056 8.2185e+00    10.1834      2.284      3.312    20.5453 0.0000e+00
      2.328      0.000     4.3510     47.064     43.644  39.771349    -0.0619      7.886   232.3371 8.2192e+00    10.1747      2.283      3.312    20.5479 0.0000e+00
      2.328      0.000     4.3019     46.918     43.632  39.762979    -0.0416      7.886   232.3704 8.2318e+00    10.6703      2.284      3.312    20.5502 0.0000e+00
      2.328     -0.002     4.2730     46.812     43.666  39.795742     0.0119      7.885   232.4497 8.2209e+00    15.3560      2.283      3.312    20.5532 0.0000e+00
      2.328     -0.007     4.2497     46.715     43.723  39.850179     0.1034      7.883   232.6933 8.1813e+00    23.8232      2.283      3.311    20.5555 0.0000e+00
      2.328     -0.017     4.2291     46.635     43.716  39.850019     0.1653      7.880   233.0790 8.1450e+00    28.3994      2.283      3.312    20.5585 0.0000e+00
      2.326     -0.036     4.2166     46.553     43.574  39.730350     0.2445      7.876   233.4993 8.1045e+00    28.6016      2.283      3.311    20.5612 0.0000e+00
      2.321     -0.066     4.2090     46.419     43.284  39.482137     0.9032      7.874   233.7314 8.0308e+00    26.0285      2.279      3.305    20.5643 0.0000e+00
      2.308     -0.103     4.1986     46.216     42.942  39.197007     2.0777      7.872   233.8203 8.0572e+00    21.1662      2.267      3.288    20.5651 0.0000e+00
      2.283     -0.140     4.1913     45.971     42.634  38.948270     2.7188      7.871   233.8859 8.4653e+00    18.5567      2.245      3.256    20.5708 0.0000e+00
      2.238     -0.168     4.1861     45.853     42.392  38.759294     2.7957      7.871   233.9215 9.2708e+00    18.5264      2.202      3.194    20.5832 0.0000e+00
      2.175     -0.184     4.1720     46.172     42.355  38.752479     2.8988      7.871   233.7347 1.0228e+01    20.2527      2.136      3.097    20.5984 0.0000e+00
      2.106     -0.192     4.1519     47.138     42.390  38.802459     3.0672      7.873   233.1764 1.1122e+01    23.4091      2.061      2.989    20.6317 0.0000e+00
      2.050     -0.200     4.1218     48.732     42.163  38.602108     3.1496      7.877   232.5919 1.1712e+01    25.0236      1.999      2.900    20.6749 0.0000e+00
      2.016     -0.205     4.0955     50.738     41.821  38.297279     3.1457      7.882   232.1744 1.2057e+01    24.7093      1.973      2.861    20.7121 0.0000e+00
      1.988     -0.203     4.1140     52.845     41.726  38.226265     3.1287      7.887   231.8284 1.2799e+01    20.2926      1.960      2.843    20.7470 0.0000e+00
      1.937     -0.195     4.1998     54.783     41.874  38.378086     3.1107      7.891   231.4193 1.4339e+01    12.1339      1.911      2.771    20.7695 0.0000e+00
      1.861     -0.188     4.3498     56.484     41.982  38.483060     3.1110      7.895   230.8415 1.6171e+01     7.6360      1.823      2.644    20.7711 0.0000e+00
      1.790     -0.184     4.5392     58.033     41.912  38.416729     3.1076      7.900   230.3499 1.7410e+01     7.1747      1.742      2.527    20.7774 0.0000e+00
      1.750     -0.181     4.7356     59.368     41.758  38.274115     3.1023      7.907   230.0353 1.7850e+01     7.0337      1.706      2.475    20.8017 0.0000e+00
      1.730     -0.175     4.9094     60.291     41.623  38.154793     3.1885      7.915   229.7044 1.8323e+01     6.5463      1.702      2.469    20.8264 0.0000e+00
      1.702     -0.167     5.0535     60.725     41.568  38.116259     3.3590      7.922   229.3606 1.9513e+01     5.7565      1.679      2.434    20.8327 0.0000e+00
      1.656     -0.167     5.1959     60.830     41.568  38.125519     3.4500      7.927   229.1473 2.1269e+01     5.3405      1.627      2.360    20.8242 0.0000e+00
      1.598     -0.177     5.3247     60.906     41.510  38.076393     3.4477      7.934   229.0181 2.3147e+01     5.2399      1.565      2.272    20.8194 0.0000e+00
      1.543     -0.193     5.4094     61.094     41.386  37.966493     3.5060      7.940   228.8309 2.4676e+01     4.9840      1.506      2.185    20.8263 0.0000e+00
      1.499     -0.204     5.4415     61.321     41.276  37.875488     3.6465      7.945   228.7769 2.5977e+01     4.6037      1.467      2.128    20.8434 0.0000e+00
      1.459     -0.203     5.4360     61.533     41.250  37.864468     3.7406      7.947   229.0531 2.7801e+01     4.3997      1.437      2.084    20.8590 0.0000e+00
      1.405     -0.191     5.4379     61.785     41.275  37.896734     3.7611      7.945   229.2457 3.0482e+01     4.3621      1.384      2.007    20.8601 0.0000e+00
      1.338     -0.173     5.4605     62.150     41.260  37.884888     3.7706      7.944   228.9542 3.3507e+01     4.2848      1.311      1.902    20.8591 0.0000e+00
      1.278     -0.158     5.4808     62.616     41.223  37.848149     3.7879      7.946   228.5411 3.5640e+01     4.2507      1.242      1.801    20.8738 0.0000e+00
      1.243     -0.147     5.4951     63.091     41.208  37.833262     3.8040      7.950   228.2946 3.6139e+01     4.3263      1.208      1.752    20.8942 0.0000e+00
      1.232     -0.142     5.5131     63.501     41.203  37.831803     3.8072      7.955   228.2100 3.6346e+01     4.3788      1.210      1.756    20.9059 0.0000e+00
      1.219     -0.141     5.5458     63.821     41.197  37.830515     3.7933      7.960   228.2929 3.7952e+01     4.5438      1.204      1.747    20.9069 0.0000e+00
      1.184     -0.148     5.5923     64.061     41.179  37.817699     3.7610      7.963   228.2642 4.0993e+01     4.8875      1.167      1.693    20.9010 0.0000e+00
      1.131     -0.164     5.6370     64.226     41.161  37.803763     3.7326      7.965   227.9491 4.4850e+01     5.1525      1.112      1.613    20.8980 0.0000e+00
      1.071     -0.186     5.6742     64.310     41.142  37.788931     3.7334      7.967   227.6658 4.8635e+01     5.2539      1.048      1.520    20.9038 0.0000e+00
      1.021     -0.201     5.7011     64.306     41.113  37.765282     3.7874      7.968   227.7644 5.1367e+01     4.9516      0.993      1.440    20.9110 0.0000e+00
      0.981     -0.200     5.7218     64.237     41.116  37.771660     3.8855      7.966   228.1090 5.4169e+01     4.3334      0.966      1.401    20.9145 0.0000e+00
      0.933     -0.185     5.7366     64.154     41.147  37.802591     3.9459      7.960   228.3059 5.9524e+01     3.9964      0.925      1.341    20.9172 0.0000e+00
      0.868     -0.161     5.7441     64.096     41.168  37.821996     3.9516      7.955   228.2521 6.6214e+01     4.0189      0.847      1.229    20.9198 0.0000e+00
      0.810     -0.133     5.7431     64.080     41.164  37.815912     3.9549      7.953   228.0601 7.0449e+01     4.1270      0.780      1.132    20.9225 0.0000e+00
      0.782     -0.105     5.7341     64.106     41.140  37.792482     4.0274      7.953   227.7910 7.1763e+01     4.2452      0.758      1.100    20.9290 0.0000e+00
      0.775     -0.083     5.7246     64.147     41.140  37.792534     4.1699      7.957   227.4935 7.2228e+01     4.4235      0.760      1.103    20.9339 0.0000e+00
      0.773     -0.074     5.7197     64.160     41.165  37.816540     4.2471      7.962   227.3025 7.2585e+01     4.5057      0.758      1.100    20.9316 0.0000e+00
      0.769     -0.081     5.7184     64.138     41.180  37.828907     4.2283      7.967   227.2892 7.3337e+01     4.4882      0.757      1.098    20.9272 0.0000e+00
      0.756     -0.101     5.7216     64.092     41.165  37.815162     4.1258      7.970   227.3325 7.6766e+01     4.4847      0.751      1.089    20.9256 0.0000e+00
      0.720     -0.123     5.7274     64.036     41.122  37.777253     3.9559      7.973   227.3091 8.3628e+01     4.3612      0.715      1.037    20.9274 0.0000e+00
      0.666     -0.139     5.7282     63.970     41.091  37.751296     3.8472      7.976   227.0931 9.0848e+01     4.2248      0.650      0.944    20.9284 0.0000e+00
      0.615     -0.149     5.7259     63.885     41.091  37.755148     3.8351      7.980   226.6999 9.6131e+01     4.2014      0.597      0.866    20.9269 0.0000e+00
      0.580     -0.156     5.7215     63.804     41.094  37.760373     3.9595      7.984   226.2542 1.0006e+02     4.1130      0.567      0.822    20.9263 0.0000e+00
      0.552     -0.161     5.7160     63.784     41.082  37.751031     4.1943      7.987   225.8344 1.0366e+02     3.9753      0.542      0.787    20.9267 0.0000e+00
      0.521     -0.167     5.7108     63.846     41.031  37.705656     4.3185      7.989   225.5813 1.0862e+02     3.9027      0.515      0.747    20.9299 0.0000e+00
      0.481     -0.175     5.7021     63.966     40.972  37.655940     4.3045      7.990   225.4315 1.1805e+02     3.8156      0.476      0.691    20.9363 0.0000e+00
      0.427     -0.182     5.6913     64.124     40.968  37.657574     4.2168      7.989   225.2278 1.3270e+02     3.7425      0.423      0.614    20.9401 0.0000e+00
      0.365     -0.182     5.6892     64.308     40.967  37.661964     4.0984      7.987   225.0964 1.4804e+02     3.7701      0.355      0.515    20.9403 0.0000e+00
      0.309     -0.172     5.6957     64.528     40.946  37.645567     4.0547      7.986   225.0482 1.6039e+02     3.8422      0.295      0.429    20.9419 0.0000e+00
      0.267     -0.152     5.7066     64.807     40.949  37.649696     4.0465      7.986   224.7302 1.7200e+02     3.8282      0.260      0.378    20.9470 0.0000e+00
      0.233     -0.136     5.7199     65.110     40.947  37.648434     4.0161      7.988   224.0913 1.8245e+02     3.7386      0.227      0.329    20.9552 0.0000e+00
      0.206     -0.133     5.7359     65.390     40.927  37.630313     3.9951      7.991   223.4317 1.8773e+02     3.6808      0.194      0.281    20.9623 0.0000e+00
      0.192     -0.145     5.7528     65.596     40.917  37.620964     4.0001      7.994   223.0366 1.9551e+02     3.7097      0.188      0.273    20.9647 0.0000e+00
      0.173     -0.163     5.7796     65.658     40.891  37.598851     4.0272      7.995   223.1001 2.1727e+02     3.8152      0.182      0.265    20.9673 0.0000e+00
      0.126     -0.177     5.8083     65.618     40.838  37.553315     4.0402      7.995   223.5971 2.5487e+02     3.8280      0.134      0.195    20.9687 0.0000e+00
      0.052     -0.185     5.8330     65.566     40.790  37.514584     4.0239      7.992   228.0132 3.0893e+02     3.7962      0.051      0.074    20.9669 0.0000e+00
     -0.021     -0.190     5.8578     65.560     40.780  37.511295     4.0212      7.990   232.2702 3.6164e+02     3.9092     -0.030     -0.044    20.9663 0.0000e+00
     -0.072     -0.201     5.8584     65.587     40.776  37.513558     4.0412      7.993   228.0909 3.8740e+02     4.0339     -0.080     -0.115    20.9693 0.0000e+00
     -0.100     -0.225     5.8530     65.610     40.734  37.478505     4.0491      7.995   222.3934 4.0344e+02     4.0744     -0.102     -0.147    20.9733 0.0000e+00
     -0.122     -0.263     5.8436     65.587     40.719  37.468205     4.0496      7.992   222.7490 4.2979e+02     4.0220     -0.109     -0.158    20.9778 0.0000e+00
     -0.171     -0.303     5.8451     65.611     40.763  37.515947     4.0563      7.986   223.9599 4.5259e+02     3.8794     -0.150     -0.217    20.9879 0.0000e+00
     -0.268     -0.329     5.8453     65.744     40.788  37.548117     4.0718      7.979   223.5260 4.4463e+02     3.8186     -0.247     -0.357    20.9974 0.0000e+00
     -0.408     -0.327     5.8514     65.785     40.773  37.539914     4.0954      7.976   222.1486 4.0783e+02     3.8331     -0.396     -0.575    20.9985 0.0000e+00
     -0.547     -0.287     5.8464     65.541     40.705  37.480232     4.1338      7.973   216.2542 3.7742e+02     3.8497     -0.562     -0.816    21.0004 0.0000e+00
     -0.633     -0.220     5.8370     64.864     40.547  37.334145     4.1785      7.971   211.7111 3.5718e+02     3.8490     -0.642     -0.931    21.0117 0.0000e+00
     -0.659     -0.146     5.8650     63.912     39.612  36.471585     4.1864      7.969   212.3884 3.4598e+02     3.7563     -0.657     -0.952    21.0240 0.0000e+00
     -0.644     -0.079     5.8650     62.907     31.379  28.891260     4.1459      7.967   213.9462 3.4934e+02     3.7539     -0.645     -0.935    21.0320 0.0000e+00
     -0.613     -0.033     5.8570     61.958     16.139  14.860328     3.6553      7.967   215.4037 3.5401e+02     4.4009     -0.586     -0.850    21.0347 0.0000e+00
     -0.609     -0.016     5.7872     61.429      6.997   6.442958     2.7154      7.968   215.7280 3.4964e+02     5.4984     -0.577     -0.838    21.0326 0.0000e+00
     -0.639     -0.019     5.6900     61.591      5.744   5.288453     2.1868      7.970   215.4580 3.3186e+02     6.0576     -0.636     -0.921    21.0302 0.0000e+00
     -0.664     -0.028     5.6091     62.330      7.107   6.540098     2.0920      7.972   219.4535 3.0336e+02     6.0391     -0.659     -0.956    21.0309 0.0000e+00
     -0.670     -0.032     5.5034     63.327     12.782  11.755883     1.5612      7.973   226.4375 2.7337e+02     5.1721     -0.657     -0.952    21.0358 0.0000e+00
     -0.670     -0.024     5.4475     64.271     18.091  16.635240     0.5882      7.974   230.7248 2.5167e+02     3.4989     -0.658     -0.954    21.0368 0.0000e+00
     -0.670     -0.010     5.4680     64.946     17.923  16.479073     0.0480      7.974   231.7128 2.4972e+02     2.5130     -0.657     -0.954    21.0291 0.0000e+00
     -0.671     -0.002     5.5478     65.335     18.874  17.352529    -0.0020      7.974   231.5877 2.6020e+02     2.4071     -0.658     -0.955    21.0119 0.0000e+00
     -0.671 -1.079e-09     5.6480     65.579     25.515  23.459663    -0.0072      7.977   228.6094 2.5517e+02     2.4240     -0.658     -0.954    20.9892 0.0000e+00
     -0.671 -1.187e-08     5.7425     65.853     34.571  31.792065    -0.0650      7.985   210.3297 2.4177e+02     2.5114     -0.658     -0.954    20.9720 0.0000e+00
     -0.671 -1.306e-07     5.8036     66.413     39.444  36.281409    -0.1515      7.991   175.4199 2.4676e+02     2.7120     -0.658     -0.954    20.9667 0.0000e+00
     -0.671 -1.306e-07     5.8315     67.523     33.619  30.927839    -0.1872      7.978   175.0234 2.7369e+02     2.8346     -0.658     -0.954    20.9647 0.0000e+00
     -0.670 -1.187e-08     5.8503     69.238     20.167  18.553923    -0.1722      7.940   224.5509 3.2530e+02     2.9001     -0.657     -0.953    20.9629 0.0000e+00
     -0.670 -1.051e-09     5.8646     71.388     10.604   9.755571    -0.1203      7.898   256.2098 3.8376e+02     3.2648     -0.657     -0.953    20.9729 0.0000e+00
     -0.670 2.0725e-10     5.9024     73.796      7.026   6.463447    -0.0674      7.870   254.9503 4.1215e+02     3.8635     -0.658     -0.954    20.9873 0.0000e+00
     -0.670 3.3499e-09     5.9981     76.264      5.208   4.791420    -0.0564      7.856   250.0189 4.1443e+02     4.2285     -0.657     -0.953    20.9946 0.0000e+00
     -0.671 3.6947e-08     6.1600     78.530      4.400   4.047856    -0.0541      7.849   250.7044 4.1683e+02     4.3993     -0.658     -0.954    20.9964 0.0000e+00
     -0.671 4.0642e-07     6.3563     80.420      4.140   3.808225    -0.0480      7.847   257.7319 4.2962e+02     5.1773     -0.659     -0.955    20.9958 0.0000e+00
     -0.671      0.000     6.5753     81.827      4.125   3.794559    -0.0576      7.848   268.4786 4.5060e+02     6.5296     -0.658     -0.954    20.9954 0.0000e+00
     -0.671      0.000     6.8073     82.735      4.083   3.755934    -0.0533      7.845   313.0160 4.6540e+02     7.2908     -0.658     -0.954    20.9951 0.0000e+00
     -0.670      0.001     7.0126     83.243      3.977   3.657952    -0.0299      7.842   383.3271 4.6506e+02     7.4119     -0.657     -0.953    20.9939 0.0000e+00
     -0.670      0.001     7.1854     83.474      3.870   3.560091    -0.0324      7.849   411.0162 4.5815e+02     7.3450     -0.657     -0.953    20.9920 0.0000e+00
     -0.670      0.000     7.3126     83.531      3.761   3.459581    -0.0579      7.863   399.4072 4.5910e+02     7.1652     -0.657     -0.953    20.9907 0.0000e+00
     -0.670 1.8474e-08     7.3887     83.479      3.620   3.329568    -0.0726      7.874   387.5962 4.7158e+02     7.1166     -0.658     -0.954    20.9898 0.0000e+00
     -0.670 2.0321e-07     7.4308     83.372      3.470   3.191728    -0.0599      7.883   378.6848 4.8219e+02     7.2016     -0.657     -0.953    20.9893 0.0000e+00
     -0.670 2.0321e-07     7.4475     83.263      3.327   3.059908    -0.0041      7.889   371.0749 4.8341e+02     7.4752     -0.657     -0.953    20.9889 0.0000e+00
     -0.670 1.8473e-08     7.4514     83.189      3.196   2.939328     0.0687      7.894   362.7829 4.7936e+02     7.9313     -0.658     -0.954    20.9882 0.0000e+00
     -0.670 1.6786e-09     7.4450     83.146      3.125   2.874051     0.1127      7.901   349.8393 4.7411e+02     8.2070     -0.657     -0.953    20.9871 0.0000e+00
     -0.670 1.4288e-10     7.4342     83.128      3.158   2.904111     0.1376      7.907   335.7178 4.7556e+02     8.2809     -0.657     -0.953    20.9858 0.0000e+00
     -0.670 -9.390e-11     7.4228     83.136      3.178   2.922697     0.1446      7.911   328.1556 4.9191e+02     8.3125     -0.657     -0.953    20.9847 0.0000e+00
     -0.670 -1.184e-09     7.4172     83.140      3.025   2.782037     0.1480      7.913   325.1715 5.1871e+02     8.3840     -0.657     -0.953    20.9836 0.0000e+00
     -0.670 -1.304e-08     7.4141     83.161      2.824   2.597018     0.1784      7.916   322.6955 5.3970e+02     8.5313     -0.658     -0.954    20.9827 0.0000e+00
     -0.670 -1.435e-07     7.4113     83.246      2.743   2.522667     0.1949      7.918   320.5028 5.4580e+02     8.5553     -0.657     -0.953    20.9817 0.0000e+00
     -0.671 -2.630e-07     7.4146     83.306      2.736   2.516517     0.1901      7.918   319.4818 5.4439e+02     8.5036     -0.658     -0.954    20.9807 0.0000e+00
     -0.671 -9.990e-29     7.4146 -9.990e-29 -9.990e-29 -9.990e-29 -9.990e-29 -9.990e-29 -9.990e-29 5.4572e+02 -9.990e-29     -0.658     -0.954    20.9801 0.0000e+00
     -0.670 -9.990e-29     7.4124 -9.990e-29 -9.990e-29 -9.990e-29 -9.990e-29 -9.990e-29 -9.990e-29 5.4982e+02 -9.990e-29     -0.657     -0.953    20.9792 0.0000e+00
     -0.670 -9.990e-29     7.4241 -9.990e-29 -9.990e-29 -9.990e-29 -9.990e-29 -9.990e-29 -9.990e-29 5.5180e+02 -9.990e-29     -0.657     -0.953    20.9781 0.0000e+00
     -0.670 -9.990e-29     7.4364 -9.990e-29 -9.990e-29 -9.990e-29 -9.990e-29 -9.990e-29 -9.990e-29 5.5180e+02 -9.990e-29     -0.657     -0.953    20.9776 0.0000e+00
