* Sea-Bird SBE19plus  Data File:
* FileName = C:\R\Reservoirs\Data\DataNotYetUploadedToEDI\Raw_CTD\RawDownloads\092623_bvr50_S7809_0002.hex
* Software version 2.8.0.119
* Temperature SN = 7809
* Conductivity SN = 7809
* System UpLoad Time = Oct 05 2023 10:02:18
* <ApplicationData>
* <Seaterm232>
* <SoftwareVersion>2.8.0.119</SoftwareVersion>
* <BuildDate>07-Nov-2018</BuildDate>
* </Seaterm232>
* </ApplicationData>
* <InstrumentState>
* <HardwareData DeviceType='SBE19plus' SerialNumber='01907809'>
*
*    <Manufacturer>Sea-Bird Electronics, Inc.</Manufacturer>
*
*    <FirmwareVersion>3.1.8</FirmwareVersion>
*
*    <FirmwareDate>Mar  9 2016 16:22:29</FirmwareDate>
*
*    <CommandSetVersion>1.4</CommandSetVersion>
*
*    <PCBAssembly PCBSerialNum='120721' AssemblyNum='41054J'/>
*
*    <PCBAssembly PCBSerialNum='120715' AssemblyNum='41967A'/>
*
*    <PCBAssembly PCBSerialNum='116699' AssemblyNum='41606'/>
*
*    <PCBAssembly PCBSerialNum='120719' AssemblyNum='41059D'/>
*
*    <MfgDate>28-Apr-2017</MfgDate>
*
*    <InternalSensors>
*
*       <Sensor id='Main Temperature'>
*
*          <type>temperature0</type>
*
*          <SerialNumber>01907809</SerialNumber>
*
*       </Sensor>
*
*       <Sensor id='Main Conductivity'>
*
*          <type>conductivity-0</type>
*
*          <SerialNumber>01907809</SerialNumber>
*
*       </Sensor>
*
*       <Sensor id='Main Pressure'>
*
*          <type>strain-0</type>
*
*          <SerialNumber>10586018</SerialNumber>
*
*       </Sensor>
*
*    </InternalSensors>
*
*    <ExternalSensors>
*
*       <Sensor id='volt 0'>
*
*          <type>pH</type>
*
*          <SerialNumber>27-0363</SerialNumber>
*
*       </Sensor>
*
*       <Sensor id='volt 1'>
*
*          <type>ORP</type>
*
*          <SerialNumber>27-0363</SerialNumber>
*
*       </Sensor>
*
*       <Sensor id='volt 2'>
*
*          <type>OXY</type>
*
*          <SerialNumber>43-0434</SerialNumber>
*
*       </Sensor>
*
*       <Sensor id='volt 3'>
*
*          <type>PAR</type>
*
*          <SerialNumber>1122</SerialNumber>
*
*       </Sensor>
*
*       <Sensor id='volt 4'>
*
*          <type>ECO AFL/FL</type>
*
*          <SerialNumber>FLNTURT-2496</SerialNumber>
*
*       </Sensor>
*
*       <Sensor id='volt 5'>
*
*          <type>ECO-NTU</type>
*
*          <SerialNumber>FLNTURT-2496</SerialNumber>
*
*       </Sensor>
*
*       <Sensor id='serial'>
*
*          <type>not assigned</type>
*
*          <SerialNumber>not assigned</SerialNumber>
*
*       </Sensor>
*
*    </ExternalSensors>
*
* </HardwareData>
* <StatusData DeviceType='SBE19plus' SerialNumber='01907809'>
*
*    <DateTime>2023-10-05T10:00:39</DateTime>
*
*    <LoggingState>not logging</LoggingState>
*
*    <EventSummary numEvents='0'/>
*
*    <Power>
*
*       <vMain>12.8</vMain>
*
*       <vLith>8.4</vLith>
*
*       <iMain>63.0</iMain>
*
*       <iPump>91.0</iPump>
*
*       <iExt01>20.0</iExt01>
*
*       <iExt2345>37.7</iExt2345>
*
*    </Power>
*
*    <MemorySummary>
*
*       <Bytes>103500</Bytes>
*
*       <Samples>4500</Samples>
*
*       <SamplesFree>2856288</SamplesFree>
*
*       <SampleLength>23</SampleLength>
*
*       <Profiles>3</Profiles>
*
*    </MemorySummary>
*
* </StatusData>
* <ConfigurationData DeviceType='SBE19plus' SerialNumber='01907809'>
*
*    <ProfileMode>
*
*       <ScansToAverage>1</ScansToAverage>
*
*       <MinimumCondFreq>0</MinimumCondFreq>
*
*       <PumpDelay>45</PumpDelay>
*
*       <AutoRun>no</AutoRun>
*
*       <IgnoreSwitch>no</IgnoreSwitch>
*
*    </ProfileMode>
*
*    <Battery>
*
*       <Type>alkaline</Type>
*
*       <CutOff>7.5</CutOff>
*
*    </Battery>
*
*    <DataChannels>
*
*       <ExtVolt0>yes</ExtVolt0>
*
*       <ExtVolt1>yes</ExtVolt1>
*
*       <ExtVolt2>yes</ExtVolt2>
*
*       <ExtVolt3>yes</ExtVolt3>
*
*       <ExtVolt4>yes</ExtVolt4>
*
*       <ExtVolt5>yes</ExtVolt5>
*
*       <SBE38>no</SBE38>
*
*       <WETLABS>no</WETLABS>
*
*       <OPTODE>no</OPTODE>
*
*       <SBE63>no</SBE63>
*
*       <SeaFET>no</SeaFET>
*
*       <GTD>no</GTD>
*
*    </DataChannels>
*
*    <EchoCharacters>yes</EchoCharacters>
*
*    <OutputExecutedTag>yes</OutputExecutedTag>
*
*    <OutputFormat>raw HEX</OutputFormat>
*
* </ConfigurationData>
* <CalibrationCoefficients DeviceType='SBE19plus' SerialNumber='01907809'>
*
*    <Calibration format='TEMP1' id='Main Temperature'>
*
*       <SerialNum>01907809</SerialNum>
*
*       <CalDate>31-Jan-23</CalDate>
*
*       <TA0>1.218232e-03</TA0>
*
*       <TA1>2.815090e-04</TA1>
*
*       <TA2>-1.578887e-06</TA2>
*
*       <TA3>1.972343e-07</TA3>
*
*       <TOFFSET>0.000000e+00</TOFFSET>
*
*    </Calibration>
*
*    <Calibration format='WBCOND0' id='Main Conductivity'>
*
*       <SerialNum>01907809</SerialNum>
*
*       <CalDate>31-Jan-23</CalDate>
*
*       <G>-1.005652e+00</G>
*
*       <H>1.267963e-01</H>
*
*       <I>-1.561708e-04</I>
*
*       <J>2.645944e-05</J>
*
*       <CPCOR>-9.570000e-08</CPCOR>
*
*       <CTCOR>3.250000e-06</CTCOR>
*
*       <CSLOPE>1.000000e+00</CSLOPE>
*
*    </Calibration>
*
*    <Calibration format='STRAIN0' id='Main Pressure'>
*
*       <SerialNum>10586018</SerialNum>
*
*       <CalDate>20-Jan-23</CalDate>
*
*       <PA0>4.416439e-02</PA0>
*
*       <PA1>4.850502e-04</PA1>
*
*       <PA2>-3.090426e-12</PA2>
*
*       <PTCA0>5.254757e+05</PTCA0>
*
*       <PTCA1>1.050255e+01</PTCA1>
*
*       <PTCA2>-2.922435e-01</PTCA2>
*
*       <PTCB0>2.516687e+01</PTCB0>
*
*       <PTCB1>3.750000e-04</PTCB1>
*
*       <PTCB2>0.000000e+00</PTCB2>
*
*       <PTEMPA0>-5.470820e+01</PTEMPA0>
*
*       <PTEMPA1>5.485421e+01</PTEMPA1>
*
*       <PTEMPA2>-3.446578e-01</PTEMPA2>
*
*       <POFFSET>8.500000e-01</POFFSET>
*
*       <PRANGE>1.600000e+02</PRANGE>
*
*    </Calibration>
*
*    <Calibration format='VOLT0' id='Volt 0'>
*
*       <OFFSET>-4.920000e-02</OFFSET>
*
*       <SLOPE>1.248122e+00</SLOPE>
*
*    </Calibration>
*
*    <Calibration format='VOLT0' id='Volt 1'>
*
*       <OFFSET>-4.784000e-02</OFFSET>
*
*       <SLOPE>1.248871e+00</SLOPE>
*
*    </Calibration>
*
*    <Calibration format='VOLT0' id='Volt 2'>
*
*       <OFFSET>-4.864632e-02</OFFSET>
*
*       <SLOPE>1.248714e+00</SLOPE>
*
*    </Calibration>
*
*    <Calibration format='VOLT0' id='Volt 3'>
*
*       <OFFSET>-4.743790e-02</OFFSET>
*
*       <SLOPE>1.248571e+00</SLOPE>
*
*    </Calibration>
*
*    <Calibration format='VOLT0' id='Volt 4'>
*
*       <OFFSET>-4.671263e-02</OFFSET>
*
*       <SLOPE>1.248951e+00</SLOPE>
*
*    </Calibration>
*
*    <Calibration format='VOLT0' id='Volt 5'>
*
*       <OFFSET>-4.871053e-02</OFFSET>
*
*       <SLOPE>1.249136e+00</SLOPE>
*
*    </Calibration>
*
*    <Calibration format='FREQ0' id='external frequency channel'>
*
*       <EXTFREQSF>1.000014e+00</EXTFREQSF>
*
*    </Calibration>
*
* </CalibrationCoefficients>
* <EventCounters DeviceType='SBE19plus' SerialNumber='01907809'>
*
*    <EventSummary numEvents='0'/>
*
* </EventCounters></InstrumentState>
* <Headers>
*
* cast   2 03 Oct 2023 11:31:49 samples 1554 to 2595, avg = 1, stop = mag switch
*
# nquan = 15
# nvalues = 1042                        
# units = specified
# name 0 = depFM: Depth [fresh water, m]
# name 1 = dz/dtM: Descent Rate [m/s]
# name 2 = sbeox0Mg/L: Oxygen, SBE 43 [mg/l]
# name 3 = sbeox0PS: Oxygen, SBE 43 [% saturation]
# name 4 = specc: Specific Conductance [uS/cm]
# name 5 = c0uS/cm: Conductivity [uS/cm]
# name 6 = flECO-AFL: Fluorescence, WET Labs ECO-AFL/FL [mg/m^3]
# name 7 = ph: pH
# name 8 = orp: Oxidation Reduction Potential [mV]
# name 9 = par/sat/log: PAR/Logarithmic, Satlantic
# name 10 = turbWETntu0: Turbidity, WET Labs ECO [NTU]
# name 11 = prdM: Pressure, Strain Gauge [db]
# name 12 = prdE: Pressure, Strain Gauge [psi]
# name 13 = tv290C: Temperature [ITS-90, deg C]
# name 14 = flag:  0.000e+00
# span 0 =     -0.666,      9.039       
# span 1 =     -0.492,      0.153       
# span 2 =     0.0940,     9.4149       
# span 3 =      0.937,    105.242       
# span 4 =      9.936,    243.261       
# span 5 =   8.947161, 169.422742       
# span 6 =    -2.1116,    11.9991       
# span 7 =      5.994,      6.733       
# span 8 =   -88.9417,   298.2333       
# span 9 = 1.2362e-01, 1.4199e+03       
# span 10 =     2.2854,     7.9574      
# span 11 =     -0.654,      8.868      
# span 12 =     -0.948,     12.862      
# span 13 =     9.8182,    21.9111      
# span 14 = 0.0000e+00, 0.0000e+00      
# interval = seconds: 0.25
# start_time = Oct 03 2023 11:31:49 [Instrument's time stamp, header]
# bad_flag = -9.990e-29
# <Sensors count="9" >
#   <sensor Channel="1" >
#     <!-- Count, Temperature -->
#     <TemperatureSensor SensorID="58" >
#       <SerialNumber>7809</SerialNumber>
#       <CalibrationDate>31-Jan-23</CalibrationDate>
#       <A0>1.21823180e-003</A0>
#       <A1>2.81508993e-004</A1>
#       <A2>-1.57888696e-006</A2>
#       <A3>1.97234302e-007</A3>
#       <Slope>1.00000000</Slope>
#       <Offset>0.0000</Offset>
#     </TemperatureSensor>
#   </sensor>
#   <sensor Channel="2" >
#     <!-- Frequency 0, Conductivity -->
#     <ConductivitySensor SensorID="3" >
#       <SerialNumber>7809</SerialNumber>
#       <CalibrationDate>31-Jan-23</CalibrationDate>
#       <UseG_J>1</UseG_J>
#       <!-- Cell const and series R are applicable only for wide range sensors. -->
#       <SeriesR>0.0000</SeriesR>
#       <CellConst>2000.0000</CellConst>
#       <ConductivityType>0</ConductivityType>
#       <Coefficients equation="0" >
#         <A>0.00000000e+000</A>
#         <B>0.00000000e+000</B>
#         <C>0.00000000e+000</C>
#         <D>0.00000000e+000</D>
#         <M>0.0</M>
#         <CPcor>-9.57000000e-008</CPcor>
#       </Coefficients>
#       <Coefficients equation="1" >
#         <G>-1.00565232e+000</G>
#         <H>1.26796307e-001</H>
#         <I>-1.56170788e-004</I>
#         <J>2.64594368e-005</J>
#         <CPcor>-9.57000000e-008</CPcor>
#         <CTcor>3.2500e-006</CTcor>
#         <!-- WBOTC not applicable unless ConductivityType = 1. -->
#         <WBOTC>0.00000000e+000</WBOTC>
#       </Coefficients>
#       <Slope>1.00000000</Slope>
#       <Offset>0.00000</Offset>
#     </ConductivitySensor>
#   </sensor>
#   <sensor Channel="3" >
#     <!-- Count, Pressure, Strain Gauge -->
#     <PressureSensor SensorID="46" >
#       <SerialNumber>7809</SerialNumber>
#       <CalibrationDate>20-Jan-23</CalibrationDate>
#       <PA0>4.41643944e-002</PA0>
#       <PA1>4.85050239e-004</PA1>
#       <PA2>-3.09042623e-012</PA2>
#       <PTEMPA0>-5.47081996e+001</PTEMPA0>
#       <PTEMPA1>5.48542136e+001</PTEMPA1>
#       <PTEMPA2>-3.44657813e-001</PTEMPA2>
#       <PTCA0>5.25475731e+005</PTCA0>
#       <PTCA1>1.05025484e+001</PTCA1>
#       <PTCA2>-2.92243463e-001</PTCA2>
#       <PTCB0>2.51668750e+001</PTCB0>
#       <PTCB1>3.75000000e-004</PTCB1>
#       <PTCB2>0.00000000e+000</PTCB2>
#       <Offset>0.000000</Offset>
#     </PressureSensor>
#   </sensor>
#   <sensor Channel="4" >
#     <!-- A/D voltage 0, Oxygen, SBE 43 -->
#     <OxygenSensor SensorID="38" >
#       <SerialNumber>0434</SerialNumber>
#       <CalibrationDate>18-Feb-23</CalibrationDate>
#       <Use2007Equation>1</Use2007Equation>
#       <CalibrationCoefficients equation="0" >
#         <!-- Coefficients for Owens-Millard equation. -->
#         <Boc>0.0000</Boc>
#         <Soc>0.0000e+000</Soc>
#         <offset>0.0000</offset>
#         <Pcor>0.00e+000</Pcor>
#         <Tcor>0.0000</Tcor>
#         <Tau>0.0</Tau>
#       </CalibrationCoefficients>
#       <CalibrationCoefficients equation="1" >
#         <!-- Coefficients for Sea-Bird equation - SBE calibration in 2007 and later. -->
#         <Soc>5.1878e-001</Soc>
#         <offset>-0.5046</offset>
#         <A>-4.2788e-003</A>
#         <B> 1.5372e-004</B>
#         <C>-2.1853e-006</C>
#         <D0> 2.5826e+000</D0>
#         <D1> 1.92634e-004</D1>
#         <D2>-4.64803e-002</D2>
#         <E> 3.6000e-002</E>
#         <Tau20> 0.9900</Tau20>
#         <H1>-3.3000e-002</H1>
#         <H2> 5.0000e+003</H2>
#         <H3> 1.4500e+003</H3>
#       </CalibrationCoefficients>
#     </OxygenSensor>
#   </sensor>
#   <sensor Channel="5" >
#     <!-- A/D voltage 1, PAR/Logarithmic, Satlantic -->
#     <PARLog_SatlanticSensor SensorID="76" >
#       <SerialNumber>1122</SerialNumber>
#       <CalibrationDate>08-Sep-2021</CalibrationDate>
#       <a0>9.6751e-001</a0>
#       <a1>8.0992e-001</a1>
#       <Im>1.3589e+000</Im>
#       <Multiplier>1.0000e+000</Multiplier>
#     </PARLog_SatlanticSensor>
#   </sensor>
#   <sensor Channel="6" >
#     <!-- A/D voltage 2, pH -->
#     <pH_Sensor SensorID="43" >
#       <SerialNumber>0363</SerialNumber>
#       <CalibrationDate>28-Feb-23</CalibrationDate>
#       <Slope>4.7364</Slope>
#       <Offset>2.5433</Offset>
#     </pH_Sensor>
#   </sensor>
#   <sensor Channel="7" >
#     <!-- A/D voltage 3, Oxidation Reduction Potential -->
#     <OxidationReductionPotentialSensor SensorID="41" >
#       <SerialNumber>0363</SerialNumber>
#       <CalibrationDate>28-Feb-23</CalibrationDate>
#       <B>2.499480</B>
#       <M>-0.496195</M>
#       <Offset>0.0</Offset>
#     </OxidationReductionPotentialSensor>
#   </sensor>
#   <sensor Channel="8" >
#     <!-- A/D voltage 4, Fluorometer, WET Labs ECO-AFL/FL -->
#     <FluoroWetlabECO_AFL_FL_Sensor SensorID="20" >
#       <SerialNumber>FLNTURT-2496</SerialNumber>
#       <CalibrationDate>02-Sep-2021</CalibrationDate>
#       <ScaleFactor>4.80000000e+001</ScaleFactor>
#       <!-- Dark output -->
#       <Vblank>0.0550</Vblank>
#     </FluoroWetlabECO_AFL_FL_Sensor>
#   </sensor>
#   <sensor Channel="9" >
#     <!-- A/D voltage 5, Turbidity Meter, WET Labs, ECO-NTU -->
#     <TurbidityMeter SensorID="67" >
#       <SerialNumber>FLNTURT--2496</SerialNumber>
#       <CalibrationDate>02-Sep-2021</CalibrationDate>
#       <ScaleFactor>197.000000</ScaleFactor>
#       <!-- Dark output -->
#       <DarkVoltage>0.070000</DarkVoltage>
#     </TurbidityMeter>
#   </sensor>
# </Sensors>
# datcnv_date = Oct 05 2023 10:23:06, 7.26.7.129 [datcnv_vars = 14]
# datcnv_in = C:\R\Reservoirs\Data\DataNotYetUploadedToEDI\Raw_CTD\RawDownloads\100323_bvr50_S7809002.hex C:\R\Reservoirs\Data\DataNotYetUploadedToEDI\Raw_CTD\RawDownloads\SBE19plusV2_7809_start20230701.xmlcon
# datcnv_skipover = 0
# datcnv_ox_hysteresis_correction = yes
# datcnv_ox_tau_correction = yes
# filter_date = Oct 05 2023 10:23:34, 7.26.7.129
# filter_in = C:\R\Reservoirs\Data\DataNotYetUploadedToEDI\Raw_CTD\RawDownloads\100323_bvr50_S7809002.cnv
# filter_low_pass_tc_A = 0.030
# filter_low_pass_tc_B = 0.150
# filter_low_pass_A_vars = sbeox0Mg/L prdM prdE tv290C
# filter_low_pass_B_vars = depFM dz/dtM sbeox0PS specc c0uS/cm flECO-AFL ph orp par/sat/log turbWETntu0
# alignctd_date = Oct 05 2023 10:24:05, 7.26.7.129
# alignctd_in = C:\R\Reservoirs\Data\DataNotYetUploadedToEDI\Raw_CTD\RawDownloads\100323_bvr50_S7809002.cnv
# alignctd_adv = dz/dtM 1.000, sbeox0PS 1.000, specc 1.000, c0uS/cm 1.000, flECO-AFL 1.000, ph 1.000, orp 1.000, turbWETntu0 1.000                                                                                                   
# file_type = ascii
*END*
     -0.122      0.104     8.5799     98.715     34.947  32.509561     2.7663      6.346   268.8026 3.5793e+02     6.4934     -0.134     -0.194    21.5569 0.0000e+00
     -0.080      0.130     8.6016     99.414     34.933  32.525473     2.8022      6.358   266.2030 3.1663e+02     6.2326     -0.081     -0.118    21.5043 0.0000e+00
     -0.027      0.148     8.6290    100.106     34.901  32.523165     2.9068      6.353   262.7680 2.7389e+02     5.3449     -0.022     -0.032    21.4765 0.0000e+00
      0.022      0.153     8.6583    100.768     34.838  32.481699     3.0993      6.341   259.1054 2.4817e+02     3.7189      0.022      0.032    21.4760 0.0000e+00
      0.065      0.146     8.7099    101.340     34.748  32.404771     3.1983      6.327   256.2481 2.2741e+02     2.7988      0.066      0.095    21.4986 0.0000e+00
      0.102      0.131     8.7690    101.718     34.701  32.354307     3.1967      6.311   254.5485 2.0930e+02     2.6579      0.105      0.152    21.5527 0.0000e+00
      0.127      0.116     8.8208    101.935     34.615  32.252172     3.1879      6.291   253.8714 1.9994e+02     2.6304      0.128      0.187    21.5927 0.0000e+00
      0.147      0.104     8.8764    102.065     34.374  31.994530     3.1754      6.270   253.3093 1.8964e+02     2.6710      0.141      0.205    21.6183 0.0000e+00
      0.170      0.093     8.9307    102.107     34.113  31.713197     3.1619      6.252   252.1394 1.7339e+02     2.7391      0.165      0.239    21.6316 0.0000e+00
      0.197      0.082     8.9638    102.052     34.006  31.578357     3.1495      6.234   250.4816 1.5837e+02     2.7364      0.193      0.280    21.6192 0.0000e+00
      0.224      0.071     8.9832    101.813     34.031  31.569449     3.1430      6.216   248.8376 1.4852e+02     2.6729      0.222      0.322    21.5886 0.0000e+00
      0.243      0.055     9.0075    101.158     34.099  31.605441     3.1580      6.198   247.4051 1.4375e+02     2.6885      0.242      0.352    21.5361 0.0000e+00
      0.253      0.029     9.0189     99.618     34.148  31.632876     3.1888      6.180   245.4655 1.4168e+02     2.7886      0.248      0.359    21.4750 0.0000e+00
      0.258     -0.007     9.0269     96.924     34.104  31.583960     3.2071      6.162   243.0240 1.4124e+02     2.8236      0.253      0.367    21.4267 0.0000e+00
      0.261     -0.053     9.0188     93.519     33.974  31.458044     3.2044      6.142   242.0627 1.4573e+02     2.7362      0.260      0.377    21.3765 0.0000e+00
      0.251     -0.102     8.9849     90.113     33.894  31.379159     3.2064      6.123   242.7906 1.6005e+02     2.6550      0.254      0.367    21.3320 0.0000e+00
      0.221     -0.147     8.8727     87.407     33.910  31.391402     3.2389      6.106   242.8763 1.9243e+02     2.6608      0.226      0.328    21.3084 0.0000e+00
      0.166     -0.177     8.6093     85.844     33.932  31.415764     3.2738      6.089   242.1523 2.4457e+02     2.7040      0.169      0.245    21.2972 0.0000e+00
      0.095     -0.183     8.2907     85.503     33.993  31.483410     3.2783      6.071   242.0389 2.9589e+02     2.7328      0.093      0.135    21.2911 0.0000e+00
      0.025     -0.162     7.9643     86.257     34.142  31.638397     3.2354      6.053   242.3656 3.3371e+02     2.7358      0.021      0.031    21.2848 0.0000e+00
     -0.031     -0.118     7.7091     87.610     34.262  31.767244     3.1632      6.039   242.6605 3.5888e+02     2.7057     -0.042     -0.060    21.2784 0.0000e+00
     -0.056     -0.061     7.5744     88.902     34.252  31.772574     3.1290      6.029   242.9372 3.6743e+02     2.6759     -0.068     -0.098    21.2826 0.0000e+00
     -0.049     -0.004     7.5380     89.680     34.163  31.702866     3.1389      6.024   242.7002 3.5995e+02     2.6836     -0.053     -0.076    21.2992 0.0000e+00
     -0.024      0.041     7.6207     89.775     34.066  31.622231     3.1490      6.021   242.0325 3.3293e+02     2.6629     -0.024     -0.035    21.3275 0.0000e+00
      0.005      0.068     7.7590     89.208     33.990  31.558878     3.1425      6.018   241.7468 3.0056e+02     2.5969      0.007      0.009    21.3570 0.0000e+00
      0.030      0.078     7.8846     88.098     33.929  31.507813     3.1272      6.015   242.0844 2.8485e+02     2.6020      0.033      0.047    21.3771 0.0000e+00
      0.050      0.075     7.9546     86.636     33.863  31.448863     3.1305      6.011   242.8448 2.7903e+02     2.6905      0.051      0.073    21.3949 0.0000e+00
      0.065      0.068     7.9592     85.030     33.829  31.417045     3.1569      6.006   243.6276 2.7321e+02     2.7443      0.063      0.093    21.4097 0.0000e+00
      0.078      0.061     7.9047     83.518     33.856  31.440285     3.1891      6.001   244.0633 2.6524e+02     2.7066      0.076      0.111    21.4197 0.0000e+00
      0.092      0.053     7.7978     82.378     33.900  31.476104     3.2205      5.998   244.0695 2.5298e+02     2.6778      0.089      0.128    21.4282 0.0000e+00
      0.108      0.046     7.6623     81.808     33.899  31.469512     3.2361      5.996   243.6167 2.4120e+02     2.7042      0.107      0.155    21.4322 0.0000e+00
      0.123      0.038     7.5137     81.778     33.858  31.424005     3.2449      5.995   243.1480 2.3532e+02     2.6836      0.123      0.179    21.4320 0.0000e+00
      0.132      0.029     7.3707     82.081     33.807  31.369922     3.2514      5.994   243.4792 2.3296e+02     2.6340      0.130      0.190    21.4284 0.0000e+00
      0.135      0.020     7.2633     82.488     33.762  31.323079     3.2485      5.994   244.4376 2.3147e+02     2.6173      0.133      0.193    21.4214 0.0000e+00
      0.137      0.012     7.2154     82.793     33.744  31.301674     3.2510      5.994   245.2713 2.3120e+02     2.6530      0.134      0.195    21.4120 0.0000e+00
      0.137      0.006     7.2234     82.856     33.749  31.301420     3.2653      5.994   245.5573 2.3183e+02     2.7231      0.134      0.195    21.4012 0.0000e+00
      0.137      0.003     7.2574     82.618     33.774  31.320003     3.2803      5.995   245.1431 2.3187e+02     2.7472      0.134      0.195    21.3910 0.0000e+00
      0.138      0.001     7.3019     82.155     33.796  31.336040     3.2823      5.996   244.4790 2.3093e+02     2.7052      0.135      0.196    21.3825 0.0000e+00
      0.138     -0.001     7.3344     81.739     33.767  31.305013     3.2724      5.997   244.2389 2.3065e+02     2.6593      0.136      0.197    21.3749 0.0000e+00
      0.138     -0.002     7.3419     81.628     33.724  31.262030     3.2608      5.997   244.6497 2.3178e+02     2.6707      0.136      0.198    21.3684 0.0000e+00
      0.137     -0.002     7.3223     81.890     33.724  31.260383     3.2508      5.998   245.4024 2.3364e+02     2.7072      0.135      0.196    21.3621 0.0000e+00
      0.136     -0.003     7.2704     82.455     33.751  31.285094     3.2261      5.999   246.1118 2.3559e+02     2.6903      0.133      0.194    21.3556 0.0000e+00
      0.134     -0.003     7.2250     83.199     33.774  31.307061     3.2036      6.000   246.4295 2.3644e+02     2.6370      0.132      0.191    21.3497 0.0000e+00
      0.134     -0.004     7.2151     83.981     33.804  31.335682     3.2035      6.001   246.3194 2.3584e+02     2.6094      0.131      0.190    21.3452 0.0000e+00
      0.134     -0.006     7.2411     84.695     33.847  31.377413     3.2329      6.002   245.6400 2.3540e+02     2.6298      0.132      0.192    21.3421 0.0000e+00
      0.134     -0.011     7.2957     85.260     33.833  31.367582     3.2926      6.002   244.4963 2.3621e+02     2.6791      0.132      0.192    21.3412 0.0000e+00
      0.132     -0.018     7.3658     85.561     33.734  31.280255     3.3187      6.002   244.0201 2.3847e+02     2.6583      0.131      0.189    21.3417 0.0000e+00
      0.128     -0.024     7.4389     85.583     33.654  31.209646     3.2983      6.002   244.4428 2.4339e+02     2.5836      0.126      0.183    21.3439 0.0000e+00
      0.121     -0.026     7.5017     85.443     33.654  31.211657     3.2866      6.002   245.1329 2.5412e+02     2.5964      0.122      0.177    21.3468 0.0000e+00
      0.107     -0.026     7.5568     85.137     33.685  31.241141     3.3025      6.001   245.7386 2.6680e+02     2.6755      0.106      0.153    21.3512 0.0000e+00
      0.094     -0.022     7.5845     84.563     33.693  31.248961     3.3243      6.001   246.1736 2.7163e+02     2.7210      0.087      0.127    21.3588 0.0000e+00
      0.089     -0.016     7.5775     83.727     33.686  31.242766     3.3258      6.000   246.6063 2.6957e+02     2.7020      0.085      0.124    21.3639 0.0000e+00
      0.091     -0.008     7.5660     82.750     33.672  31.229673     3.3111      6.000   247.0998 2.6726e+02     2.6507      0.088      0.128    21.3667 0.0000e+00
      0.093     -0.000     7.5443     81.818     33.659  31.217525     3.2974      6.001   247.4940 2.6604e+02     2.6477      0.091      0.133    21.3681 0.0000e+00
      0.095      0.004     7.4926     81.093     33.664  31.222754     3.2844      6.004   247.6729 2.6510e+02     2.6991      0.093      0.135    21.3680 0.0000e+00
      0.096      0.004     7.4144     80.623     33.671  31.229465     3.2711      6.006   247.7998 2.6455e+02     2.7254      0.095      0.137    21.3687 0.0000e+00
      0.097      0.003     7.3222     80.350     33.676  31.235232     3.2609      6.007   247.9957 2.6465e+02     2.6931      0.096      0.139    21.3682 0.0000e+00
      0.097      0.001     7.2328     80.183     33.668  31.229046     3.2448      6.010   248.0623 2.6549e+02     2.6500      0.095      0.138    21.3678 0.0000e+00
      0.097      0.000     7.1691     80.183     33.655  31.218108     3.2253      6.013   248.0893 2.6703e+02     2.6830      0.096      0.139    21.3683 0.0000e+00
      0.097     -0.001     7.1271     80.278     33.667  31.229851     3.2175      6.016   248.4085 2.6778e+02     2.7497      0.095      0.138    21.3691 0.0000e+00
      0.096     -0.001     7.1102     80.133     33.682  31.244166     3.2088      6.017   248.6515 2.6783e+02     2.7384      0.094      0.136    21.3706 0.0000e+00
      0.096     -0.001     7.0902     79.750     33.702  31.264311     3.2025      6.018   248.4468 2.6777e+02     2.6153      0.093      0.135    21.3729 0.0000e+00
      0.096     -0.001     7.0855     79.343     33.719  31.283130     3.2170      6.020   248.2574 2.6673e+02     2.4567      0.093      0.135    21.3750 0.0000e+00
      0.096     -0.001     7.1184     78.977     33.715  31.281396     3.2425      6.023   248.5122 2.6608e+02     2.4266      0.095      0.137    21.3747 0.0000e+00
      0.095     -0.001     7.0991     78.645     33.740  31.306785     3.2689      6.024   248.9455 2.6713e+02     2.4906      0.094      0.137    21.3743 0.0000e+00
      0.094     -0.001     7.0542     78.302     33.769  31.336367     3.2783      6.027   249.2814 2.6851e+02     2.4793      0.092      0.134    21.3778 0.0000e+00
      0.094     -0.002     7.0198     77.958     33.750  31.321900     3.2983      6.029   249.6479 2.6947e+02     2.4951      0.092      0.134    21.3829 0.0000e+00
      0.094     -0.002     6.9843     77.664     33.748  31.322172     3.3448      6.031   250.1079 2.7074e+02     2.6466      0.093      0.134    21.3863 0.0000e+00
      0.093     -0.002     6.9586     77.390     33.765  31.339652     3.3736      6.033   250.4541 2.7240e+02     2.7398      0.091      0.132    21.3890 0.0000e+00
      0.093     -0.001     6.9271     77.071     33.765  31.342957     3.3805      6.034   250.5650 2.7404e+02     2.7002      0.091      0.132    21.3933 0.0000e+00
      0.093     -0.001     6.8924     76.685     33.782  31.362136     3.3701      6.036   250.5884 2.7497e+02     2.5773      0.091      0.132    21.3977 0.0000e+00
      0.093     -0.001     6.8681     76.222     33.798  31.381242     3.3642      6.037   250.7366 2.7501e+02     2.4500      0.091      0.132    21.4006 0.0000e+00
      0.092     -0.001     6.8465     75.699     33.796  31.383659     3.3752      6.039   251.0662 2.7520e+02     2.4585      0.090      0.131    21.4034 0.0000e+00
      0.092     -0.001     6.8172     75.132     33.800  31.391366     3.3787      6.042   251.4763 2.7564e+02     2.5099      0.091      0.132    21.4078 0.0000e+00
      0.092     -0.001     6.7835     74.503     33.817  31.410988     3.3656      6.044   251.8236 2.7594e+02     2.5245      0.090      0.131    21.4132 0.0000e+00
      0.092     -0.001     6.7408     73.843     33.834  31.430605     3.3406      6.045   251.9958 2.7624e+02     2.5675      0.090      0.131    21.4194 0.0000e+00
      0.091     -0.002     6.6923     73.208     33.838  31.438253     3.3269      6.047   252.0957 2.7671e+02     2.6192      0.089      0.130    21.4255 0.0000e+00
      0.091     -0.002     6.6436     72.607     33.835  31.440030     3.3327      6.048   252.2564 2.7754e+02     2.6711      0.089      0.130    21.4314 0.0000e+00
      0.090     -0.002     6.5858     72.013     33.844  31.452103     3.3446      6.051   252.3914 2.7834e+02     2.6822      0.089      0.129    21.4377 0.0000e+00
      0.089     -0.003     6.5239     71.401     33.846  31.457360     3.3544      6.053   252.5227 2.7870e+02     2.6514      0.087      0.127    21.4434 0.0000e+00
      0.088     -0.003     6.4677     70.778     33.824  31.440164     3.3589      6.054   252.7248 2.7891e+02     2.6403      0.087      0.126    21.4492 0.0000e+00
      0.088     -0.003     6.4144     70.177     33.814  31.434502     3.3662      6.055   252.9420 2.7935e+02     2.6500      0.086      0.126    21.4550 0.0000e+00
      0.087     -0.003     6.3629     69.624     33.830  31.452342     3.3680      6.058   253.0846 2.7991e+02     2.6327      0.085      0.124    21.4603 0.0000e+00
      0.087     -0.002     6.3075     69.131     33.840  31.465549     3.3475      6.061   253.0721 2.8036e+02     2.5340      0.085      0.124    21.4658 0.0000e+00
      0.086     -0.002     6.2505     68.650     33.839  31.467326     3.3178      6.063   252.9631 2.8091e+02     2.4467      0.084      0.123    21.4713 0.0000e+00
      0.086     -0.002     6.1965     68.145     33.842  31.473830     3.3000      6.066   252.7992 2.8151e+02     2.4312      0.084      0.122    21.4768 0.0000e+00
      0.085     -0.002     6.1452     67.651     33.846  31.480760     3.2652      6.068   252.6393 2.8210e+02     2.4492      0.083      0.121    21.4820 0.0000e+00
      0.085     -0.001     6.1037     67.205     33.850  31.487680     3.1970      6.069   252.6640 2.8266e+02     2.4932      0.083      0.120    21.4869 0.0000e+00
      0.084     -0.000     6.0628     66.793     33.854  31.494071     3.1492      6.071   252.8401 2.8275e+02     2.4858      0.082      0.119    21.4915 0.0000e+00
      0.084      0.000     6.0152     66.387     33.852  31.494600     3.1362      6.073   252.9609 2.8225e+02     2.4283      0.083      0.120    21.4960 0.0000e+00
      0.084      0.000     5.9698     65.977     33.849  31.494090     3.1487      6.075   253.0922 2.8187e+02     2.4462      0.083      0.120    21.5005 0.0000e+00
      0.085      0.001     5.9306     65.568     33.839  31.487899     3.2091      6.077   253.3097 2.8177e+02     2.5661      0.084      0.121    21.5049 0.0000e+00
      0.085      0.001     5.8952     65.167     33.832  31.483182     3.2919      6.079   253.3541 2.8142e+02     2.6818      0.084      0.121    21.5091 0.0000e+00
      0.085      0.001     5.8590     64.797     33.847  31.500502     3.3257      6.080   253.1983 2.8106e+02     2.6841      0.083      0.121    21.5132 0.0000e+00
      0.086      0.000     5.8217     64.448     33.850  31.507006     3.3177      6.081   253.1468 2.8112e+02     2.6276      0.084      0.122    21.5172 0.0000e+00
      0.086 1.8922e-08     5.7860     64.098     33.838  31.498392     3.3037      6.083   253.1621 2.8150e+02     2.6137      0.084      0.122    21.5209 0.0000e+00
      0.086 2.0814e-07     5.7483     63.738     33.861  31.523227     3.2819      6.085   253.0383 2.8211e+02     2.6191      0.084      0.121    21.5247 0.0000e+00
      0.086 2.4201e-07     5.7158     63.387     33.891  31.553544     3.2696      6.087   252.8553 2.8256e+02     2.6586      0.084      0.122    21.5289 0.0000e+00
      0.086 4.2842e-07     5.6857     63.077     33.882  31.547779     3.2626      6.088   252.6703 2.8268e+02     2.7148      0.084      0.122    21.5332 0.0000e+00
      0.085      0.000     5.6543     62.799     33.846  31.516960     3.2395      6.089   252.5216 2.8285e+02     2.6499      0.083      0.121    21.5375 0.0000e+00
      0.085      0.000     5.6223     62.528     33.822  31.498091     3.2150      6.090   252.5197 2.8278e+02     2.5224      0.083      0.121    21.5418 0.0000e+00
      0.085      0.001     5.5880     62.237     33.832  31.509946     3.2084      6.092   252.6477 2.8233e+02     2.4378      0.084      0.121    21.5460 0.0000e+00
      0.086      0.001     5.5621     61.945     33.855  31.533437     3.2001      6.094   252.7784 2.8210e+02     2.3787      0.084      0.122    21.5503 0.0000e+00
      0.086      0.001     5.5369     61.694     33.847  31.528379     3.1573      6.096   252.8958 2.8206e+02     2.3539      0.084      0.122    21.5546 0.0000e+00
      0.086      0.001     5.5146     61.465     33.827  31.512230     3.0991      6.098   253.1211 2.8179e+02     2.3772      0.085      0.123    21.5586 0.0000e+00
      0.087      0.001     5.4877     61.235     33.841  31.528491     3.0789      6.100   253.4366 2.8138e+02     2.4548      0.085      0.123    21.5624 0.0000e+00
      0.087      0.001     5.4586     61.020     33.846  31.534683     3.0879      6.101   253.6994 2.8095e+02     2.4728      0.085      0.123    21.5661 0.0000e+00
      0.087      0.002     5.4382     60.808     33.832  31.523659     3.0825      6.103   253.8043 2.8053e+02     2.3902      0.085      0.123    21.5698 0.0000e+00
      0.088      0.002     5.4187     60.589     33.828  31.522081     3.0890      6.103   253.7585 2.8023e+02     2.3777      0.086      0.125    21.5735 0.0000e+00
      0.088      0.002     5.3963     60.374     33.818  31.515605     3.1334      6.103   253.5751 2.7991e+02     2.4597      0.086      0.125    21.5775 0.0000e+00
      0.089      0.001     5.3778     60.157     33.808  31.508790     3.1609      6.103   253.1359 2.7948e+02     2.4931      0.087      0.126    21.5809 0.0000e+00
      0.089      0.001     5.3599     59.969     33.800  31.503128     3.1557      6.104   252.7504 2.7877e+02     2.4387      0.087      0.127    21.5838 0.0000e+00
      0.089      0.001     5.3384     59.827     33.806  31.510587     3.1619      6.105   252.8709 2.7818e+02     2.4179      0.088      0.127    21.5869 0.0000e+00
      0.088      0.002     5.3212     59.693     33.831  31.535546     3.1855      6.104   253.0443 2.7879e+02     2.5154      0.087      0.127    21.5901 0.0000e+00
      0.088      0.003     5.2993     59.550     33.848  31.551164     3.2083      6.103   252.6962 2.7888e+02     2.6267      0.085      0.124    21.5936 0.0000e+00
      0.089      0.003     5.2815     59.445     33.873  31.572550     3.2208      6.102   252.0179 2.7644e+02     2.6703      0.086      0.125    21.5975 0.0000e+00
      0.092      0.004     5.2709     59.444     33.909  31.603805     3.2283      6.101   251.5540 2.7375e+02     2.5983      0.089      0.131    21.6011 0.0000e+00
      0.094      0.005     5.2595     59.560     33.918  31.611888     3.2409      6.099   251.5614 2.7285e+02     2.4392      0.092      0.134    21.6021 0.0000e+00
      0.094      0.006     5.2457     59.768     33.910  31.606837     3.2568      6.097   251.8490 2.7275e+02     2.3867      0.093      0.135    21.6028 0.0000e+00
      0.094      0.006     5.2330     60.008     33.904  31.606175     3.2786      6.095   252.1061 2.7185e+02     2.4415      0.092      0.134    21.6010 0.0000e+00
      0.095      0.004     5.2342     60.241     33.896  31.603886     3.2886      6.092   252.0024 2.6927e+02     2.4869      0.093      0.135    21.5947 0.0000e+00
      0.098     -0.003     5.2449     60.512     33.860  31.579161     3.2692      6.090   251.1981 2.6542e+02     2.5590      0.096      0.139    21.5927 0.0000e+00
      0.101     -0.025     5.2647     60.960     33.808  31.560996     3.2526      6.088   250.0388 2.6133e+02     2.6304      0.100      0.144    21.5990 0.0000e+00
      0.102     -0.065     5.2879     61.976     33.764  31.574607     3.2541      6.088   249.5145 2.5885e+02     2.6332      0.102      0.147    21.6062 0.0000e+00
      0.098     -0.115     5.3042     64.072     33.686  31.553497     3.2456      6.090   249.7628 2.6811e+02     2.6274      0.101      0.147    21.6133 0.0000e+00
      0.073     -0.163     5.3270     67.344     33.590  31.496151     3.2173      6.093   250.1160 3.0325e+02     2.6284      0.086      0.125    21.6141 0.0000e+00
      0.012     -0.196     5.3504     71.296     33.527  31.452207     3.1953      6.093   250.2579 3.7231e+02     2.6110      0.025      0.037    21.6519 0.0000e+00
     -0.076     -0.206     5.4064     75.237     33.482  31.402808     3.1953      6.090   250.1873 4.4691e+02     2.6221     -0.076     -0.111    21.7560 0.0000e+00
     -0.161     -0.193     5.5780     78.881     33.454  31.342910     3.1924      6.087   250.0375 4.7569e+02     2.6597     -0.169     -0.245    21.8416 0.0000e+00
     -0.217     -0.157     5.8776     82.249     33.461  31.298858     3.1767      6.087   249.9085 4.7326e+02     2.6559     -0.225     -0.327    21.8846 0.0000e+00
     -0.241     -0.106     6.2487     85.098     33.464  31.250728     3.1633      6.090   249.5743 4.7920e+02     2.6107     -0.243     -0.353    21.9111 0.0000e+00
     -0.245     -0.051     6.6026     87.008     33.459  31.204946     3.1469      6.093   249.2660 4.8467e+02     2.5912     -0.241     -0.349    21.9060 0.0000e+00
     -0.241     -0.006     6.9193     87.800     33.477  31.189304     3.1374      6.096   249.3644 4.8357e+02     2.6254     -0.237     -0.343    21.8505 0.0000e+00
     -0.235      0.022     7.2384     87.698     33.502  31.188434     3.1562      6.096   249.6454 4.8416e+02     2.6483     -0.231     -0.336    21.7616 0.0000e+00
     -0.226      0.038     7.5164     87.153     33.527  31.194379     3.1905      6.094   249.9966 4.8427e+02     2.6288     -0.223     -0.323    21.6817 0.0000e+00
     -0.214      0.048     7.6998     86.530     33.548  31.197735     3.2025      6.092   250.3416 4.8043e+02     2.5940     -0.210     -0.304    21.6215 0.0000e+00
     -0.199      0.058     7.7688     85.992     33.529  31.165557     3.1933      6.089   250.5463 4.7667e+02     2.6040     -0.195     -0.282    21.5731 0.0000e+00
     -0.184      0.068     7.7479     85.536     33.496  31.122470     3.1959      6.087   250.6657 4.7747e+02     2.6807     -0.181     -0.263    21.5372 0.0000e+00
     -0.167      0.078     7.6919     85.093     33.505  31.120799     3.2014      6.086   250.6663 4.7647e+02     2.7014     -0.166     -0.241    21.5151 0.0000e+00
     -0.146      0.087     7.6353     84.606     33.540  31.145332     3.1934      6.087   250.4675 4.6822e+02     2.6495     -0.145     -0.210    21.4929 0.0000e+00
     -0.121      0.095     7.5924     84.038     33.565  31.165346     3.1894      6.089   250.3265 4.4475e+02     2.6348     -0.121     -0.174    21.4692 0.0000e+00
     -0.094      0.100     7.5575     83.333     33.572  31.172473     3.2037      6.092   250.3384 4.0291e+02     2.6596     -0.092     -0.134    21.4498 0.0000e+00
     -0.064      0.102     7.5229     82.483     33.566  31.168068     3.2159      6.095   250.2682 3.6156e+02     2.6763     -0.063     -0.091    21.4349 0.0000e+00
     -0.037      0.100     7.4814     81.578     33.574  31.175525     3.2126      6.098   250.2520 3.3642e+02     2.6657     -0.035     -0.049    21.4224 0.0000e+00
     -0.012      0.095     7.4349     80.703     33.601  31.199208     3.2139      6.103   250.3141 3.2500e+02     2.6340     -0.010     -0.014    21.4175 0.0000e+00
      0.011      0.089     7.3733     79.900     33.605  31.200664     3.2898      6.107   250.3309 3.1293e+02     2.6349      0.012      0.017    21.4215 0.0000e+00
      0.033      0.083     7.2928     79.183     33.598  31.193130     3.4311      6.111   250.4554 2.9868e+02     2.6769      0.032      0.047    21.4242 0.0000e+00
      0.054      0.081     7.2109     78.597     33.578  31.171550     3.5071      6.114   250.6147 2.8993e+02     2.6975      0.054      0.078    21.4231 0.0000e+00
      0.071      0.081     7.1322     78.215     33.536  31.130041     3.5086      6.115   250.7935 2.8072e+02     2.6780      0.071      0.103    21.4204 0.0000e+00
      0.088      0.082     7.0622     78.004     33.543  31.135290     3.4912      6.116   251.0682 2.6439e+02     2.6467      0.084      0.121    21.4176 0.0000e+00
      0.109      0.082     6.9978     77.824     33.580  31.171582     3.4811      6.116   251.1835 2.4215e+02     2.6615      0.106      0.152    21.4165 0.0000e+00
      0.134      0.081     6.9421     77.547     33.593  31.188240     3.4947      6.118   250.9834 2.1849e+02     2.7203      0.133      0.193    21.4131 0.0000e+00
      0.159      0.077     6.9105     77.114     33.613  31.209833     3.5054      6.122   250.6271 1.9985e+02     2.7419      0.157      0.227    21.4074 0.0000e+00
      0.180      0.071     6.8978     76.511     33.650  31.242355     3.5026      6.127   250.4028 1.8893e+02     2.6839      0.177      0.258    21.4050 0.0000e+00
      0.197      0.061     6.8861     75.772     33.677  31.264282     3.4942      6.131   250.5090 1.8206e+02     2.5315      0.195      0.283    21.4057 0.0000e+00
      0.210      0.050     6.8613     74.964     33.696  31.284637     3.4949      6.135   250.8790 1.7614e+02     2.4019      0.207      0.300    21.4156 0.0000e+00
      0.220      0.040     6.8229     74.139     33.694  31.298176     3.5027      6.138   251.1761 1.7116e+02     2.4154      0.217      0.313    21.4248 0.0000e+00
      0.227      0.031     6.7688     73.345     33.674  31.301121     3.4887      6.140   251.1757 1.6746e+02     2.4210      0.224      0.323    21.4197 0.0000e+00
      0.235      0.023     6.7024     72.658     33.672  31.320272     3.4340      6.144   251.0463 1.6484e+02     2.3340      0.231      0.335    21.4082 0.0000e+00
      0.241      0.016     6.6293     72.101     33.672  31.339451     3.3741      6.148   250.9889 1.6306e+02     2.2854      0.237      0.345    21.4093 0.0000e+00
      0.244      0.011     6.5521     71.626     33.656  31.342738     3.3635      6.151   251.0836 1.6231e+02     2.3449      0.240      0.348    21.4365 0.0000e+00
      0.244      0.007     6.4740     71.217     33.658  31.360037     3.3800      6.154   251.3311 1.6285e+02     2.4389      0.240      0.348    21.4742 0.0000e+00
      0.243      0.004     6.4078     70.855     33.643  31.358326     3.3909      6.157   251.5711 1.6394e+02     2.4990      0.238      0.346    21.5039 0.0000e+00
      0.243      0.005     6.3595     70.512     33.596  31.322062     3.4039      6.160   251.8355 1.6429e+02     2.5937      0.238      0.345    21.5312 0.0000e+00
      0.244      0.010     6.3127     70.204     33.572  31.302202     3.4208      6.162   252.2054 1.6371e+02     2.6954      0.239      0.347    21.5602 0.0000e+00
      0.245      0.016     6.2748     69.946     33.582  31.308507     3.4370      6.163   252.5160 1.6270e+02     2.7048      0.240      0.348    21.5833 0.0000e+00
      0.249      0.023     6.2427     69.760     33.612  31.334865     3.4575      6.165   252.8372 1.6080e+02     2.6733      0.242      0.351    21.6009 0.0000e+00
      0.256      0.029     6.2087     69.636     33.646  31.367144     3.4771      6.167   253.4211 1.5766e+02     2.6214      0.249      0.362    21.6139 0.0000e+00
      0.268      0.033     6.1823     69.514     33.659  31.381615     3.4833      6.167   254.0701 1.5445e+02     2.5903      0.263      0.381    21.6163 0.0000e+00
      0.280      0.035     6.1587     69.362     33.658  31.382966     3.4912      6.166   254.4033 1.5288e+02     2.6393      0.276      0.400    21.6101 0.0000e+00
      0.290      0.034     6.1425     69.182     33.658  31.383485     3.4976      6.166   254.5242 1.5363e+02     2.6658      0.285      0.413    21.6052 0.0000e+00
      0.298      0.029     6.1347     68.970     33.663  31.387888     3.5196      6.167   254.8432 1.5603e+02     2.6382      0.292      0.424    21.6075 0.0000e+00
      0.305      0.024     6.1239     68.700     33.646  31.372766     3.5735      6.168   255.3354 1.5903e+02     2.6122      0.300      0.435    21.6128 0.0000e+00
      0.311      0.019     6.1099     68.366     33.596  31.327511     3.5999      6.170   255.8291 1.6214e+02     2.6251      0.306      0.443    21.6156 0.0000e+00
      0.314      0.017     6.0940     68.013     33.550  31.284773     3.5974      6.171   256.3387 1.6544e+02     2.6922      0.309      0.449    21.6157 0.0000e+00
      0.315      0.020     6.0760     67.662     33.501  31.236637     3.6017      6.173   256.7644 1.6821e+02     2.7067      0.309      0.448    21.6157 0.0000e+00
      0.317      0.028     6.0537     67.348     33.392  31.126112     3.6024      6.174   257.2766 1.6878e+02     2.6290      0.309      0.449    21.6171 0.0000e+00
      0.323      0.038     6.0208     67.338     33.250  30.963367     3.5968      6.173   257.9717 1.6661e+02     2.5726      0.315      0.456    21.6183 0.0000e+00
      0.333      0.050     5.9897     68.468     33.212  30.854732     3.5923      6.172   258.5438 1.6182e+02     2.6051      0.324      0.470    21.6196 0.0000e+00
      0.350      0.059     5.9595     71.939     33.292  30.827459     3.5895      6.169   258.8601 1.5525e+02     2.6804      0.341      0.495    21.6171 0.0000e+00
      0.371      0.063     5.9267     77.887     33.376  30.823761     3.5719      6.168   258.8701 1.4849e+02     2.6971      0.363      0.527    21.6093 0.0000e+00
      0.393      0.061     5.9073     84.932     33.409  30.809911     3.5458      6.170   258.7509 1.4200e+02     2.6713      0.387      0.561    21.5863 0.0000e+00
      0.413      0.053     5.9660     91.641     33.407  30.786806     3.5483      6.172   258.8816 1.3721e+02     2.6760      0.408      0.593    21.4673 0.0000e+00
      0.426      0.043     6.2848     97.332     33.432  30.798120     3.5688      6.174   259.0736 1.3484e+02     2.6855      0.420      0.610    21.2745 0.0000e+00
      0.431      0.032     6.8920    101.618     33.463  30.819815     3.5696      6.175   259.1799 1.3326e+02     2.6835      0.423      0.613    21.1487 0.0000e+00
      0.433      0.027     7.5758    104.243     33.436  30.795376     3.5576      6.175   259.4777 1.3155e+02     2.6511      0.424      0.615    21.0957 0.0000e+00
      0.436      0.031     8.1888    105.242     33.390  30.756371     3.5484      6.174   259.9212 1.3001e+02     2.6021      0.428      0.621    21.0701 0.0000e+00
      0.440      0.046     8.7101    104.904     33.362  30.728814     3.5583      6.174   260.2402 1.2953e+02     2.6373      0.433      0.628    21.0546 0.0000e+00
      0.445      0.065     9.1058    103.782     33.361  30.715921     3.5934      6.174   260.5815 1.2867e+02     2.7006      0.432      0.627    21.0397 0.0000e+00
      0.462      0.083     9.3351    102.464     33.390  30.727332     3.6155      6.174   261.1222 1.2371e+02     2.6847      0.444      0.645    21.0411 0.0000e+00
      0.496      0.098     9.4149    101.269     33.416  30.739896     3.6094      6.175   261.5297 1.1661e+02     2.6499      0.485      0.704    21.0562 0.0000e+00
      0.535      0.105     9.3653    100.225     33.426  30.740936     3.6029      6.176   261.7232 1.1178e+02     2.6550      0.528      0.766    21.0554 0.0000e+00
      0.567      0.105     9.2484     99.254     33.430  30.739896     3.6364      6.178   261.9990 1.0863e+02     2.6789      0.557      0.810    21.0307 0.0000e+00
      0.594      0.095     9.1267     98.380     33.419  30.727323     3.6986      6.182   262.2833 1.0606e+02     2.6999      0.583      0.846    21.0051 0.0000e+00
      0.616      0.079     9.0229     97.675     33.407  30.715783     3.7226      6.184   262.3209 1.0397e+02     2.7037      0.606      0.879    20.9873 0.0000e+00
      0.633      0.062     8.9375     97.133     33.420  30.727221     3.7094      6.186   262.1097 1.0242e+02     2.6561      0.622      0.903    20.9769 0.0000e+00
      0.645      0.049     8.8495     96.728     33.433  30.738753     3.7223      6.189   261.7951 1.0115e+02     2.5685      0.632      0.917    20.9707 0.0000e+00
      0.654      0.041     8.7688     96.482     33.422  30.728355     3.7704      6.192   261.6146 9.9987e+01     2.4991      0.641      0.930    20.9668 0.0000e+00
      0.660      0.039     8.7071     96.403     33.422  30.728365     3.7994      6.193   261.7335 9.9267e+01     2.4659      0.648      0.941    20.9660 0.0000e+00
      0.665      0.040     8.6605     96.415     33.432  30.738867     3.7899      6.193   261.9422 9.8470e+01     2.4397      0.650      0.943    20.9659 0.0000e+00
      0.672      0.043     8.6231     96.436     33.417  30.728478     3.7390      6.193   261.9864 9.6990e+01     2.4903      0.656      0.952    20.9656 0.0000e+00
      0.687      0.045     8.5996     96.441     33.413  30.729622     3.6580      6.194   261.9247 9.5164e+01     2.6338      0.672      0.976    20.9643 0.0000e+00
      0.705      0.045     8.5966     96.422     33.434  30.752707     3.6180      6.196   261.8845 9.3682e+01     2.7059      0.693      1.004    20.9642 0.0000e+00
      0.720      0.044     8.6001     96.402     33.433  30.753860     3.6304      6.199   261.9300 9.2785e+01     2.6784      0.708      1.026    20.9672 0.0000e+00
      0.730      0.043     8.6008     96.389     33.421  30.743565     3.6494      6.203   262.0452 9.2300e+01     2.5749      0.717      1.039    20.9730 0.0000e+00
      0.737      0.041     8.6011     96.370     33.436  30.755108     3.6654      6.205   262.1592 9.1970e+01     2.4442      0.723      1.049    20.9802 0.0000e+00
      0.743      0.041     8.5970     96.342     33.453  30.766557     3.6822      6.206   262.3610 9.1380e+01     2.4302      0.728      1.055    20.9851 0.0000e+00
      0.751      0.043     8.5944     96.310     33.443  30.755120     3.6865      6.205   262.5924 9.0309e+01     2.4404      0.735      1.066    20.9896 0.0000e+00
      0.764      0.047     8.5937     96.261     33.430  30.743690     3.6750      6.204   262.5483 8.8864e+01     2.4657      0.747      1.084    20.9920 0.0000e+00
      0.780      0.049     8.5926     96.188     33.440  30.755223     3.6689      6.204   262.3441 8.7289e+01     2.5988      0.764      1.110    20.9867 0.0000e+00
      0.796      0.050     8.5912     96.126     33.454  30.767702     3.6708      6.205   262.2746 8.6118e+01     2.6829      0.782      1.134    20.9790 0.0000e+00
      0.809      0.050     8.5889     96.086     33.454  30.767701     3.6731      6.207   262.3961 8.5229e+01     2.6984      0.793      1.150    20.9758 0.0000e+00
      0.820      0.050     8.5861     96.064     33.440  30.755214     3.6715      6.210   262.6080 8.4377e+01     2.6830      0.805      1.168    20.9770 0.0000e+00
      0.830      0.050     8.5764     96.090     33.429  30.743587     3.6763      6.211   262.7723 8.3810e+01     2.6333      0.816      1.183    20.9802 0.0000e+00
      0.840      0.050     8.5704     96.153     33.442  30.753977     3.6975      6.213   262.9199 8.3196e+01     2.6095      0.822      1.191    20.9813 0.0000e+00
      0.853      0.051     8.5690     96.196     33.446  30.753968     3.7201      6.216   263.0154 8.2288e+01     2.6347      0.836      1.212    20.9799 0.0000e+00
      0.870      0.053     8.5637     96.180     33.439  30.743474     3.7329      6.217   262.9804 8.1557e+01     2.6988      0.855      1.240    20.9803 0.0000e+00
      0.885      0.054     8.5670     96.104     33.458  30.753968     3.7439      6.219   263.0133 8.1113e+01     2.7014      0.869      1.260    20.9801 0.0000e+00
      0.898      0.054     8.5759     96.002     33.466  30.753969     3.7610      6.221   263.2413 8.0499e+01     2.6320      0.880      1.276    20.9758 0.0000e+00
      0.911      0.053     8.5814     95.890     33.462  30.743476     3.7821      6.222   263.4138 7.9699e+01     2.6455      0.893      1.296    20.9716 0.0000e+00
      0.924      0.052     8.5815     95.779     33.478  30.753950     3.7996      6.224   263.4645 7.8829e+01     2.7279      0.906      1.314    20.9660 0.0000e+00
      0.937      0.054     8.5743     95.654     33.482  30.753730     3.7891      6.225   263.5960 7.7933e+01     2.7405      0.919      1.334    20.9547 0.0000e+00
      0.950      0.056     8.5675     95.504     33.473  30.740815     3.7476      6.226   263.7135 7.7144e+01     2.6953      0.932      1.353    20.9428 0.0000e+00
      0.964      0.058     8.5585     95.352     33.462  30.724653     3.7140      6.226   263.6800 7.6143e+01     2.6586      0.943      1.368    20.9322 0.0000e+00
      0.980      0.059     8.5500     95.204     33.425  30.685178     3.7146      6.226   263.7065 7.4790e+01     2.6723      0.960      1.392    20.9255 0.0000e+00
      0.999      0.059     8.5411     95.050     33.393  30.644118     3.7548      6.227   263.8622 7.3564e+01     2.6913      0.981      1.423    20.9225 0.0000e+00
      1.015      0.058     8.5269     94.900     33.377  30.608786     3.8089      6.229   264.0137 7.2751e+01     2.6830      0.996      1.446    20.9139 0.0000e+00
      1.027      0.056     8.5151     94.734     33.366  30.575121     3.8287      6.230   264.1623 7.2019e+01     2.6743      1.006      1.460    20.9035 0.0000e+00
      1.040      0.052     8.5039     94.559     33.361  30.554218     3.8275      6.230   264.2823 7.1193e+01     2.6207      1.018      1.478    20.8994 0.0000e+00
      1.054      0.048     8.4906     94.454     33.359  30.546318     3.8516      6.231   264.4321 7.0529e+01     2.5815      1.035      1.502    20.8856 0.0000e+00
      1.067      0.045     8.4846     94.483     33.360  30.543040     3.8877      6.232   264.5971 7.0077e+01     2.6095      1.047      1.518    20.8496 0.0000e+00
      1.078      0.043     8.4779     94.601     33.340  30.514570     3.8976      6.233   264.6422 6.9645e+01     2.6180      1.056      1.532    20.8071 0.0000e+00
      1.088      0.041     8.4627     94.721     33.291  30.455814     3.8883      6.233   264.7195 6.9266e+01     2.5829      1.067      1.549    20.7793 0.0000e+00
      1.097      0.039     8.4505     94.792     33.259  30.403497     3.8746      6.234   264.8437 6.8990e+01     2.5609      1.075      1.561    20.7791 0.0000e+00
      1.105      0.039     8.4556     94.792     33.276  30.389452     3.8652      6.234   265.0255 6.8525e+01     2.5565      1.082      1.570    20.7779 0.0000e+00
      1.115      0.040     8.4730     94.747     33.323  30.412816     3.8665      6.233   265.4546 6.7768e+01     2.4954      1.092      1.584    20.7589 0.0000e+00
      1.126      0.043     8.4872     94.698     33.347  30.432233     3.8567      6.232   265.8158 6.6910e+01     2.4032      1.105      1.602    20.7417 0.0000e+00
      1.137      0.045     8.5008     94.678     33.345  30.433920     3.8389      6.229   265.8653 6.6055e+01     2.3972      1.116      1.618    20.7099 0.0000e+00
      1.148      0.045     8.5088     94.683     33.342  30.433221     3.8261      6.227   265.7950 6.5018e+01     2.4581      1.124      1.632    20.6509 0.0000e+00
      1.162      0.043     8.5095     94.703     33.335  30.423780     3.8104      6.228   265.6545 6.3769e+01     2.4897      1.139      1.652    20.6159 0.0000e+00
      1.176      0.040     8.5027     94.748     33.298  30.383197     3.7993      6.229   265.4564 6.2816e+01     2.4723      1.155      1.676    20.6228 0.0000e+00
      1.186      0.038     8.4992     94.798     33.243  30.323119     3.7994      6.231   265.3786 6.2331e+01     2.4181      1.165      1.690    20.6323 0.0000e+00
      1.192      0.036     8.5010     94.846     33.199  30.268266     3.8441      6.232   265.4888 6.1931e+01     2.4492      1.168      1.694    20.6347 0.0000e+00
      1.197      0.036     8.5009     94.879     33.187  30.227419     3.9237      6.232   265.5843 6.1497e+01     2.6093      1.173      1.701    20.6304 0.0000e+00
      1.206      0.037     8.5096     94.844     33.205  30.209784     3.9555      6.232   265.5865 6.1046e+01     2.6802      1.182      1.714    20.6189 0.0000e+00
      1.216      0.038     8.5158     94.761     33.200  30.181866     3.9454      6.233   265.6877 6.0456e+01     2.6229      1.192      1.728    20.6051 0.0000e+00
      1.229      0.040     8.5217     94.709     33.178  30.143557     3.9018      6.234   265.8616 5.9911e+01     2.5324      1.207      1.749    20.5918 0.0000e+00
      1.241      0.040     8.5368     94.700     33.183  30.127171     3.8272      6.235   265.8824 5.9579e+01     2.4739      1.219      1.767    20.5425 0.0000e+00
      1.250      0.039     8.5447     94.695     33.179  30.110576     3.7931      6.238   265.9386 5.9357e+01     2.4951      1.226      1.778    20.4712 0.0000e+00
      1.259      0.036     8.5368     94.693     33.141  30.069758     3.7889      6.241   266.1974 5.9132e+01     2.4820      1.235      1.792    20.4489 0.0000e+00
      1.268      0.035     8.5353     94.694     33.091  30.014227     3.7762      6.244   266.4303 5.8851e+01     2.4858      1.243      1.803    20.4279 0.0000e+00
      1.276      0.036     8.5453     94.677     33.042  29.946594     3.7718      6.246   266.6030 5.8546e+01     2.5757      1.251      1.814    20.3831 0.0000e+00
      1.284      0.039     8.5462     94.598     33.017  29.886304     3.7861      6.246   266.8239 5.8136e+01     2.6463      1.259      1.826    20.3663 0.0000e+00
      1.293      0.044     8.5465     94.440     33.031  29.856094     3.7997      6.246   267.1223 5.7567e+01     2.6910      1.267      1.837    20.3656 0.0000e+00
      1.304      0.050     8.5492     94.263     33.046  29.834994     3.7944      6.246   267.3709 5.6801e+01     2.6716      1.278      1.853    20.3537 0.0000e+00
      1.318      0.055     8.5546     94.112     33.056  29.821432     3.7806      6.246   267.5069 5.5894e+01     2.6169      1.292      1.873    20.3199 0.0000e+00
      1.334      0.060     8.5600     94.003     33.071  29.818943     3.7748      6.246   267.6478 5.5017e+01     2.6105      1.307      1.896    20.2590 0.0000e+00
      1.351      0.064     8.5545     93.954     33.065  29.804879     3.7813      6.247   267.6978 5.4102e+01     2.5945      1.325      1.922    20.1813 0.0000e+00
      1.370      0.068     8.5468     93.960     33.047  29.778240     3.7935      6.249   267.6817 5.3262e+01     2.5936      1.344      1.950    20.1300 0.0000e+00
      1.386      0.069     8.5373     93.985     33.042  29.750563     3.8474      6.251   267.7969 5.2510e+01     2.6340      1.360      1.972    20.1028 0.0000e+00
      1.402      0.068     8.5317     94.003     33.043  29.723937     3.9423      6.253   267.9719 5.1595e+01     2.6727      1.374      1.992    20.0710 0.0000e+00
      1.421      0.066     8.5288     94.023     33.054  29.709996     4.0078      6.255   268.0778 5.0698e+01     2.7198      1.393      2.020    20.0648 0.0000e+00
      1.441      0.063     8.5308     94.005     33.070  29.708824     4.0410      6.257   268.0452 4.9984e+01     2.7255      1.415      2.052    20.0591 0.0000e+00
      1.458      0.059     8.5434     93.940     33.078  29.709749     4.0933      6.259   268.0073 4.9438e+01     2.6385      1.430      2.076    20.0172 0.0000e+00
      1.472      0.055     8.5494     93.865     33.091  29.721166     4.1736      6.261   268.1360 4.9063e+01     2.5570      1.444      2.094    19.9688 0.0000e+00
      1.483      0.051     8.5613     93.769     33.090  29.720002     4.2219      6.263   268.3103 4.8723e+01     2.5940      1.456      2.111    19.9319 0.0000e+00
      1.493      0.049     8.5646     93.682     33.067  29.695678     4.2442      6.265   268.4793 4.8293e+01     2.6758      1.463      2.122    19.9068 0.0000e+00
      1.504      0.048     8.5558     93.630     33.054  29.680780     4.3433      6.267   268.6309 4.7686e+01     2.6917      1.473      2.136    19.8996 0.0000e+00
      1.518      0.048     8.5522     93.608     33.042  29.666740     4.4973      6.268   268.7670 4.7098e+01     2.6498      1.489      2.160    19.9042 0.0000e+00
      1.532      0.048     8.5399     93.586     33.032  29.652777     4.5820      6.269   268.9208 4.6640e+01     2.6476      1.503      2.180    19.9042 0.0000e+00
      1.545      0.047     8.5328     93.522     33.026  29.638804     4.5937      6.271   269.0282 4.6143e+01     2.6995      1.515      2.198    19.8984 0.0000e+00
      1.557      0.046     8.5296     93.421     33.026  29.624639     4.6713      6.273   269.0324 4.5702e+01     2.6962      1.528      2.216    19.8919 0.0000e+00
      1.567      0.045     8.5285     93.307     33.030  29.608358     4.8308      6.274   268.9724 4.5283e+01     2.6420      1.536      2.227    19.8870 0.0000e+00
      1.577      0.046     8.5307     93.197     33.013  29.568783     4.9076      6.275   268.9909 4.4790e+01     2.5906      1.545      2.241    19.8813 0.0000e+00
      1.588      0.047     8.5250     93.090     33.004  29.526698     4.9175      6.276   269.1697 4.4379e+01     2.5868      1.557      2.259    19.8716 0.0000e+00
      1.599      0.049     8.5193     92.956     32.999  29.480048     4.9329      6.277   269.3273 4.3955e+01     2.5962      1.567      2.273    19.8484 0.0000e+00
      1.612      0.050     8.5138     92.748     33.002  29.448695     4.9514      6.278   269.3482 4.3378e+01     2.5677      1.580      2.291    19.8149 0.0000e+00
      1.628      0.049     8.5084     92.419     33.039  29.464719     4.9925      6.279   269.3357 4.2838e+01     2.5839      1.598      2.317    19.7866 0.0000e+00
      1.643      0.046     8.5089     92.009     33.061  29.483473     5.0144      6.281   269.3486 4.2465e+01     2.6208      1.612      2.338    19.7331 0.0000e+00
      1.654      0.042     8.5105     91.604     33.054  29.485163     5.0240      6.282   269.4172 4.2198e+01     2.6382      1.623      2.353    19.6574 0.0000e+00
      1.663      0.038     8.5037     91.221     33.047  29.485159     5.0756      6.283   269.4769 4.2009e+01     2.6575      1.632      2.366    19.6027 0.0000e+00
      1.670      0.037     8.4771     90.922     33.042  29.483432     5.1302      6.284   269.5553 4.1854e+01     2.6490      1.638      2.375    19.5762 0.0000e+00
      1.676      0.041     8.4331     90.807     33.021  29.464285     5.1346      6.286   269.6768 4.1716e+01     2.6049      1.644      2.385    19.5799 0.0000e+00
      1.684      0.048     8.3951     90.837     33.006  29.443947     5.1209      6.286   269.8266 4.1521e+01     2.5676      1.652      2.396    19.5977 0.0000e+00
      1.695      0.058     8.3567     90.928     33.007  29.427805     5.1149      6.286   270.0761 4.1086e+01     2.6083      1.660      2.407    19.6078 0.0000e+00
      1.712      0.066     8.3217     91.006     32.994  29.395946     5.1031      6.286   270.3708 4.0439e+01     2.6526      1.676      2.431    19.6111 0.0000e+00
      1.735      0.072     8.3150     91.031     32.989  29.375861     5.0788      6.287   270.6370 3.9761e+01     2.6247      1.702      2.469    19.6145 0.0000e+00
      1.759      0.074     8.3213     90.966     33.001  29.375232     5.0539      6.287   270.8846 3.9119e+01     2.6128      1.726      2.504    19.6060 0.0000e+00
      1.781      0.074     8.3375     90.717     33.026  29.388324     5.0096      6.287   271.1279 3.8554e+01     2.6450      1.748      2.534    19.5746 0.0000e+00
      1.798      0.070     8.3522     90.268     33.056  29.407286     4.9344      6.286   271.3422 3.8099e+01     2.6726      1.764      2.560    19.5389 0.0000e+00
      1.812      0.064     8.3571     89.728     33.071  29.414204     4.8849      6.286   271.5827 3.7663e+01     2.6741      1.777      2.578    19.5170 0.0000e+00
      1.827      0.059     8.3593     89.211     33.070  29.408533     4.8694      6.286   271.7987 3.7151e+01     2.6631      1.790      2.596    19.5025 0.0000e+00
      1.844      0.054     8.3399     88.775     33.066  29.402139     4.8805      6.286   271.8017 3.6694e+01     2.6756      1.809      2.623    19.4880 0.0000e+00
      1.859      0.050     8.2957     88.453     33.065  29.400314     4.9189      6.288   271.7059 3.6396e+01     2.7235      1.825      2.647    19.4739 0.0000e+00
      1.870      0.046     8.2436     88.245     33.046  29.386475     4.9334      6.290   271.6725 3.6091e+01     2.7293      1.832      2.658    19.4636 0.0000e+00
      1.880      0.042     8.1961     88.152     33.013  29.361670     4.9152      6.291   271.7427 3.5812e+01     2.6776      1.844      2.675    19.4601 0.0000e+00
      1.890      0.040     8.1547     88.183     33.004  29.354130     4.9070      6.293   271.9527 3.5648e+01     2.6450      1.855      2.690    19.4549 0.0000e+00
      1.897      0.040     8.1267     88.306     33.013  29.358743     4.9419      6.295   272.1458 3.5434e+01     2.6422      1.861      2.698    19.4500 0.0000e+00
      1.906      0.041     8.1066     88.475     33.013  29.354008     5.0042      6.297   272.2711 3.5117e+01     2.6782      1.869      2.710    19.4578 0.0000e+00
      1.917      0.043     8.0946     88.650     33.025  29.360293     5.0366      6.298   272.4353 3.4780e+01     2.7044      1.879      2.726    19.4698 0.0000e+00
      1.929      0.045     8.0997     88.791     33.043  29.371304     5.0341      6.298   272.6685 3.4467e+01     2.6524      1.891      2.743    19.4687 0.0000e+00
      1.942      0.046     8.1135     88.876     33.035  29.360282     5.0234      6.299   272.9385 3.4171e+01     2.6294      1.905      2.762    19.4603 0.0000e+00
      1.955      0.046     8.1314     88.879     33.028  29.353872     5.0069      6.299   273.0331 3.3861e+01     2.6991      1.917      2.780    19.4529 0.0000e+00
      1.967      0.046     8.1502     88.774     33.029  29.357237     5.0018      6.299   273.0377 3.3606e+01     2.7439      1.930      2.800    19.4461 0.0000e+00
      1.978      0.047     8.1646     88.573     33.008  29.337537     5.0194      6.299   273.1665 3.3401e+01     2.6924      1.940      2.814    19.4398 0.0000e+00
      1.988      0.048     8.1748     88.347     32.980  29.305976     5.2283      6.300   273.2995 3.3097e+01     2.6231      1.948      2.825    19.4307 0.0000e+00
      1.999      0.050     8.1759     88.112     32.977  29.292761     5.6378      6.301   273.4420 3.2733e+01     2.6240      1.960      2.842    19.4319 0.0000e+00
      2.013      0.050     8.1661     87.878     33.001  29.304606     5.8761      6.301   273.5122 3.2376e+01     2.6694      1.973      2.861    19.4381 0.0000e+00
      2.028      0.050     8.1427     87.702     33.026  29.322320     5.8952      6.301   273.4605 3.2022e+01     2.7270      1.988      2.884    19.4389 0.0000e+00
      2.043      0.049     8.1236     87.566     33.025  29.316649     5.7942      6.302   273.5047 3.1743e+01     2.7402      2.006      2.909    19.4298 0.0000e+00
      2.055      0.048     8.1078     87.429     33.014  29.299454     5.6033      6.303   273.6167 3.1551e+01     2.6581      2.018      2.925    19.4067 0.0000e+00
      2.064      0.045     8.0830     87.284     33.028  29.304707     5.5019      6.303   273.6962 3.1345e+01     2.6222      2.023      2.935    19.3915 0.0000e+00
      2.074      0.042     8.0701     87.124     33.045  29.316722     5.5087      6.303   273.7778 3.1088e+01     2.6824      2.033      2.949    19.3879 0.0000e+00
      2.086      0.040     8.0603     86.952     33.047  29.317856     5.6358      6.304   273.9146 3.0834e+01     2.7025      2.046      2.967    19.3828 0.0000e+00
      2.098      0.040     8.0487     86.794     33.047  29.318413     5.8648      6.305   274.1454 3.0627e+01     2.6942      2.059      2.984    19.3697 0.0000e+00
      2.108      0.042     8.0387     86.656     33.055  29.323463     5.9898      6.307   274.3323 3.0499e+01     2.6847      2.069      3.000    19.3563 0.0000e+00
      2.116      0.045     8.0244     86.549     33.050  29.315486     6.0054      6.308   274.3668 3.0364e+01     2.6558      2.074      3.008    19.3522 0.0000e+00
      2.124      0.049     8.0070     86.500     33.024  29.285389     6.0042      6.309   274.3904 3.0122e+01     2.6184      2.081      3.019    19.3542 0.0000e+00
      2.137      0.054     7.9921     86.497     33.024  29.276703     5.9333      6.309   274.6184 2.9791e+01     2.5746      2.095      3.039    19.3560 0.0000e+00
      2.153      0.058     7.9803     86.519     33.025  29.273877     5.8214      6.309   274.9727 2.9413e+01     2.6041      2.111      3.062    19.3522 0.0000e+00
      2.170      0.061     7.9691     86.550     33.002  29.251208     5.7841      6.309   275.2326 2.8997e+01     2.7023      2.128      3.087    19.3466 0.0000e+00
      2.189      0.061     7.9674     86.519     33.016  29.256330     5.7986      6.310   275.3506 2.8586e+01     2.7365      2.148      3.115    19.3367 0.0000e+00
      2.206      0.058     7.9712     86.374     33.050  29.272371     5.7968      6.310   275.3672 2.8272e+01     2.6762      2.166      3.141    19.3183 0.0000e+00
      2.220      0.054     7.9729     86.149     33.046  29.254847     5.7878      6.310   275.4332 2.8029e+01     2.6223      2.178      3.158    19.3131 0.0000e+00
      2.232      0.051     7.9788     85.888     33.034  29.234712     5.7892      6.310   275.5462 2.7774e+01     2.6652      2.189      3.173    19.3168 0.0000e+00
      2.243      0.049     7.9804     85.596     33.024  29.219208     5.7966      6.310   275.6153 2.7539e+01     2.7511      2.200      3.190    19.3054 0.0000e+00
      2.253      0.049     7.9685     85.244     33.006  29.194244     5.8187      6.312   275.7532 2.7286e+01     2.7389      2.209      3.204    19.2801 0.0000e+00
      2.265      0.052     7.9510     84.877     33.010  29.186579     5.8576      6.313   275.9231 2.6964e+01     2.6539      2.220      3.221    19.2547 0.0000e+00
      2.279      0.057     7.9269     84.539     33.026  29.189945     5.8761      6.313   276.0339 2.6659e+01     2.6118      2.235      3.241    19.2446 0.0000e+00
      2.294      0.061     7.9043     84.153     33.015  29.171494     5.8759      6.313   276.1465 2.6348e+01     2.6398      2.249      3.261    19.2381 0.0000e+00
      2.311      0.063     7.8724     83.672     33.001  29.153766     5.8968      6.313   276.2521 2.5979e+01     2.6844      2.265      3.285    19.2215 0.0000e+00
      2.329      0.064     7.8364     83.097     33.019  29.165874     5.9278      6.313   276.3644 2.5643e+01     2.6388      2.284      3.315    19.2031 0.0000e+00
      2.348      0.063     7.8151     82.471     33.049  29.191036     5.9353      6.313   276.5579 2.5358e+01     2.5664      2.302      3.339    19.1859 0.0000e+00
      2.364      0.061     7.7810     81.858     33.066  29.204280     5.9458      6.313   276.7849 2.5082e+01     2.5958      2.319      3.363    19.1725 0.0000e+00
      2.379      0.061     7.7385     81.320     33.061  29.199142     6.0296      6.312   276.9582 2.4847e+01     2.6525      2.333      3.385    19.1648 0.0000e+00
      2.391      0.060     7.6846     80.923     33.056  29.192337     6.1660      6.310   277.1048 2.4627e+01     2.6707      2.344      3.399    19.1601 0.0000e+00
      2.404      0.058     7.6239     80.668     33.052  29.185429     6.2302      6.309   277.2666 2.4356e+01     2.6457      2.356      3.417    19.1578 0.0000e+00
      2.421      0.056     7.5673     80.523     33.050  29.179040     6.2241      6.309   277.4520 2.4046e+01     2.5884      2.374      3.442    19.1567 0.0000e+00
      2.439      0.053     7.5128     80.451     33.055  29.178511     6.2241      6.310   277.5399 2.3781e+01     2.5594      2.393      3.472    19.1554 0.0000e+00
      2.453      0.050     7.4786     80.401     33.059  29.179031     6.2302      6.311   277.5539 2.3605e+01     2.5679      2.407      3.491    19.1529 0.0000e+00
      2.464      0.046     7.4562     80.332     33.068  29.185317     6.2397      6.314   277.6218 2.3469e+01     2.6231      2.416      3.504    19.1474 0.0000e+00
      2.473      0.044     7.4450     80.221     33.073  29.191083     6.2393      6.317   277.6722 2.3349e+01     2.6793      2.425      3.518    19.1394 0.0000e+00
      2.482      0.044     7.4418     80.065     33.063  29.185316     6.2342      6.319   277.7328 2.3229e+01     2.6665      2.434      3.531    19.1316 0.0000e+00
      2.491      0.046     7.4389     79.885     33.057  29.179026     6.3031      6.320   277.8390 2.3049e+01     2.6391      2.442      3.542    19.1261 0.0000e+00
      2.503      0.051     7.4340     79.735     33.062  29.178460     6.4226      6.321   277.9239 2.2812e+01     2.6220      2.454      3.559    19.1232 0.0000e+00
      2.517      0.055     7.4230     79.616     33.070  29.178461     6.4730      6.322   277.9845 2.2532e+01     2.5962      2.468      3.579    19.1262 0.0000e+00
      2.533      0.057     7.4078     79.494     33.077  29.179039     6.4622      6.324   278.1414 2.2220e+01     2.6003      2.483      3.602    19.1337 0.0000e+00
      2.551      0.057     7.3875     79.359     33.089  29.185434     6.4006      6.326   278.4449 2.1943e+01     2.6384      2.502      3.630    19.1336 0.0000e+00
      2.566      0.057     7.3760     79.201     33.101  29.192344     6.3021      6.327   278.7289 2.1722e+01     2.6809      2.518      3.652    19.1225 0.0000e+00
      2.580      0.056     7.3692     79.027     33.113  29.199149     6.2618      6.327   278.9083 2.1530e+01     2.6702      2.530      3.669    19.1101 0.0000e+00
      2.592      0.056     7.3572     78.798     33.124  29.204283     6.2710      6.328   279.0643 2.1335e+01     2.6110      2.542      3.687    19.1026 0.0000e+00
      2.605      0.058     7.3480     78.457     33.112  29.190983     6.4804      6.329   279.2388 2.1114e+01     2.6148      2.555      3.704    19.0975 0.0000e+00
      2.619      0.061     7.3319     78.044     33.083  29.165197     6.9126      6.328   279.3843 2.0871e+01     2.6817      2.568      3.725    19.0922 0.0000e+00
      2.635      0.064     7.3184     77.606     33.060  29.146226     7.1607      6.325   279.4463 2.0595e+01     2.7367      2.583      3.746    19.0858 0.0000e+00
      2.653      0.065     7.3026     77.161     33.067  29.151889     7.1831      6.323   279.4723 2.0301e+01     2.7328      2.601      3.773    19.0782 0.0000e+00
      2.673      0.063     7.2680     76.752     33.091  29.170236     7.2581      6.323   279.5262 2.0020e+01     2.6697      2.621      3.802    19.0719 0.0000e+00
      2.692      0.059     7.2287     76.418     33.104  29.177768     7.4093      6.323   279.6682 1.9770e+01     2.6223      2.641      3.831    19.0727 0.0000e+00
      2.707      0.054     7.1873     76.139     33.111  29.179527     7.4970      6.324   279.8977 1.9624e+01     2.6381      2.658      3.854    19.0770 0.0000e+00
      2.716      0.049     7.1449     75.892     33.131  29.191494     7.5028      6.324   280.0645 1.9542e+01     2.6551      2.665      3.865    19.0765 0.0000e+00
      2.725      0.045     7.1052     75.680     33.141  29.195589     7.4878      6.325   280.0498 1.9391e+01     2.6238      2.670      3.873    19.0711 0.0000e+00
      2.735      0.044     7.0769     75.478     33.112  29.165604     7.4072      6.327   279.9787 1.9190e+01     2.6014      2.682      3.889    19.0649 0.0000e+00
      2.748      0.045     7.0534     75.276     33.092  29.146104     7.2770      6.329   280.0642 1.9035e+01     2.6224      2.695      3.908    19.0589 0.0000e+00
      2.760      0.045     7.0300     75.084     33.098  29.150098     7.2210      6.329   280.2242 1.8914e+01     2.6727      2.707      3.926    19.0499 0.0000e+00
      2.772      0.045     7.0136     74.894     33.099  29.150466     7.2126      6.330   280.3645 1.8774e+01     2.6636      2.719      3.944    19.0419 0.0000e+00
      2.784      0.040     6.9957     74.718     33.099  29.150551     7.1925      6.332   280.4697 1.8619e+01     2.5801      2.730      3.960    19.0367 0.0000e+00
      2.796      0.035     6.9763     74.581     33.100  29.151126     7.2016      6.332   280.6367 1.8484e+01     2.5857      2.743      3.979    19.0334 0.0000e+00
      2.806      0.033     6.9599     74.473     33.108  29.157407     7.2234      6.331   281.0925 1.8428e+01     2.6629      2.755      3.995    19.0316 0.0000e+00
      2.811      0.037     6.9421     74.382     33.116  29.163070     7.2305      6.328   281.5921 1.8445e+01     2.6931      2.758      4.000    19.0303 0.0000e+00
      2.812      0.045     6.9242     74.302     33.111  29.156161     7.2795      6.324   281.7742 1.8428e+01     2.6778      2.756      3.997    19.0300 0.0000e+00
      2.817      0.054     6.9125     74.218     33.093  29.137305     7.3750      6.322   281.8318 1.8213e+01     2.6484      2.757      3.999    19.0296 0.0000e+00
      2.836      0.063     6.9032     74.148     33.083  29.125358     7.4359      6.322   281.9439 1.7757e+01     2.6450      2.776      4.026    19.0292 0.0000e+00
      2.866      0.070     6.8942     74.080     33.100  29.138563     7.4831      6.323   282.0115 1.7322e+01     2.6718      2.814      4.082    19.0285 0.0000e+00
      2.891      0.074     6.8889     73.955     33.139  29.170105     7.8299      6.325   282.1325 1.7085e+01     2.7333      2.840      4.120    19.0249 0.0000e+00
      2.907      0.074     6.8805     73.785     33.163  29.189586     8.4414      6.326   282.2880 1.6890e+01     2.8076      2.850      4.134    19.0188 0.0000e+00
      2.922      0.069     6.8744     73.629     33.157  29.183819     8.7587      6.327   282.3438 1.6689e+01     2.8528      2.866      4.155    19.0145 0.0000e+00
      2.938      0.063     6.8726     73.475     33.134  29.163804     8.7946      6.329   282.3765 1.6497e+01     2.9034      2.881      4.178    19.0109 0.0000e+00
      2.954      0.060     6.8606     73.302     33.105  29.137876     8.8675      6.330   282.5105 1.6262e+01     2.8729      2.895      4.199    19.0071 0.0000e+00
      2.969      0.060     6.8414     73.141     33.090  29.124038     8.9747      6.331   282.6735 1.6048e+01     2.7236      2.913      4.225    19.0047 0.0000e+00
      2.984      0.060     6.8283     73.009     33.088  29.123348     9.0332      6.331   282.7126 1.5897e+01     2.6365      2.927      4.245    19.0042 0.0000e+00
      2.998      0.060     6.8160     72.917     33.094  29.129523     9.0339      6.331   282.8113 1.5718e+01     2.6389      2.939      4.261    19.0052 0.0000e+00
      3.013      0.060     6.7975     72.884     33.106  29.135279     9.0326      6.331   283.0066 1.5493e+01     2.6502      2.955      4.285    19.0033 0.0000e+00
      3.030      0.059     6.7828     72.897     33.109  29.129513     9.0930      6.331   283.1806 1.5294e+01     2.6363      2.972      4.311    19.0001 0.0000e+00
      3.046      0.057     6.7702     72.911     33.110  29.123219     9.1990      6.332   283.3670 1.5103e+01     2.6073      2.986      4.331    19.0048 0.0000e+00
      3.062      0.055     6.7593     72.872     33.114  29.122596     9.2567      6.332   283.5397 1.4923e+01     2.6421      3.003      4.356    19.0099 0.0000e+00
      3.076      0.053     6.7584     72.757     33.115  29.121973     9.2910      6.332   283.7207 1.4811e+01     2.7490      3.018      4.377    18.9996 0.0000e+00
      3.086      0.051     6.7635     72.570     33.108  29.115686     9.4975      6.332   283.8340 1.4704e+01     2.8407      3.025      4.387    18.9832 0.0000e+00
      3.097      0.051     6.7686     72.335     33.103  29.110014     9.8465      6.333   283.8780 1.4524e+01     2.8623      3.035      4.402    18.9733 0.0000e+00
      3.111      0.053     6.7657     72.086     33.113  29.116820    10.0231      6.333   283.9939 1.4330e+01     2.8398      3.051      4.426    18.9677 0.0000e+00
      3.125      0.058     6.7556     71.849     33.138  29.134545    10.0431      6.333   284.2028 1.4191e+01     2.8766      3.066      4.446    18.9651 0.0000e+00
      3.137      0.063     6.7374     71.609     33.143  29.134027    10.1724      6.332   284.4253 1.4064e+01     2.9654      3.076      4.461    18.9654 0.0000e+00
      3.152      0.066     6.7143     71.348     33.121  29.110546    10.3889      6.331   284.5333 1.3873e+01     2.9568      3.088      4.479    18.9657 0.0000e+00
      3.172      0.066     6.6902     71.035     33.117  29.104356    10.4881      6.331   284.4753 1.3622e+01     2.8751      3.109      4.509    18.9625 0.0000e+00
      3.195      0.064     6.6704     70.622     33.141  29.122609    10.4894      6.331   284.4119 1.3404e+01     2.8312      3.135      4.546    18.9545 0.0000e+00
      3.214      0.060     6.6502     70.142     33.166  29.140948    10.5206      6.332   284.4547 1.3255e+01     2.8367      3.154      4.576    18.9468 0.0000e+00
      3.227      0.054     6.6257     69.635     33.164  29.135802    10.5821      6.334   284.4772 1.3136e+01     2.8726      3.165      4.591    18.9415 0.0000e+00
      3.237      0.048     6.6024     69.147     33.154  29.123817    10.6166      6.336   284.5127 1.3043e+01     2.8892      3.174      4.604    18.9369 0.0000e+00
      3.246      0.044     6.5605     68.739     33.157  29.122882    10.5966      6.338   284.6255 1.2966e+01     2.8672      3.183      4.618    18.9323 0.0000e+00
      3.255      0.044     6.5163     68.429     33.163  29.124499    10.3165      6.339   284.7218 1.2885e+01     2.8117      3.192      4.629    18.9271 0.0000e+00
      3.264      0.047     6.4690     68.173     33.188  29.143363     9.8090      6.339   284.8170 1.2792e+01     2.7299      3.200      4.642    18.9220 0.0000e+00
      3.277      0.050     6.4207     67.889     33.211  29.160671     9.5463      6.339   285.0015 1.2660e+01     2.6982      3.213      4.660    18.9171 0.0000e+00
      3.293      0.051     6.3839     67.559     33.194  29.143477     9.5298      6.339   285.2328 1.2508e+01     2.7020      3.230      4.684    18.9129 0.0000e+00
      3.309      0.051     6.3553     67.151     33.176  29.125754     9.5168      6.341   285.3759 1.2393e+01     2.6737      3.246      4.707    18.9078 0.0000e+00
      3.322      0.050     6.3387     66.660     33.191  29.136672     9.5638      6.342   285.3550 1.2319e+01     2.7317      3.259      4.726    18.9021 0.0000e+00
      3.334      0.048     6.3103     66.153     33.206  29.148620     9.6825      6.343   285.3246 1.2250e+01     2.8561      3.270      4.743    18.8973 0.0000e+00
      3.344      0.048     6.2824     65.648     33.202  29.143365     9.7447      6.343   285.5243 1.2192e+01     2.9136      3.280      4.758    18.8935 0.0000e+00
      3.354      0.049     6.2467     65.163     33.197  29.136559     9.7583      6.343   285.7911 1.2120e+01     2.9156      3.288      4.769    18.8904 0.0000e+00
      3.366      0.050     6.1955     64.760     33.192  29.129753    10.0139      6.343   285.8840 1.1987e+01     2.8458      3.298      4.783    18.8879 0.0000e+00
      3.382      0.051     6.1504     64.451     33.190  29.124503    10.5040      6.344   285.9585 1.1843e+01     2.7530      3.316      4.809    18.8858 0.0000e+00
      3.398      0.054     6.1035     64.208     33.207  29.136508    10.7742      6.344   286.1756 1.1748e+01     2.6819      3.334      4.834    18.8832 0.0000e+00
      3.411      0.057     6.0550     63.999     33.223  29.148040    10.7918      6.343   286.4439 1.1690e+01     2.6353      3.346      4.852    18.8797 0.0000e+00
      3.423      0.058     6.0185     63.779     33.214  29.137075    10.8090      6.343   286.6220 1.1614e+01     2.7017      3.356      4.868    18.8755 0.0000e+00
      3.437      0.058     5.9918     63.513     33.209  29.130785    10.8648      6.342   286.6935 1.1491e+01     2.8361      3.368      4.886    18.8711 0.0000e+00
      3.454      0.058     5.9697     63.191     33.217  29.135409    10.9083      6.341   286.7926 1.1381e+01     2.8940      3.388      4.914    18.8670 0.0000e+00
      3.471      0.059     5.9534     62.824     33.212  29.129549    10.9365      6.340   286.9596 1.1334e+01     2.8889      3.406      4.940    18.8627 0.0000e+00
      3.484      0.061     5.9340     62.447     33.207  29.123358    11.1974      6.340   287.0774 1.1297e+01     2.8768      3.416      4.955    18.8584 0.0000e+00
      3.498      0.062     5.9102     62.073     33.211  29.123982    11.6903      6.339   287.0984 1.1242e+01     2.9185      3.429      4.974    18.8548 0.0000e+00
      3.514      0.062     5.8807     61.687     33.229  29.137093    11.9686      6.339   287.2146 1.1202e+01     2.9821      3.447      4.999    18.8516 0.0000e+00
      3.531      0.062     5.8446     61.267     33.253  29.155016    11.9991      6.339   287.4492 1.1171e+01     2.9626      3.462      5.022    18.8501 0.0000e+00
      3.548      0.063     5.8093     60.801     33.251  29.150394    11.9851      6.339   287.5261 1.1106e+01     2.8545      3.479      5.046    18.8488 0.0000e+00
      3.566      0.063     5.7762     60.310     33.251  29.144639    11.9486      6.339   287.5419 1.1051e+01     2.6993      3.498      5.073    18.8430 0.0000e+00
      3.581      0.063     5.7415     59.816     33.264  29.148847    11.9324      6.339   287.7269 1.1039e+01     2.6583      3.512      5.095    18.8369 0.0000e+00
      3.594      0.064     5.7034     59.308     33.260  29.137836    11.9391      6.339   287.8690 1.1014e+01     2.7348      3.524      5.111    18.8349 0.0000e+00
      3.609      0.064     5.6600     58.761     33.270  29.138358    11.9127      6.338   287.8841 1.0975e+01     2.7354      3.539      5.132    18.8299 0.0000e+00
      3.626      0.064     5.6133     58.097     33.299  29.155146    11.6799      6.338   287.9956 1.0944e+01     2.6999      3.556      5.158    18.8213 0.0000e+00
      3.646      0.063     5.5701     57.230     33.300  29.150525    11.2886      6.338   288.1845 1.0915e+01     2.7835      3.575      5.185    18.8112 0.0000e+00
      3.664      0.062     5.5241     56.193     33.299  29.145904    11.0932      6.338   288.3609 1.0911e+01     2.8917      3.594      5.212    18.7992 0.0000e+00
      3.679      0.061     5.4765     55.056     33.321  29.162698    11.1062      6.338   288.4942 1.0937e+01     2.9154      3.609      5.234    18.7853 0.0000e+00
      3.692      0.058     5.4225     53.916     33.323  29.163285    11.2640      6.338   288.5915 1.0953e+01     2.8996      3.620      5.250    18.7729 0.0000e+00
      3.706      0.055     5.3384     52.900     33.316  29.153001    11.5360      6.338   288.7631 1.0947e+01     2.8706      3.633      5.269    18.7644 0.0000e+00
      3.721      0.053     5.2409     52.042     33.336  29.165216    11.6896      6.339   288.9337 1.0944e+01     2.8727      3.649      5.293    18.7576 0.0000e+00
      3.734      0.051     5.1332     51.320     33.363  29.184099    11.7226      6.340   288.9335 1.0953e+01     2.8911      3.663      5.313    18.7562 0.0000e+00
      3.746      0.050     5.0198     50.708     33.374  29.191020    11.7516      6.341   288.9324 1.0963e+01     2.8879      3.674      5.329    18.7555 0.0000e+00
      3.759      0.048     4.9264     50.173     33.369  29.185472    11.7654      6.342   289.0930 1.0977e+01     2.8342      3.686      5.346    18.7488 0.0000e+00
      3.771      0.046     4.8481     49.693     33.365  29.180445    11.7569      6.343   289.2413 1.1013e+01     2.7891      3.699      5.366    18.7401 0.0000e+00
      3.782      0.045     4.7822     49.286     33.382  29.193661    11.7403      6.344   289.3483 1.1062e+01     2.8537      3.709      5.380    18.7325 0.0000e+00
      3.793      0.044     4.7267     48.957     33.414  29.218400    11.5227      6.345   289.5262 1.1090e+01     2.8984      3.718      5.392    18.7281 0.0000e+00
      3.805      0.041     4.6784     48.681     33.430  29.225842    11.1064      6.345   289.6713 1.1100e+01     2.8510      3.731      5.411    18.7263 0.0000e+00
      3.817      0.038     4.6323     48.471     33.432  29.220202    10.8685      6.345   289.7266 1.1117e+01     2.8271      3.744      5.429    18.7248 0.0000e+00
      3.827      0.037     4.5936     48.320     33.433  29.213627    10.8276      6.345   289.7649 1.1143e+01     2.8828      3.754      5.444    18.7225 0.0000e+00
      3.835      0.037     4.5664     48.142     33.437  29.209774    10.8027      6.345   289.8763 1.1176e+01     2.9103      3.762      5.456    18.7180 0.0000e+00
      3.840      0.038     4.5393     47.844     33.477  29.237030    10.7674      6.346   290.1259 1.1204e+01     2.7837      3.766      5.462    18.7083 0.0000e+00
      3.848      0.041     4.5208     47.351     33.547  29.289449    10.7338      6.346   290.3745 1.1194e+01     2.6500      3.771      5.469    18.6951 0.0000e+00
      3.859      0.047     4.5114     46.582     33.610  29.336110    10.7211      6.345   290.5590 1.1143e+01     2.6252      3.784      5.488    18.6849 0.0000e+00
      3.873      0.052     4.4987     45.516     33.642  29.357193    10.7218      6.345   290.7215 1.1078e+01     2.6207      3.799      5.510    18.6756 0.0000e+00
      3.888      0.056     4.4741     44.219     33.647  29.354068    10.7517      6.345   290.8776 1.0993e+01     2.6305      3.811      5.527    18.6633 0.0000e+00
      3.905      0.057     4.4319     42.694     33.666  29.361733    10.8073      6.344   291.0693 1.0883e+01     2.6417      3.829      5.553    18.6502 0.0000e+00
      3.923      0.055     4.3643     40.970     33.705  29.386436    10.8358      6.344   291.2321 1.0784e+01     2.6191      3.849      5.583    18.6372 0.0000e+00
      3.937      0.051     4.2591     39.195     33.728  29.399020    10.8303      6.345   291.2976 1.0715e+01     2.6309      3.862      5.602    18.6273 0.0000e+00
      3.947      0.047     4.1410     37.513     33.722  29.387008    10.6831      6.346   291.3444 1.0665e+01     2.7150      3.871      5.614    18.6172 0.0000e+00
      3.957      0.045     4.0004     36.013     33.709  29.368051    10.4045      6.346   291.4539 1.0605e+01     2.8170      3.881      5.628    18.6028 0.0000e+00
      3.967      0.044     3.8325     34.734     33.710  29.360095    10.2505      6.345   291.5902 1.0521e+01     2.8729      3.891      5.643    18.5878 0.0000e+00
      3.977      0.046     3.6639     33.669     33.710  29.354228    10.1945      6.345   291.7007 1.0426e+01     2.8783      3.899      5.655    18.5765 0.0000e+00
      3.988      0.047     3.5032     32.787     33.721  29.360533     9.8434      6.344   291.7577 1.0316e+01     2.8823      3.909      5.670    18.5703 0.0000e+00
      4.002      0.047     3.3632     32.132     33.738  29.372900     9.2178      6.344   291.8493 1.0203e+01     2.8870      3.924      5.691    18.5591 0.0000e+00
      4.017      0.045     3.2438     31.757     33.746  29.376896     8.8555      6.344   292.0335 1.0102e+01     2.8670      3.940      5.715    18.5419 0.0000e+00
      4.032      0.040     3.1480     31.607     33.786  29.408840     8.7921      6.345   292.1788 1.0023e+01     2.8455      3.955      5.737    18.5328 0.0000e+00
      4.042      0.035     3.0629     31.565     33.826  29.441980     8.7265      6.345   292.4008 9.9901e+00     2.8328      3.967      5.752    18.5321 0.0000e+00
      4.047      0.033     2.9986     31.551     33.846  29.460433     8.6283      6.343   292.8255 9.9690e+00     2.8499      3.969      5.757    18.5278 0.0000e+00
      4.052      0.034     2.9664     31.543     33.896  29.505098     8.5779      6.340   293.1836 9.9443e+00     2.8809      3.972      5.762    18.5212 0.0000e+00
      4.056      0.038     2.9573     31.500     33.942  29.538003     8.5666      6.337   293.2889 9.9221e+00     2.8661      3.977      5.769    18.5168 0.0000e+00
      4.063      0.043     2.9570     31.415     33.959  29.541118     8.4925      6.334   293.2383 9.8285e+00     2.8766      3.978      5.771    18.5124 0.0000e+00
      4.078      0.049     2.9538     31.236     33.973  29.542754     8.3389      6.333   293.2597 9.6629e+00     2.9396      3.996      5.797    18.5165 0.0000e+00
      4.100      0.056     2.9563     30.805     33.999  29.557775     8.2163      6.333   293.3758 9.5369e+00     2.9783      4.025      5.837    18.5235 0.0000e+00
      4.116      0.062     2.9519     30.057     34.050  29.595868     8.1752      6.332   293.5244 9.4711e+00     2.9681      4.039      5.856    18.5113 0.0000e+00
      4.126      0.065     2.9452     29.106     34.087  29.622729     8.1412      6.331   293.7657 9.4070e+00     2.9192      4.046      5.868    18.4882 0.0000e+00
      4.140      0.066     2.9377     28.068     34.097  29.628815     7.9391      6.331   293.9702 9.3058e+00     2.8987      4.058      5.887    18.4738 0.0000e+00
      4.160      0.067     2.9008     26.994     34.147  29.669452     7.5954      6.331   294.1038 9.1758e+00     2.9259      4.079      5.916    18.4644 0.0000e+00
      4.181      0.067     2.8250     25.943     34.230  29.733478     7.4065      6.331   294.1763 9.0701e+00     2.9068      4.101      5.950    18.4545 0.0000e+00
      4.199      0.067     2.7317     24.983     34.287  29.768625     7.3617      6.330   294.2439 8.9802e+00     2.8723      4.118      5.973    18.4461 0.0000e+00
      4.216      0.064     2.6349     24.139     34.311  29.777245     7.0703      6.329   294.4052 8.8709e+00     2.9183      4.133      5.995    18.4426 0.0000e+00
      4.232      0.062     2.5312     23.314     34.312  29.774249     6.5386      6.328   294.4926 8.7766e+00     3.0196      4.152      6.022    18.4436 0.0000e+00
      4.246      0.061     2.4313     22.339     34.339  29.795831     6.2592      6.327   294.5263 8.7210e+00     3.1070      4.166      6.043    18.4330 0.0000e+00
      4.258      0.061     2.3403     21.168     34.404  29.847895     6.2632      6.327   294.6398 8.6613e+00     3.0857      4.174      6.054    18.4030 0.0000e+00
      4.272      0.062     2.2652     19.934     34.473  29.896295     6.4714      6.328   294.7473 8.5668e+00     3.0018      4.188      6.075    18.3841 0.0000e+00
      4.291      0.063     2.1959     18.770     34.538  29.936995     6.8539      6.329   294.7937 8.4572e+00     2.9809      4.209      6.105    18.3830 0.0000e+00
      4.310      0.065     2.1061     17.647     34.584  29.959370     7.0599      6.327   294.8567 8.3511e+00     3.0039      4.228      6.132    18.3818 0.0000e+00
      4.326      0.066     1.9907     16.502     34.621  29.976516     7.0053      6.325   294.9057 8.2455e+00     3.0404      4.243      6.153    18.3782 0.0000e+00
      4.342      0.065     1.8682     15.302     34.683  30.017421     6.1196      6.325   294.9571 8.1292e+00     3.0804      4.257      6.174    18.3609 0.0000e+00
      4.358      0.063     1.7638     14.049     34.761  30.073341     4.4661      6.325   295.0473 8.0203e+00     3.1117      4.273      6.198    18.3342 0.0000e+00
      4.376      0.061     1.6609     12.762     34.858  30.145175     3.5588      6.325   295.1362 7.9534e+00     3.1799      4.291      6.224    18.3093 0.0000e+00
      4.392      0.059     1.5547     11.438     35.000  30.251612     3.5136      6.324   295.2567 7.9017e+00     3.2899      4.309      6.249    18.2863 0.0000e+00
      4.405      0.058     1.4428     10.099     35.133  30.345317     3.7041      6.323   295.3001 7.8348e+00     3.3496      4.321      6.267    18.2684 0.0000e+00
      4.417      0.057     1.3234      8.822     35.210  30.390057     4.0137      6.323   295.3166 7.7773e+00     3.3211      4.332      6.282    18.2545 0.0000e+00
      4.431      0.057     1.2035      7.639     35.329  30.475371     4.1694      6.324   295.5426 7.7272e+00     3.2519      4.345      6.301    18.2387 0.0000e+00
      4.447      0.057     1.0792      6.505     35.508  30.615606     4.1889      6.324   295.8811 7.6641e+00     3.2302      4.361      6.325    18.2160 0.0000e+00
      4.463      0.058     0.9501      5.446     35.686  30.753503     4.2082      6.324   296.1401 7.6014e+00     3.2987      4.378      6.349    18.1826 0.0000e+00
      4.477      0.060     0.8278      4.509     35.921  30.937412     4.2605      6.324   296.4371 7.5344e+00     3.3280      4.390      6.368    18.1468 0.0000e+00
      4.492      0.063     0.7214      3.693     36.238  31.189902     4.3461      6.324   296.8061 7.4382e+00     3.2775      4.404      6.388    18.1240 0.0000e+00
      4.507      0.068     0.6120      3.012     36.583  31.459191     4.3945      6.322   297.0735 7.3373e+00     3.2682      4.420      6.411    18.1088 0.0000e+00
      4.523      0.074     0.5095      2.470     36.925  31.719306     4.3802      6.318   297.2610 7.2306e+00     3.3178      4.435      6.432    18.0855 0.0000e+00
      4.542      0.080     0.4231      2.055     37.277  31.987719     4.0642      6.314   297.3518 7.0899e+00     3.3991      4.453      6.458    18.0586 0.0000e+00
      4.565      0.083     0.3447      1.769     37.521  32.166984     3.4707      6.311   297.3975 6.9317e+00     3.4657      4.476      6.492    18.0346 0.0000e+00
      4.590      0.082     0.2803      1.597     37.631  32.237340     3.1390      6.307   297.5553 6.7659e+00     3.4746      4.502      6.529    17.9976 0.0000e+00
      4.615      0.077     0.2303      1.502     37.912  32.457726     3.0822      6.305   297.6249 6.5989e+00     3.4718      4.526      6.564    17.9459 0.0000e+00
      4.638      0.070     0.1906      1.481     38.411  32.864985     2.9755      6.305   297.6367 6.4774e+00     3.5006      4.550      6.600    17.8979 0.0000e+00
      4.654      0.062     0.1634      1.533     39.160  33.481901     2.8068      6.306   297.8704 6.4267e+00     3.5154      4.567      6.625    17.8596 0.0000e+00
      4.663      0.058     0.1502      1.615     40.569  34.651028     2.7063      6.304   298.0414 6.3931e+00     3.4795      4.572      6.632    17.8261 0.0000e+00
      4.672      0.059     0.1405      1.707     42.395  36.151449     2.6850      6.302   297.9837 6.3331e+00     3.4767      4.580      6.643    17.8037 0.0000e+00
      4.682      0.064     0.1374      1.813     44.195  37.601076     2.7406      6.301   297.9464 6.2368e+00     3.5152      4.590      6.658    17.7793 0.0000e+00
      4.698      0.073     0.1457      1.918     46.230  39.233669     2.8792      6.298   297.9348 6.0961e+00     3.5359      4.605      6.678    17.7481 0.0000e+00
      4.722      0.082     0.1538      2.014     48.325  40.914445     2.9712      6.295   298.0155 5.9343e+00     3.5215      4.630      6.715    17.7155 0.0000e+00
      4.749      0.088     0.1616      2.097     49.704  41.993695     3.0451      6.291   298.2333 5.7788e+00     3.4783      4.657      6.754    17.6465 0.0000e+00
      4.775      0.090     0.1736      2.157     50.249  42.381803     3.8891      6.286   298.0734 5.6254e+00     3.6279      4.683      6.792    17.5418 0.0000e+00
      4.800      0.089     0.1838      2.197     51.043  43.004703     5.4610      6.279   297.2875 5.4799e+00     4.0330      4.709      6.830    17.4304 0.0000e+00
      4.821      0.084     0.1938      2.232     52.630  44.320160     6.3197      6.274   295.9577 5.3650e+00     4.3112      4.729      6.857    17.3269 0.0000e+00
      4.839      0.076     0.2024      2.256     54.540  45.909097     6.4065      6.271   293.4385 5.2539e+00     4.2929      4.745      6.881    17.2357 0.0000e+00
      4.859      0.070     0.2087      2.271     57.079  47.996930     6.4602      6.268   289.9729 5.1241e+00     4.1874      4.766      6.912    17.1576 0.0000e+00
      4.878      0.065     0.2115      2.300     59.954  50.327226     7.0193      6.265   287.0942 5.0118e+00     4.1624      4.786      6.942    17.1122 0.0000e+00
      4.892      0.062     0.2157      2.331     61.750  51.735149     8.0647      6.261   284.4440 4.9201e+00     4.2295      4.799      6.961    17.0994 0.0000e+00
      4.902      0.058     0.2187      2.353     62.238  52.066673     8.6365      6.255   280.2134 4.8105e+00     4.3168      4.806      6.971    17.0944 0.0000e+00
      4.916      0.052     0.2177      2.367     62.265  52.049550     8.7060      6.249   273.8001 4.6755e+00     4.3298      4.819      6.990    17.0563 0.0000e+00
      4.935      0.047     0.2227      2.377     62.731  52.417095     8.8978      6.244   266.1826 4.5473e+00     4.2490      4.840      7.021    16.9745 0.0000e+00
      4.951      0.047     0.2260      2.391     64.625  53.970462     9.2325      6.235   259.6091 4.4533e+00     4.1601      4.859      7.047    16.8796 0.0000e+00
      4.959      0.057     0.2284      2.396     67.780  56.541762     9.4151      6.219   255.3217 4.3953e+00     4.1422      4.866      7.057    16.8094 0.0000e+00
      4.961      0.070     0.2303      2.386     70.026  58.291912     9.4741      6.201   251.8579 4.3519e+00     4.1695      4.865      7.055    16.7897 0.0000e+00
      4.969      0.080     0.2301      2.374     69.916  58.045457     9.8791      6.185   246.8094 4.2401e+00     4.1148      4.864      7.056    16.7775 0.0000e+00
      4.996      0.085     0.2328      2.367     68.922  57.118805    10.6005      6.173   240.3977 4.0070e+00     3.9934      4.891      7.094    16.7584 0.0000e+00
      5.041      0.088     0.2335      2.347     68.871  57.060315    10.9800      6.163   235.5086 3.7731e+00     3.9305      4.949      7.178    16.7274 0.0000e+00
      5.078      0.086     0.2326      2.319     69.419  57.528942    10.9724      6.157   232.8666 3.6613e+00     3.9014      4.990      7.239    16.6323 0.0000e+00
      5.093      0.076     0.2311      2.293     69.786  57.830558    10.6496      6.154   230.7383 3.6152e+00     3.8806      4.997      7.248    16.4876 0.0000e+00
      5.099      0.062     0.2322      2.258     70.218  58.166361    10.0566      6.154   227.6712 3.5477e+00     3.8491      4.998      7.248    16.4025 0.0000e+00
      5.108      0.052     0.2305      2.242     71.009  58.794128     9.7210      6.153   223.8308 3.4582e+00     3.7944      5.009      7.264    16.4172 0.0000e+00
      5.120      0.052     0.2255      2.250     71.447  59.132071     9.5964      6.148   220.6133 3.3838e+00     3.7318      5.023      7.286    16.4407 0.0000e+00
      5.130      0.062     0.2258      2.252     71.411  59.076223     8.6663      6.142   218.2807 3.3258e+00     3.5701      5.030      7.296    16.4355 0.0000e+00
      5.144      0.073     0.2197      2.242     72.067  59.579889     6.9902      6.135   216.0186 3.2343e+00     3.3421      5.039      7.308    16.4161 0.0000e+00
      5.167      0.080     0.2180      2.228     73.048  60.330298     6.0845      6.129   213.3957 3.1042e+00     3.2646      5.065      7.346    16.3929 0.0000e+00
      5.195      0.083     0.2211      2.218     73.525  60.653191     6.0138      6.122   210.6577 2.9869e+00     3.3495      5.096      7.391    16.3778 0.0000e+00
      5.222      0.083     0.2205      2.207     73.782  60.815718     5.9774      6.115   208.1241 2.8919e+00     3.3786      5.122      7.430    16.3620 0.0000e+00
      5.245      0.080     0.2203      2.209     73.684  60.707109     5.5704      6.110   205.8201 2.8058e+00     3.2751      5.148      7.466    16.3397 0.0000e+00
      5.260      0.075     0.2175      2.229     73.762  60.737626     4.8376      6.105   203.7079 2.7387e+00     3.1916      5.160      7.482    16.2965 0.0000e+00
      5.273      0.070     0.2185      2.240     75.054  61.756381     4.4495      6.101   201.6001 2.6797e+00     3.2221      5.168      7.495    16.2335 0.0000e+00
      5.290      0.069     0.2163      2.238     76.881  63.177192     4.4408      6.098   199.2636 2.6168e+00     3.3026      5.188      7.524    16.2015 0.0000e+00
      5.308      0.072     0.2156      2.229     78.308  64.193075     4.5572      6.094   196.4507 2.5570e+00     3.3446      5.206      7.550    16.1958 0.0000e+00
      5.326      0.077     0.2203      2.223     80.041  65.398060     4.7587      6.090   193.0580 2.4968e+00     3.2862      5.220      7.571    16.1677 0.0000e+00
      5.348      0.082     0.2205      2.231     82.308  67.007429     4.8618      6.085   189.7326 2.4337e+00     3.2119      5.244      7.606    16.1431 0.0000e+00
      5.370      0.085     0.2207      2.246     83.974  68.082626     4.8384      6.080   186.8745 2.3757e+00     3.2324      5.267      7.639    16.1075 0.0000e+00
      5.390      0.087     0.2200      2.253     84.604  68.293521     4.6754      6.077   183.7961 2.3174e+00     3.3624      5.284      7.664    15.9969 0.0000e+00
      5.414      0.087     0.2194      2.252     85.139  68.476623     4.4068      6.074   179.9582 2.2560e+00     3.5877      5.308      7.699    15.8515 0.0000e+00
      5.440      0.086     0.2211      2.246     86.601  69.469939     4.2699      6.072   176.0044 2.2071e+00     3.7703      5.338      7.742    15.7141 0.0000e+00
      5.461      0.085     0.2243      2.244     88.571  70.833469     4.2689      6.070   172.8160 2.1760e+00     3.8278      5.357      7.770    15.5445 0.0000e+00
      5.481      0.081     0.2257      2.256     89.696  71.424675     4.3281      6.068   169.9734 2.1377e+00     3.7368      5.373      7.793    15.3436 0.0000e+00
      5.501      0.073     0.2261      2.263     89.550  71.024467     4.4366      6.067   166.8441 2.0719e+00     3.5581      5.394      7.823    15.1875 0.0000e+00
      5.523      0.062     0.2262      2.248     88.971  70.443590     4.4905      6.066   163.7169 2.0134e+00     3.4779      5.417      7.856    15.1148 0.0000e+00
      5.542      0.050     0.2247      2.222     88.500  70.121744     4.4968      6.066   160.8997 1.9888e+00     3.4840      5.438      7.886    15.0180 0.0000e+00
      5.553      0.038     0.2289      2.195     88.163  69.993311     4.4959      6.067   158.4211 1.9733e+00     3.4610      5.449      7.902    14.8057 0.0000e+00
      5.557      0.028     0.2312      2.181     88.622  70.479869     4.4638      6.068   156.1182 1.9481e+00     3.3707      5.450      7.904    14.6121 0.0000e+00
      5.557      0.023     0.2290      2.178     90.354  71.873334     4.4333      6.068   153.7048 1.9320e+00     3.2806      5.449      7.903    14.5475 0.0000e+00
      5.557      0.025     0.2263      2.177     92.443  73.366149     4.4257      6.069   151.3536 1.9310e+00     3.2257      5.450      7.904    14.5942 0.0000e+00
      5.560      0.032     0.2219      2.181     93.673  74.036093     4.4468      6.069   149.3715 1.9140e+00     3.2192      5.450      7.906    14.6993 0.0000e+00
      5.570      0.041     0.2205      2.193     94.063  74.061339     4.4888      6.070   147.2054 1.8728e+00     3.2699      5.458      7.917    14.7778 0.0000e+00
      5.586      0.048     0.2206      2.191     94.835  74.497489     4.5183      6.072   144.3508 1.8320e+00     3.2933      5.477      7.943    14.8110 0.0000e+00
      5.606      0.053     0.2207      2.171     96.797  75.939858     4.5363      6.073   141.1840 1.8075e+00     3.2971      5.499      7.976    14.7165 0.0000e+00
      5.623      0.058     0.2215      2.168     98.794  77.386827     4.5076      6.073   138.1700 1.7942e+00     3.3499      5.518      8.003    14.5019 0.0000e+00
      5.632      0.061     0.2248      2.188     99.468  77.750961     4.4285      6.073   135.1826 1.7798e+00     3.4194      5.524      8.012    14.3393 0.0000e+00
      5.642      0.064     0.2258      2.210     99.198  77.417713     4.3710      6.073   132.1664 1.7561e+00     3.4193      5.528      8.019    14.2574 0.0000e+00
      5.659      0.068     0.2213      2.218     99.090  77.299518     4.3623      6.070   129.7501 1.7341e+00     3.4168      5.548      8.047    14.2301 0.0000e+00
      5.681      0.073     0.2213      2.205     99.882  77.911403     4.3648      6.067   127.8213 1.7131e+00     3.4582      5.572      8.082    14.1798 0.0000e+00
      5.701      0.078     0.2255      2.184    101.786  79.347754     4.2922      6.065   125.8816 1.6759e+00     3.5092      5.590      8.108    14.0687 0.0000e+00
      5.723      0.083     0.2280      2.176    104.544  81.376577     4.1669      6.062   124.1068 1.6371e+00     3.5566      5.612      8.140    13.9957 0.0000e+00
      5.746      0.083     0.2296      2.181    107.684  83.618408     4.1066      6.059   122.4515 1.6086e+00     3.5518      5.635      8.173    13.9971 0.0000e+00
      5.766      0.082     0.2276      2.189    110.477  85.529492     4.0957      6.056   120.8387 1.5840e+00     3.5193      5.654      8.200    14.0090 0.0000e+00
      5.787      0.078     0.2242      2.188    111.842  86.355899     4.0933      6.054   119.1468 1.5529e+00     3.5058      5.674      8.230    13.9862 0.0000e+00
      5.808      0.073     0.2240      2.172    111.843  86.231763     4.1111      6.052   116.5365 1.5175e+00     3.5261      5.696      8.262    13.9323 0.0000e+00
      5.829      0.067     0.2254      2.166    112.585  86.763670     4.1283      6.052   112.9389 1.4982e+00     3.5590      5.717      8.291    13.8355 0.0000e+00
      5.846      0.062     0.2275      2.196    114.921  88.461205     4.1267      6.052   109.4611 1.4922e+00     3.5618      5.735      8.318    13.7039 0.0000e+00
      5.858      0.059     0.2282      2.221    116.872  89.707638     4.1000      6.051   106.2355 1.4798e+00     3.4913      5.746      8.334    13.5833 0.0000e+00
      5.867      0.058     0.2264      2.219    117.384  89.810425     4.0626      6.049   102.5902 1.4575e+00     3.3559      5.752      8.342    13.5264 0.0000e+00
      5.879      0.060     0.2226      2.223    117.337  89.576444     4.0415      6.046    98.7697 1.4279e+00     3.2573      5.763      8.359    13.5392 0.0000e+00
      5.896      0.063     0.2291      2.229    117.435  89.550453     4.0275      6.044    95.1457 1.3959e+00     3.2557      5.782      8.388    13.5231 0.0000e+00
      5.915      0.067     0.2342      2.225    117.909  89.877786     4.0018      6.043    91.4668 1.3719e+00     3.2682      5.801      8.414    13.3792 0.0000e+00
      5.934      0.069     0.2310      2.205    119.154  90.798441     3.9718      6.041    88.1873 1.3471e+00     3.2379      5.819      8.438    13.2298 0.0000e+00
      5.954      0.069     0.2336      2.176    120.643  91.838196     3.9649      6.040    86.1248 1.3121e+00     3.2314      5.840      8.470    13.1553 0.0000e+00
      5.972      0.065     0.2346      2.167    121.055  92.014681     3.9768      6.040    84.7698 1.2817e+00     3.2568      5.859      8.497    13.1125 0.0000e+00
      5.987      0.060     0.2342      2.171    120.871  91.786958     3.9989      6.041    83.1611 1.2615e+00     3.2717      5.872      8.516    13.1078 0.0000e+00
      6.002      0.057     0.2328      2.174    122.044  92.647878     4.0401      6.042    81.3864 1.2385e+00     3.2757      5.886      8.537    13.1122 0.0000e+00
      6.016      0.056     0.2271      2.182    125.199  94.978981     4.0594      6.042    79.4876 1.2175e+00     3.2371      5.902      8.559    13.0702 0.0000e+00
      6.026      0.058     0.2281      2.192    129.518  98.081645     4.0491      6.042    77.3245 1.1983e+00     3.1802      5.910      8.570    12.9898 0.0000e+00
      6.038      0.063     0.2295      2.221    134.428 101.522486     4.0322      6.042    75.2791 1.1686e+00     3.1676      5.918      8.582    12.9531 0.0000e+00
      6.055      0.068     0.2283      2.251    138.093 103.927292     4.0127      6.041    73.5138 1.1257e+00     3.2215      5.937      8.610    12.9595 0.0000e+00
      6.075      0.073     0.2310      2.256    139.198 104.367546     4.0051      6.040    71.8116 1.0786e+00     3.2855      5.957      8.641    12.9484 0.0000e+00
      6.097      0.076     0.2300      2.243    139.919 104.617214     4.0070      6.040    70.0136 1.0445e+00     3.2932      5.977      8.670    12.8743 0.0000e+00
      6.121      0.077     0.2349      2.224    141.481 105.608611     3.9935      6.041    68.4660 1.0127e+00     3.3142      6.004      8.707    12.7708 0.0000e+00
      6.142      0.076     0.2406      2.213    142.711 106.358123     3.9586      6.043    67.2957 9.8900e-01     3.3342      6.026      8.740    12.6391 0.0000e+00
      6.157      0.073     0.2407      2.213    143.359 106.675528     3.9350      6.043    66.0166 9.7980e-01     3.2972      6.037      8.757    12.4651 0.0000e+00
      6.172      0.070     0.2401      2.214    144.060 107.090212     3.9160      6.042    64.6151 9.4382e-01     3.2760      6.051      8.776    12.3617 0.0000e+00
      6.190      0.068     0.2373      2.205    144.861 107.615064     3.8946      6.042    63.4290 8.8447e-01     3.2828      6.071      8.805    12.3264 0.0000e+00
      6.209      0.066     0.2364      2.192    145.725 108.181995     3.8687      6.043    62.4300 8.4553e-01     3.2431      6.090      8.833    12.2621 0.0000e+00
      6.227      0.062     0.2373      2.187    146.916 108.977925     3.8197      6.045    61.4845 8.3192e-01     3.2046      6.107      8.858    12.1907 0.0000e+00
      6.244      0.057     0.2380      2.188    148.147 109.787835     3.7844      6.048    60.6005 8.0898e-01     3.2274      6.123      8.881    12.1620 0.0000e+00
      6.259      0.050     0.2371      2.180    148.935 110.268840     3.7827      6.050    59.6577 7.7115e-01     3.2459      6.139      8.903    12.1434 0.0000e+00
      6.271      0.045     0.2350      2.176    149.833 110.845195     3.8074      6.051    58.3451 7.4509e-01     3.2579      6.153      8.923    12.1168 0.0000e+00
      6.280      0.043     0.2345      2.186    151.320 111.852407     3.8422      6.052    56.8611 7.3481e-01     3.3042      6.160      8.935    12.0886 0.0000e+00
      6.286      0.043     0.2364      2.189    152.206 112.383903     3.8536      6.054    55.6529 7.2494e-01     3.3269      6.163      8.939    12.0512 0.0000e+00
      6.292      0.042     0.2345      2.179    151.914 112.048747     3.8453      6.056    54.1474 6.9968e-01     3.3281      6.168      8.945    12.0130 0.0000e+00
      6.306      0.042     0.2332      2.165    151.752 111.876207     3.8091      6.056    52.1669 6.7268e-01     3.3188      6.182      8.966    11.9860 0.0000e+00
      6.323      0.043     0.2365      2.154    152.290 112.272143     3.7482      6.057    50.1191 6.5444e-01     3.2483      6.204      8.998    11.9630 0.0000e+00
      6.336      0.046     0.2369      2.143    152.700 112.568646     3.7164      6.057    47.8869 6.4190e-01     3.1922      6.218      9.018    11.9164 0.0000e+00
      6.343      0.051     0.2357      2.132    153.187 112.913513     3.7072      6.057    46.5147 6.3231e-01     3.1871      6.220      9.021    11.8650 0.0000e+00
      6.349      0.056     0.2334      2.116    154.801 114.085123     3.6627      6.058    46.1754 6.1536e-01     3.2549      6.224      9.026    11.8507 0.0000e+00
      6.363      0.062     0.2332      2.101    156.856 115.523773     3.5857      6.060    44.9029 5.9552e-01     3.3976      6.236      9.045    11.8625 0.0000e+00
      6.383      0.068     0.2316      2.105    157.841 116.103105     3.5414      6.062    42.8310 5.7457e-01     3.5120      6.258      9.077    11.8586 0.0000e+00
      6.407      0.069     0.2305      2.105    157.611 115.802385     3.5436      6.064    41.2569 5.5277e-01     3.5780      6.283      9.112    11.8480 0.0000e+00
      6.431      0.063     0.2295      2.094    157.104 115.391332     3.5294      6.067    39.8097 5.3487e-01     3.5813      6.308      9.148    11.8545 0.0000e+00
      6.450      0.052     0.2249      2.073    156.781 115.210050     3.4860      6.069    38.3251 5.0853e-01     3.5522      6.329      9.179    11.8341 0.0000e+00
      6.462      0.037     0.2291      2.054    156.553 115.139427     3.4602      6.071    36.9864 4.8143e-01     3.5677      6.340      9.196    11.7736 0.0000e+00
      6.466      0.022     0.2285      2.067    156.489 115.174562     3.4502      6.075    35.8408 4.7224e-01     3.5635      6.344      9.201    11.7204 0.0000e+00
      6.464      0.010     0.2272      2.073    156.723 115.380149     3.4403      6.078    34.9703 4.7176e-01     3.5020      6.339      9.194    11.7102 0.0000e+00
      6.462      0.005     0.2258      2.052    157.367 115.841544     3.4322      6.081    34.2057 4.7411e-01     3.4727      6.335      9.188    11.7350 0.0000e+00
      6.462      0.005     0.2192      2.040    158.312 116.485156     3.4272      6.084    33.3076 4.7766e-01     3.5171      6.337      9.190    11.7725 0.0000e+00
      6.462      0.012     0.2247      2.045    159.464 117.237447     3.4293      6.086    32.1991 4.7736e-01     3.5606      6.337      9.191    11.8036 0.0000e+00
      6.464      0.023     0.2262      2.055    160.679 117.993297     3.4251      6.088    31.3851 4.7874e-01     3.6232      6.336      9.190    11.8119 0.0000e+00
      6.469      0.035     0.2207      2.064    161.581 118.488563     3.4007      6.089    30.8645 4.8009e-01     3.7271      6.342      9.199    11.8075 0.0000e+00
      6.480      0.048     0.2202      2.057    162.275 118.829478     3.3761      6.090    30.2925 4.6324e-01     3.7580      6.353      9.214    11.7923 0.0000e+00
      6.496      0.063     0.2217      2.046    163.147 119.311749     3.3770      6.092    29.7176 4.3223e-01     3.7580      6.370      9.238    11.7618 0.0000e+00
      6.516      0.079     0.2224      2.058    164.048 119.795818     3.3287      6.094    29.0765 4.0785e-01     3.7266      6.390      9.269    11.7183 0.0000e+00
      6.535      0.094     0.2250      2.062    164.817 120.158393     3.2163      6.095    28.3909 3.8818e-01     3.6519      6.408      9.294    11.6629 0.0000e+00
      6.558      0.107     0.2244      2.043    165.646 120.573294     3.1579      6.095    27.7959 3.5613e-01     3.6057      6.427      9.321    11.6070 0.0000e+00
      6.588      0.117     0.2203      2.030    166.560 121.052806     3.1554      6.096    27.0447 3.0422e-01     3.5446      6.459      9.366    11.5664 0.0000e+00
      6.625      0.122     0.2251      2.010    167.339 121.431889     3.1452      6.097    25.6744 2.5727e-01     3.4931      6.497      9.422    11.5149 0.0000e+00
      6.662      0.122     0.2268      1.980    167.951 121.715663     3.0833      6.099    24.2201 2.2802e-01     3.4955      6.535      9.479    11.4452 0.0000e+00
      6.697      0.116     0.2215      1.972    168.510 121.998591     2.9904      6.101    23.5711 1.9730e-01     3.5046      6.570      9.529    11.3923 0.0000e+00
      6.727      0.103     0.2227      1.992    168.882 122.176276     2.9462      6.104    23.5057 1.7084e-01     3.5014      6.599      9.571    11.3384 0.0000e+00
      6.751      0.085     0.2214      2.015    168.999 122.207156     2.9396      6.108    23.3438 1.5788e-01     3.4905      6.623      9.604    11.2766 0.0000e+00
      6.772      0.067     0.2154      2.014    169.068 122.244446     2.9194      6.110    22.9037 1.4732e-01     3.4079      6.642      9.632    11.2283 0.0000e+00
      6.787      0.053     0.2155      2.002    169.241 122.372246     2.8848      6.113    22.3150 1.3526e-01     3.3223      6.659      9.658    11.1943 0.0000e+00
      6.794      0.045     0.2182      2.004    169.488 122.541636     2.8703      6.116    21.5600 1.3067e-01     3.3436      6.666      9.668    11.1655 0.0000e+00
      6.797      0.043     0.2229      2.015    169.816 122.763131     2.8771      6.119    20.7446 1.3188e-01     3.3590      6.664      9.665    11.1476 0.0000e+00
      6.803      0.043     0.2219      2.018    170.259 123.074833     2.9003      6.120    19.9415 1.2855e-01     3.3719      6.668      9.671    11.1483 0.0000e+00
      6.816      0.047     0.2186      2.001    170.869 123.506460     2.9521      6.124    18.6462 1.2506e-01     3.4650      6.682      9.692    11.1531 0.0000e+00
      6.833      0.058     0.2201      1.975    172.248 124.476918     2.9869      6.128    16.9566 1.2428e-01     3.5282      6.701      9.719    11.1488 0.0000e+00
      6.850      0.075     0.2213      1.945    174.458 126.013691     2.9796      6.131    15.7745 1.2376e-01     3.5207      6.719      9.745    11.1412 0.0000e+00
      6.864      0.095     0.2230      1.922    176.227 127.173831     2.9229      6.132    15.1943 1.2366e-01     3.5102      6.731      9.762    11.1407 0.0000e+00
      6.881      0.110     0.2199      1.917    176.970 127.541451     2.8251      6.134    14.8455 1.2362e-01     3.5379      6.743      9.780    11.1399 0.0000e+00
      6.913      0.120     0.2174      1.907    177.280 127.590140     2.7712      6.136    14.1382 1.2366e-01     3.5487      6.774      9.824    11.1335 0.0000e+00
      6.960      0.125     0.2140      1.894    177.882 127.889800     2.7789      6.138    12.6653 1.2376e-01     3.5038      6.826      9.899    11.1197 0.0000e+00
      7.007      0.126     0.2098      1.889    178.749 128.423571     2.7845      6.141    11.0615 1.2382e-01     3.5078      6.877      9.976    11.0860 0.0000e+00
      7.039      0.122     0.2120      1.899    179.219 128.689502     2.7645      6.144     9.6324 1.2378e-01     3.5628      6.908     10.019    11.0328 0.0000e+00
      7.059      0.115     0.2106      1.918    179.371 128.746623     2.7450      6.146     8.2917 1.2374e-01     3.5879      6.922     10.039    10.9776 0.0000e+00
      7.079      0.106     0.2085      1.923    179.401 128.731688     2.7404      6.148     7.3262 1.2375e-01     3.5719      6.940     10.066    10.9395 0.0000e+00
      7.104      0.101     0.2082      1.906    179.223 128.572626     2.6920      6.151     6.4758 1.2379e-01     3.5066      6.966     10.103    10.9207 0.0000e+00
      7.133      0.099     0.2088      1.886    179.012 128.416976     2.5839      6.152     5.3232 1.2383e-01     3.3791      6.995     10.144    10.8978 0.0000e+00
      7.164      0.095     0.2129      1.873    178.730 128.252075     2.5157      6.153     3.8873 1.2379e-01     3.2937      7.027     10.191    10.8827 0.0000e+00
      7.192      0.090     0.2137      1.858    178.427 128.108673     2.4993      6.156     2.2783 1.2370e-01     3.2941      7.056     10.233    10.8783 0.0000e+00
      7.214      0.081     0.2110      1.840    178.370 128.149265     2.4529      6.159     0.8399 1.2365e-01     3.2819      7.077     10.264    10.8623 0.0000e+00
      7.229      0.072     0.2078      1.835    178.521 128.296770     2.3872      6.162    -0.3405 1.2368e-01     3.2487      7.089     10.283    10.8615 0.0000e+00
      7.242      0.063     0.2072      1.836    178.726 128.426118     2.3628      6.165    -1.3246 1.2371e-01     3.2345      7.102     10.301    10.8723 0.0000e+00
      7.257      0.057     0.2059      1.830    178.897 128.502065     2.3658      6.166    -2.0244 1.2375e-01     3.2466      7.117     10.323    10.8942 0.0000e+00
      7.272      0.052     0.2020      1.826    179.052 128.577564     2.3320      6.169    -2.5213 1.2379e-01     3.1900      7.133     10.345    10.9262 0.0000e+00
      7.286      0.048     0.2022      1.827    179.260 128.701497     2.2785      6.171    -2.8578 1.2378e-01     3.0975      7.146     10.365    10.9368 0.0000e+00
      7.298      0.043     0.2036      1.817    179.437 128.789373     2.2685      6.174    -3.0817 1.2372e-01     3.1176      7.158     10.382    10.9289 0.0000e+00
      7.308      0.038     0.2017      1.786    179.525 128.811347     2.2770      6.178    -3.3352 1.2371e-01     3.1602      7.168     10.396    10.9102 0.0000e+00
      7.317      0.034     0.2013      1.766    179.593 128.839651     2.2898      6.180    -3.6862 1.2374e-01     3.2032      7.175     10.407    10.8998 0.0000e+00
      7.324      0.033     0.2022      1.789    179.653 128.876587     2.3159      6.182    -4.1417 1.2375e-01     3.2949      7.183     10.417    10.8987 0.0000e+00
      7.330      0.033     0.2020      1.805    179.658 128.875477     2.3342      6.185    -4.7989 1.2375e-01     3.3470      7.188     10.426    10.8850 0.0000e+00
      7.337      0.034     0.1977      1.785    179.588 128.826224     2.3447      6.187    -5.6958 1.2375e-01     3.3200      7.194     10.434    10.8697 0.0000e+00
      7.347      0.035     0.1918      1.768    179.523 128.791029     2.3686      6.190    -6.6406 1.2374e-01     3.2420      7.204     10.448    10.8659 0.0000e+00
      7.357      0.038     0.1987      1.766    179.560 128.832405     2.4150      6.193    -7.5326 1.2370e-01     3.1890      7.217     10.467    10.8665 0.0000e+00
      7.367      0.041     0.2021      1.763    179.713 128.944053     2.4475      6.195    -8.3069 1.2375e-01     3.1915      7.225     10.480    10.8636 0.0000e+00
      7.377      0.043     0.1963      1.747    179.909 129.057299     2.4451      6.196    -8.8614 1.2383e-01     3.2050      7.232     10.489    10.8629 0.0000e+00
      7.388      0.044     0.1949      1.707    180.240 129.245459     2.4361      6.198    -9.4195 1.2383e-01     3.2154      7.244     10.506    10.8674 0.0000e+00
      7.401      0.049     0.1953      1.668    181.305 129.944111     2.4376      6.200    -9.9780 1.2384e-01     3.2495      7.258     10.526    10.8728 0.0000e+00
      7.413      0.056     0.1952      1.673    182.775 130.874761     2.4392      6.201   -10.2795 1.2387e-01     3.3097      7.270     10.544    10.8765 0.0000e+00
      7.423      0.063     0.1943      1.700    183.575 131.254169     2.4470      6.203   -10.7423 1.2382e-01     3.3627      7.280     10.558    10.8675 0.0000e+00
      7.438      0.065     0.1898      1.715    183.786 131.216358     2.4657      6.204   -11.7877 1.2375e-01     3.3773      7.291     10.573    10.8500 0.0000e+00
      7.461      0.065     0.1811      1.724    183.700 131.054905     2.4742      6.206   -12.9382 1.2372e-01     3.3504      7.315     10.609    10.8397 0.0000e+00
      7.486      0.061     0.1845      1.715    183.369 130.831972     2.4658      6.209   -13.6398 1.2374e-01     3.3103      7.346     10.655    10.8098 0.0000e+00
      7.504      0.056     0.1900      1.691    183.073 130.688446     2.4553      6.212   -13.9041 1.2378e-01     3.3027      7.364     10.680    10.7456 0.0000e+00
      7.513      0.048     0.1894      1.678    182.981 130.658377     2.4471      6.214   -14.1549 1.2376e-01     3.2927      7.368     10.686    10.6863 0.0000e+00
      7.519      0.042     0.1929      1.672    183.121 130.723456     2.4496      6.216   -14.6934 1.2376e-01     3.1892      7.372     10.693    10.6552 0.0000e+00
      7.527      0.042     0.1916      1.662    183.600 130.965273     2.4699      6.218   -15.2525 1.2381e-01     3.0757      7.382     10.706    10.6655 0.0000e+00
      7.535      0.048     0.1868      1.661    184.396 131.414513     2.4847      6.220   -15.5810 1.2377e-01     3.0477      7.389     10.717    10.6964 0.0000e+00
      7.545      0.059     0.1857      1.669    185.009 131.756182     2.4782      6.222   -15.7392 1.2370e-01     3.0557      7.396     10.729    10.7067 0.0000e+00
      7.560      0.070     0.1864      1.663    185.154 131.781135     2.4157      6.224   -15.7893 1.2374e-01     3.1041      7.411     10.749    10.6984 0.0000e+00
      7.583      0.079     0.1842      1.649    185.079 131.652381     2.3207      6.225   -15.7563 1.2377e-01     3.2229      7.434     10.783    10.6656 0.0000e+00
      7.609      0.084     0.1835      1.642    185.008 131.538171     2.2772      6.226   -15.7707 1.2378e-01     3.2967      7.462     10.823    10.6263 0.0000e+00
      7.635      0.085     0.1872      1.642    184.988 131.483959     2.2742      6.228   -15.8771 1.2378e-01     3.2792      7.489     10.862    10.6048 0.0000e+00
      7.658      0.081     0.1852      1.636    185.039 131.506888     2.2505      6.230   -15.9251 1.2373e-01     3.2846      7.513     10.897    10.5846 0.0000e+00
      7.677      0.074     0.1832      1.615    185.116 131.560374     2.1992      6.233   -15.9203 1.2373e-01     3.3276      7.531     10.921    10.5627 0.0000e+00
      7.694      0.065     0.1826      1.603    185.022 131.493128     2.1700      6.235   -15.9903 1.2379e-01     3.3543      7.545     10.943    10.5445 0.0000e+00
      7.709      0.058     0.1829      1.615    184.806 131.331346     2.1719      6.236   -16.2566 1.2384e-01     3.3352      7.560     10.965    10.5326 0.0000e+00
      7.723      0.053     0.1837      1.623    184.750 131.261831     2.1899      6.237   -16.7306 1.2385e-01     3.2669      7.575     10.986    10.5317 0.0000e+00
      7.735      0.050     0.1794      1.619    184.861 131.290117     2.2114      6.238   -17.2471 1.2379e-01     3.1436      7.585     11.002    10.5324 0.0000e+00
      7.745      0.050     0.1769      1.609    184.940 131.290785     2.2162      6.240   -17.5972 1.2372e-01     3.0061      7.596     11.016    10.5320 0.0000e+00
      7.756      0.049     0.1805      1.580    184.961 131.269842     2.2142      6.243   -17.7799 1.2372e-01     2.9367      7.606     11.032    10.5326 0.0000e+00
      7.769      0.049     0.1818      1.555    185.000 131.291870     2.2203      6.245   -17.9941 1.2369e-01     2.9875      7.618     11.050    10.5237 0.0000e+00
      7.784      0.049     0.1796      1.542    184.989 131.302110     2.2403      6.247   -18.2077 1.2368e-01     3.1419      7.635     11.073    10.5085 0.0000e+00
      7.799      0.048     0.1814      1.531    184.901 131.266157     2.2563      6.248   -18.2978 1.2375e-01     3.2322      7.649     11.094    10.4911 0.0000e+00
      7.811      0.047     0.1758      1.531    184.848 131.239715     2.2549      6.249   -18.3953 1.2378e-01     3.2247      7.660     11.109    10.4795 0.0000e+00
      7.821      0.047     0.1723      1.535    184.864 131.237419     2.2399      6.251   -18.7840 1.2374e-01     3.2225      7.670     11.124    10.4800 0.0000e+00
      7.831      0.047     0.1730      1.535    184.897 131.238374     2.2257      6.252   -19.6421 1.2374e-01     3.2054      7.679     11.138    10.4853 0.0000e+00
      7.842      0.049     0.1695      1.543    184.969 131.251236     2.2249      6.253   -20.8546 1.2376e-01     3.1552      7.689     11.152    10.4956 0.0000e+00
      7.854      0.052     0.1710      1.548    185.069 131.265391     2.2219      6.255   -22.0012 1.2380e-01     3.0941      7.701     11.169    10.5007 0.0000e+00
      7.868      0.055     0.1715      1.540    185.157 131.281952     2.2225      6.258   -22.7499 1.2381e-01     3.0462      7.715     11.190    10.4925 0.0000e+00
      7.884      0.057     0.1704      1.535    185.242 131.323916     2.2318      6.260   -23.3685 1.2377e-01     3.0205      7.731     11.213    10.4882 0.0000e+00
      7.901      0.057     0.1722      1.542    185.348 131.390246     2.2345      6.262   -24.3185 1.2379e-01     3.0218      7.748     11.238    10.4808 0.0000e+00
      7.916      0.056     0.1738      1.540    185.443 131.446408     2.2217      6.264   -25.4606 1.2386e-01     3.0282      7.764     11.260    10.4592 0.0000e+00
      7.930      0.055     0.1718      1.534    185.515 131.492935     2.1852      6.266   -26.4229 1.2384e-01     2.9956      7.777     11.279    10.4452 0.0000e+00
      7.942      0.054     0.1700      1.519    185.790 131.697790     2.1507      6.267   -27.0918 1.2379e-01     2.9700      7.789     11.297    10.4435 0.0000e+00
      7.954      0.053     0.1735      1.502    186.400 132.138199     2.1382      6.268   -27.5250 1.2377e-01     2.9914      7.800     11.313    10.4425 0.0000e+00
      7.967      0.053     0.1717      1.509    186.995 132.546367     2.1334      6.270   -28.1334 1.2373e-01     3.0152      7.813     11.331    10.4381 0.0000e+00
      7.982      0.054     0.1714      1.509    187.245 132.680102     2.1349      6.272   -29.1129 1.2372e-01     3.0188      7.828     11.354    10.4354 0.0000e+00
      7.997      0.056     0.1711      1.487    187.333 132.671278     2.1646      6.273   -29.9894 1.2372e-01     3.0353      7.843     11.376    10.4398 0.0000e+00
      8.011      0.056     0.1646      1.477    187.470 132.694626     2.2093      6.274   -30.3860 1.2368e-01     3.0428      7.856     11.394    10.4451 0.0000e+00
      8.025      0.055     0.1698      1.488    187.548 132.707293     2.2260      6.276   -30.5530 1.2362e-01     3.0417      7.869     11.412    10.4408 0.0000e+00
      8.040      0.052     0.1703      1.500    187.556 132.696874     2.2164      6.278   -30.9748 1.2365e-01     3.0560      7.884     11.435    10.4304 0.0000e+00
      8.055      0.050     0.1647      1.501    187.567 132.696155     2.2102      6.279   -31.6138 1.2374e-01     3.0448      7.900     11.459    10.4091 0.0000e+00
      8.067      0.050     0.1643      1.498    187.590 132.698592     2.2187      6.281   -32.0853 1.2377e-01     3.0424      7.913     11.477    10.3840 0.0000e+00
      8.077      0.050     0.1662      1.488    187.655 132.726318     2.2270      6.281   -32.2873 1.2376e-01     3.0617      7.921     11.486    10.3744 0.0000e+00
      8.087      0.050     0.1688      1.479    187.740 132.776340     2.2271      6.282   -32.3356 1.2377e-01     3.0737      7.930     11.500    10.3724 0.0000e+00
      8.101      0.052     0.1673      1.484    187.770 132.793337     2.2034      6.283   -32.4121 1.2371e-01     3.0504      7.944     11.522    10.3714 0.0000e+00
      8.117      0.055     0.1684      1.501    187.798 132.804315     2.1640      6.286   -32.6095 1.2363e-01     2.9851      7.960     11.545    10.3676 0.0000e+00
      8.132      0.059     0.1664      1.512    187.973 132.909062     2.1426      6.288   -32.8299 1.2371e-01     2.9673      7.975     11.567    10.3604 0.0000e+00
      8.146      0.061     0.1646      1.505    188.312 133.103442     2.1357      6.289   -33.0111 1.2383e-01     3.0060      7.987     11.585    10.3586 0.0000e+00
      8.161      0.062     0.1655      1.495    188.707 133.305539     2.1393      6.290   -33.1656 1.2378e-01     3.0440      8.002     11.606    10.3593 0.0000e+00
      8.178      0.062     0.1678      1.470    189.105 133.503539     2.1446      6.292   -33.2356 1.2372e-01     3.0501      8.020     11.632    10.3562 0.0000e+00
      8.196      0.062     0.1709      1.435    189.486 133.712113     2.1411      6.294   -33.2549 1.2377e-01     3.0458      8.038     11.659    10.3533 0.0000e+00
      8.212      0.062     0.1677      1.427    189.821 133.914541     2.1387      6.295   -33.3136 1.2382e-01     3.0607      8.054     11.681    10.3434 0.0000e+00
      8.227      0.061     0.1680      1.438    190.118 134.102010     2.1408      6.296   -33.4290 1.2377e-01     3.0590      8.068     11.700    10.3185 0.0000e+00
      8.242      0.058     0.1661      1.435    190.370 134.257233     2.1495      6.298   -33.6174 1.2372e-01     3.0597      8.083     11.723    10.2935 0.0000e+00
      8.257      0.056     0.1587      1.435    190.499 134.324793     2.1609      6.300   -33.7853 1.2373e-01     3.0686      8.098     11.745    10.2775 0.0000e+00
      8.271      0.054     0.1588      1.443    190.457 134.281229     2.1622      6.300   -33.9098 1.2373e-01     3.0639      8.111     11.764    10.2701 0.0000e+00
      8.283      0.051     0.1631      1.446    190.397 134.240580     2.1576      6.302   -34.0906 1.2371e-01     3.1395      8.123     11.782    10.2664 0.0000e+00
      8.296      0.049     0.1603      1.456    190.523 134.343409     2.1548      6.304   -34.4222 1.2373e-01     3.3340      8.135     11.800    10.2598 0.0000e+00
      8.310      0.048     0.1599      1.459    190.907 134.631877     2.1526      6.304   -35.0800 1.2377e-01     3.4695      8.149     11.819    10.2526 0.0000e+00
      8.321      0.050     0.1630      1.438    191.492 135.050427     2.1558      6.305   -35.9348 1.2377e-01     3.4794      8.161     11.837    10.2483 0.0000e+00
      8.331      0.054     0.1612      1.419    192.012 135.386987     2.1443      6.306   -36.4988 1.2377e-01     3.3501      8.169     11.849    10.2492 0.0000e+00
      8.342      0.058     0.1635      1.410    192.276 135.512948     2.1051      6.309   -36.8224 1.2377e-01     3.1017      8.177     11.861    10.2540 0.0000e+00
      8.358      0.061     0.1656      1.405    192.498 135.616881     2.0811      6.312   -37.4376 1.2374e-01     2.9699      8.194     11.884    10.2588 0.0000e+00
      8.378      0.063     0.1605      1.414    192.834 135.814631     2.0792      6.313   -38.2588 1.2374e-01     2.9870      8.217     11.917    10.2640 0.0000e+00
      8.398      0.064     0.1583      1.425    193.146 135.990906     2.0823      6.313   -39.0092 1.2376e-01     3.0691      8.238     11.948    10.2568 0.0000e+00
      8.414      0.063     0.1590      1.430    193.426 136.153994     2.0846      6.314   -39.9703 1.2376e-01     3.1086      8.252     11.969    10.2341 0.0000e+00
      8.428      0.061     0.1564      1.435    193.937 136.511137     2.0819      6.315   -41.1893 1.2371e-01     3.0542      8.265     11.988    10.2211 0.0000e+00
      8.441      0.060     0.1587      1.437    194.887 137.184451     2.0834      6.316   -42.3048 1.2366e-01     3.0614      8.279     12.006    10.2152 0.0000e+00
      8.456      0.061     0.1607      1.429    196.076 137.981765     2.0699      6.316   -43.1333 1.2371e-01     3.1607      8.292     12.027    10.2008 0.0000e+00
      8.471      0.062     0.1601      1.420    197.133 138.626295     2.0438      6.316   -43.8071 1.2380e-01     3.2645      8.306     12.047    10.1890 0.0000e+00
      8.488      0.063     0.1614      1.414    197.994 139.110141     2.0416      6.320   -44.4296 1.2385e-01     3.3250      8.323     12.071    10.1907 0.0000e+00
      8.506      0.063     0.1620      1.405    198.864 139.622583     2.0519      6.323   -44.8941 1.2386e-01     3.3458      8.341     12.098    10.1982 0.0000e+00
      8.525      0.062     0.1605      1.403    199.917 140.293877     2.0609      6.323   -45.2081 1.2381e-01     3.3110      8.360     12.127    10.1904 0.0000e+00
      8.540      0.059     0.1592      1.398    201.062 141.040020     2.0832      6.324   -45.3867 1.2374e-01     3.2470      8.376     12.150    10.1604 0.0000e+00
      8.554      0.055     0.1598      1.392    202.165 141.755703     2.0957      6.325   -45.5912 1.2369e-01     3.2200      8.387     12.165    10.1247 0.0000e+00
      8.567      0.051     0.1572      1.390    203.293 142.504929     2.0879      6.326   -45.9592 1.2374e-01     3.2243      8.401     12.185    10.0991 0.0000e+00
      8.579      0.048     0.1584      1.384    204.332 143.209897     2.0803      6.326   -46.3948 1.2380e-01     3.2308      8.414     12.203    10.0847 0.0000e+00
      8.590      0.046     0.1578      1.378    205.000 143.645432     2.0456      6.326   -46.9864 1.2381e-01     3.1614      8.424     12.218    10.0727 0.0000e+00
      8.601      0.046     0.1559      1.375    204.568 143.305629     1.9846      6.327   -47.6915 1.2380e-01     3.0349      8.435     12.234    10.0553 0.0000e+00
      8.612      0.046     0.1577      1.390    202.962 142.163057     1.9509      6.328   -48.2959 1.2371e-01     2.9645      8.444     12.248    10.0435 0.0000e+00
      8.623      0.047     0.1552      1.406    201.549 141.184864     1.9546      6.330   -48.7016 1.2367e-01     2.9595      8.456     12.265    10.0434 0.0000e+00
      8.636      0.049     0.1559      1.390    200.647 140.599821     1.9955      6.331   -48.9833 1.2371e-01     3.0082      8.470     12.283    10.0342 0.0000e+00
      8.648      0.051     0.1540      1.373    200.407 140.510854     2.0540      6.332   -49.2066 1.2375e-01     3.0755      8.481     12.300    10.0211 0.0000e+00
      8.661      0.053     0.1557      1.369    200.706 140.810774     2.0885      6.333   -49.4229 1.2376e-01     3.1235      8.494     12.318    10.0175 0.0000e+00
      8.676      0.054     0.1618      1.364    200.105 140.463104     2.0958      6.335   -49.9624 1.2372e-01     3.1105      8.509     12.341    10.0193 0.0000e+00
      8.691      0.056     0.1556      1.360    199.653 140.197922     2.0915      6.337   -50.8256 1.2367e-01     3.0550      8.524     12.362    10.0310 0.0000e+00
      8.705      0.058     0.1539      1.360    202.431 142.196731     2.0867      6.337   -51.5143 1.2363e-01     3.0675      8.537     12.382    10.0529 0.0000e+00
      8.718      0.060     0.1548      1.368    208.278 146.323221     2.0881      6.337   -51.9233 1.2368e-01     3.1597      8.549     12.400    10.0780 0.0000e+00
      8.733      0.060     0.1531      1.373    213.462 149.900913     2.0915      6.337   -52.2427 1.2376e-01     3.2123      8.564     12.420    10.0983 0.0000e+00
      8.750      0.061     0.1530      1.368    216.039 151.575779     2.0779      6.338   -52.5376 1.2373e-01     3.1233      8.581     12.446    10.1071 0.0000e+00
      8.767      0.061     0.1525      1.378    217.705 152.599334     2.0567      6.338   -52.9066 1.2369e-01     3.0402      8.598     12.471    10.1204 0.0000e+00
      8.783      0.061     0.1539      1.413    220.331 154.299179     2.0434      6.338   -53.3494 1.2371e-01     3.0272      8.614     12.494    10.1338 0.0000e+00
      8.797      0.061     0.1556      1.424    223.532 156.364089     2.0345      6.338   -53.8473 1.2375e-01     3.0001      8.628     12.514    10.1164 0.0000e+00
      8.812      0.060     0.1533      1.393    226.222 158.034780     2.0402      6.338   -54.3660 1.2381e-01     3.0205      8.641     12.532    10.0780 0.0000e+00
      8.828      0.059     0.1533      1.369    228.212 159.243208     2.0462      6.338   -54.8030 1.2383e-01     3.0350      8.656     12.555    10.0426 0.0000e+00
      8.844      0.059     0.1610      1.388    229.639 160.122559     2.0401      6.339   -55.2589 1.2378e-01     3.0043      8.673     12.579    10.0172 0.0000e+00
      8.860      0.059     0.1631      1.402    230.728 160.814431     2.0329      6.340   -55.6634 1.2373e-01     2.9906      8.688     12.601     9.9786 0.0000e+00
      8.875      0.058     0.1573      1.373    231.463 161.288015     2.0005      6.341   -55.8214 1.2372e-01     2.9718      8.703     12.623     9.9232 0.0000e+00
      8.889      0.056     0.1514      1.326    231.705 161.443272     1.9397      6.342   -55.9646 1.2378e-01     2.9478      8.717     12.643     9.8811 0.0000e+00
      8.902      0.053     0.1578      1.296    232.185 161.797788     1.8967      6.342   -56.1906 1.2377e-01     2.9395      8.730     12.661     9.8580 0.0000e+00
      8.916      0.048     0.1613      1.297    233.433 162.701251     1.8896      6.344   -56.3171 1.2369e-01     2.9404      8.744     12.682     9.8454 0.0000e+00
      8.929      0.043     0.1561      1.313    234.736 163.619633     1.9283      6.346   -56.3750 1.2372e-01     2.9585      8.757     12.701     9.8372 0.0000e+00
      8.940      0.038     0.1494      1.314    235.715 164.281986     1.9897      6.347   -56.5461 1.2378e-01     2.9874      8.768     12.717     9.8324 0.0000e+00
      8.949      0.034     0.1452      1.311    236.835 165.026658     2.0162      6.347   -57.0091 1.2377e-01     3.0168      8.777     12.730     9.8385 0.0000e+00
      8.955      0.034     0.1459      1.330    238.080 165.854505     2.0243      6.347   -57.5857 1.2375e-01     3.0400      8.783     12.738     9.8500 0.0000e+00
      8.960      0.037     0.1497      1.349    240.613 167.586237     2.0295      6.347   -58.0107 1.2377e-01     3.0289      8.788     12.744     9.8522 0.0000e+00
      8.966      0.042     0.1498      1.352    243.261 169.422742     2.0200      6.348   -58.4492 1.2380e-01     3.0191      8.791     12.751     9.8459 0.0000e+00
      8.976      0.047     0.1461      1.335    242.656 169.026527     2.0179      6.350   -59.2736 1.2377e-01     3.0236      8.800     12.762     9.8381 0.0000e+00
      8.992      0.046     0.1517      1.306    241.350 168.161796     2.0202      6.353   -60.8378 1.2371e-01     3.0154      8.817     12.787     9.8290 0.0000e+00
      9.014      0.034     0.1532      1.295    239.930 167.207244     2.0068      6.355   -63.2509 1.2377e-01     3.0230      8.841     12.823     9.8206 0.0000e+00
      9.032      0.002     0.1540      1.283    232.086 161.763719     1.9809      6.356   -65.9079 1.2382e-01     3.0470      8.862     12.852     9.8182 0.0000e+00
      9.039     -0.058     0.1525      1.259    219.415 153.035390     1.9647      6.360   -67.4953 1.2378e-01     3.0668      8.868     12.862     9.8243 0.0000e+00
      9.031     -0.142     0.1460      1.254    211.109 147.531266     1.9689      6.366   -67.9900 1.2378e-01     3.0576      8.864     12.855     9.8358 0.0000e+00
      9.000     -0.233     0.1468      1.259    207.534 145.444124     1.9902      6.371   -68.5340 1.2383e-01     3.0379      8.842     12.824     9.8460 0.0000e+00
      8.929     -0.310     0.1471      1.259    203.850 143.239964     2.0315      6.375   -69.5115 1.2384e-01     3.0682      8.775     12.729     9.8430 0.0000e+00
      8.810     -0.352     0.1404      1.270    198.869 140.018648     2.0600      6.380   -70.7754 1.2380e-01     3.1158      8.648     12.543     9.8516 0.0000e+00
      8.666     -0.351     0.1414      1.285    195.184 137.621543     2.0519      6.385   -71.6839 1.2371e-01     3.1357      8.493     12.317     9.9276 0.0000e+00
      8.536     -0.308     0.1431      1.303    195.083 137.663510     2.0498      6.389   -72.0639 1.2366e-01     3.1715      8.354     12.118    10.0455 0.0000e+00
      8.452     -0.235     0.1399      1.332    196.226 138.485998     2.0759      6.393   -72.4446 1.2375e-01     3.2420      8.267     11.990    10.1421 0.0000e+00
      8.423     -0.148     0.1430      1.347    196.778 138.829538     2.0933      6.396   -72.9321 1.2380e-01     3.2697      8.248     11.961    10.2081 0.0000e+00
      8.429     -0.069     0.1440      1.337    197.113 139.011082     2.0933      6.398   -73.2260 1.2374e-01     3.3016      8.266     11.988    10.2592 0.0000e+00
      8.443     -0.014     0.1451      1.337    197.189 139.022802     2.0762      6.398   -73.3309 1.2372e-01     4.0038      8.283     12.013    10.2911 0.0000e+00
      8.451      0.012     0.1497      1.347    196.967 138.843631     2.0363      6.399   -73.6836 1.2370e-01     5.3034      8.290     12.023    10.2908 0.0000e+00
      8.456      0.016     0.1530      1.335    197.039 138.885543     2.0106      6.402   -74.3935 1.2365e-01     6.0003      8.293     12.028    10.2727 0.0000e+00
      8.457      0.009     0.1491      1.311    197.895 139.465777     2.0069      6.403   -75.2033 1.2367e-01     6.0079      8.295     12.030    10.2580 0.0000e+00
      8.457      0.003     0.1486      1.297    199.535 140.565645     1.9827      6.404   -75.8173 1.2377e-01     5.2588      8.294     12.029    10.2472 0.0000e+00
      8.456     -0.000     0.1531      1.296    200.655 141.277446     1.9345      6.405   -76.4832 1.2383e-01     3.8780      8.293     12.028    10.2403 0.0000e+00
      8.455     -0.001     0.1503      1.315    200.431 141.056022     1.9069      6.406   -77.3177 1.2385e-01     3.1468      8.292     12.026    10.2426 0.0000e+00
      8.455     -0.002     0.1458      1.316    200.601 141.141358     1.9152      6.407   -78.0778 1.2382e-01     3.1138      8.291     12.025    10.2382 0.0000e+00
      8.455     -0.015     0.1461      1.287    200.878 141.288722     1.9606      6.408   -78.9621 1.2375e-01     3.2049      8.291     12.026    10.2231 0.0000e+00
      8.456     -0.053     0.1433      1.267    199.518 140.286335     2.0143      6.410   -79.4920 1.2371e-01     3.3262      8.291     12.026    10.2010 0.0000e+00
      8.458     -0.120     0.1490      1.262    197.390 138.843791     2.0316      6.413   -79.2356 1.2371e-01     3.3512      8.294     12.029    10.1800 0.0000e+00
      8.451     -0.204     0.1505      1.259    195.695 137.814653     2.0285      6.415   -78.8737 1.2368e-01     3.3016      8.302     12.042    10.1803 0.0000e+00
      8.404     -0.287     0.1427      1.250    194.496 137.154423     2.0263      6.417   -78.9877 1.2371e-01     3.2727      8.268     11.991    10.1692 0.0000e+00
      8.294     -0.356     0.1427      1.243    193.416 136.536913     2.0382      6.420   -79.4955 1.2380e-01     3.2414      8.148     11.818    10.1413 0.0000e+00
      8.146     -0.398     0.1415      1.253    192.267 135.832681     2.0730      6.422   -80.0235 1.2382e-01     3.2299      7.983     11.579    10.1548 0.0000e+00
      8.003     -0.399     0.1418      1.273    191.179 135.143991     2.0976      6.422   -80.4682 1.2378e-01     3.2709      7.836     11.365    10.2095 0.0000e+00
      7.890     -0.354     0.1403      1.281    190.404 134.650382     2.0940      6.423   -80.8280 1.2372e-01     3.2584      7.728     11.209    10.2614 0.0000e+00
      7.805     -0.274     0.1384      1.276    190.183 134.519295     2.0963      6.425   -81.2761 1.2367e-01     3.1476      7.647     11.090    10.2972 0.0000e+00
      7.747     -0.191     0.1395      1.283    190.263 134.579273     2.1173      6.427   -81.9286 1.2369e-01     3.0245      7.585     11.001    10.3235 0.0000e+00
      7.722     -0.130     0.1434      1.301    190.317 134.610435     2.1323      6.428   -82.3507 1.2374e-01     2.9992      7.561     10.966    10.3446 0.0000e+00
      7.727     -0.100     0.1441      1.304    190.282 134.577265     2.1356      6.430   -82.4223 1.2379e-01     3.0124      7.577     10.989    10.3598 0.0000e+00
      7.735     -0.096     0.1420      1.298    190.171 134.497019     2.1396      6.432   -82.3636 1.2383e-01     3.0132      7.596     11.017    10.3650 0.0000e+00
      7.720     -0.111     0.1425      1.288    190.031 134.405334     2.1401      6.433   -82.1563 1.2387e-01     3.0433      7.582     10.997    10.3649 0.0000e+00
      7.675     -0.142     0.1469      1.267    189.863 134.297624     2.1408      6.434   -82.1537 1.2388e-01     3.0695      7.531     10.923    10.3627 0.0000e+00
      7.617     -0.183     0.1463      1.250    189.545 134.087385     2.1482      6.436   -82.5898 1.2383e-01     3.0901      7.467     10.830    10.3590 0.0000e+00
      7.563     -0.225     0.1445      1.238    189.060 133.776203     2.1379      6.438   -82.7843 1.2377e-01     3.1561      7.415     10.753    10.3591 0.0000e+00
      7.512     -0.260     0.1458      1.228    188.708 133.595670     2.1166      6.439   -82.6982 1.2375e-01     3.2533      7.371     10.690    10.3610 0.0000e+00
      7.451     -0.284     0.1406      1.230    188.529 133.562424     2.1076      6.440   -83.0106 1.2376e-01     3.3084      7.316     10.610    10.3643 0.0000e+00
      7.371     -0.298     0.1398      1.231    188.144 133.374333     2.1035      6.440   -83.5502 1.2373e-01     3.3100      7.235     10.494    10.3679 0.0000e+00
      7.274     -0.299     0.1387      1.216    187.583 133.043055     2.1090      6.440   -83.8877 1.2369e-01     3.2388      7.134     10.347    10.3722 0.0000e+00
      7.176     -0.289     0.1363      1.207    187.188 132.808703     2.1317      6.441   -84.0806 1.2375e-01     3.1307      7.030     10.197    10.3917 0.0000e+00
      7.096     -0.266     0.1375      1.218    187.013 132.708600     2.1443      6.441   -84.1609 1.2378e-01     3.0621      6.948     10.078    10.4221 0.0000e+00
      7.039     -0.231     0.1386      1.221    186.843 132.597836     2.1368      6.442   -84.1713 1.2374e-01     3.0237      6.898     10.005    10.4438 0.0000e+00
      6.997     -0.193     0.1356      1.216    186.498 132.362051     2.1331      6.443   -84.2058 1.2374e-01     3.0077      6.863      9.955    10.4614 0.0000e+00
      6.957     -0.162     0.1328      1.223    186.088 132.089200     2.1323      6.445   -84.2338 1.2375e-01     3.0059      6.822      9.895    10.4752 0.0000e+00
      6.919     -0.145     0.1370      1.228    185.872 131.976541     2.1357      6.446   -84.3381 1.2372e-01     3.0361      6.782      9.836    10.4795 0.0000e+00
      6.887     -0.143     0.1367      1.234    185.961 132.083773     2.1410      6.446   -84.6066 1.2371e-01     3.0650      6.752      9.792    10.4814 0.0000e+00
      6.861     -0.150     0.1344      1.256    186.153 132.238218     2.1390      6.446   -85.0708 1.2398e-01     3.0822      6.729      9.760    10.4832 0.0000e+00
      6.830     -0.163     0.1369      1.273    186.264 132.313842     2.1442      6.446   -85.6489 1.2707e-01     3.1417      6.704      9.723    10.4854 0.0000e+00
      6.785     -0.181     0.1371      1.264    186.245 132.296835     2.1458      6.446   -86.2614 1.4545e-01     3.1694      6.659      9.658    10.4986 0.0000e+00
      6.730     -0.205     0.1364      1.245    185.945 132.096339     2.1413      6.447   -86.7986 1.8400e-01     3.1436      6.600      9.572    10.5154 0.0000e+00
      6.674     -0.234     0.1400      1.232    185.378 131.738558     2.1738      6.449   -86.9818 2.2826e-01     3.1034      6.545      9.492    10.5183 0.0000e+00
      6.615     -0.259     0.1438      1.226    184.538 131.222444     2.2384      6.450   -86.8422 2.8967e-01     3.0588      6.491      9.415    10.5151 0.0000e+00
      6.549     -0.275     0.1411      1.217    183.553 130.637536     2.2724      6.452   -87.0032 3.8442e-01     3.0139      6.425      9.320    10.5132 0.0000e+00
      6.470     -0.276     0.1381      1.192    183.208 130.531678     2.2862      6.452   -87.8101 5.0082e-01     2.9709      6.349      9.208    10.5143 0.0000e+00
      6.384     -0.265     0.1374      1.164    183.394 130.771448     2.4719      6.452   -88.6820 6.3324e-01     3.0172      6.260      9.079    10.5258 0.0000e+00
      6.301     -0.245     0.1360      1.166    183.198 130.667963     2.8112      6.452   -88.9417 7.4910e-01     3.1298      6.172      8.952    10.5495 0.0000e+00
      6.238     -0.220     0.1367      1.183    182.764 130.364239     2.9933      6.454   -88.3683 8.1475e-01     3.1708      6.108      8.859    10.5789 0.0000e+00
      6.198     -0.190     0.1333      1.183    182.729 130.350391     3.0172      6.455   -87.4281 8.5194e-01     3.1712      6.072      8.808    10.6240 0.0000e+00
      6.170     -0.154     0.1271      1.166    182.851 130.436794     3.1085      6.456   -86.7807 8.9754e-01     3.2710      6.056      8.782    10.6610 0.0000e+00
      6.134     -0.118     0.1288      1.169    182.274 130.006439     3.2728      6.458   -86.4769 9.7050e-01     3.4214      6.021      8.733    10.6624 0.0000e+00
      6.091     -0.088     0.1325      1.194    180.884 129.035585     3.3647      6.459   -86.2491 1.0373e+00     3.4865      5.965      8.652    10.6598 0.0000e+00
      6.065     -0.063     0.1325      1.205    179.105 127.877738     3.3791      6.462   -86.0055 1.0376e+00     3.5115      5.937      8.610    10.6661 0.0000e+00
      6.062     -0.040     0.1285      1.204    177.548 126.970871     3.3635      6.463   -85.6827 9.9078e-01     3.5191      5.944      8.621    10.6696 0.0000e+00
      6.067     -0.016     0.1279      1.189    175.997 126.102261     3.3010      6.463   -85.1004 9.6091e-01     3.4763      5.952      8.633    10.6553 0.0000e+00
      6.069      0.004     0.1347      1.165    173.849 124.769001     3.2310      6.462   -84.0413 9.2959e-01     3.4727      5.952      8.632    10.6550 0.0000e+00
      6.071      0.011     0.1336      1.179    173.269 124.553274     3.1998      6.461   -82.8568 8.7610e-01     3.5097      5.952      8.633    10.6876 0.0000e+00
      6.076      0.003     0.1339      1.199    174.736 125.788358     3.1898      6.460   -82.4813 8.3546e-01     3.5127      5.957      8.640    10.7469 0.0000e+00
      6.081     -0.021     0.1334      1.186    176.381 127.019757     3.0764      6.459   -82.7706 8.1410e-01     3.4411      5.966      8.651    10.8333 0.0000e+00
      6.085     -0.064     0.1255      1.187    178.236 128.224634     2.8530      6.458   -82.9991 8.0769e-01     3.3265      5.969      8.657    10.8804 0.0000e+00
      6.080     -0.121     0.1295      1.225    179.397 128.819241     2.7275      6.458   -83.1791 8.3250e-01     3.2880      5.969      8.657    10.9356 0.0000e+00
      6.054     -0.181     0.1357      1.260    179.284 128.536042     2.7239      6.459   -83.3125 9.4031e-01     3.2840      5.952      8.633    11.0090 0.0000e+00
      5.990     -0.235     0.1289      1.259    178.712 128.051207     2.7765      6.460   -83.2353 1.1358e+00     3.3467      5.887      8.539    11.0223 0.0000e+00
      5.895     -0.277     0.1290      1.237    177.971 127.546526     2.8642      6.461   -83.1059 1.3353e+00     3.4988      5.780      8.382    10.9835 0.0000e+00
      5.797     -0.302     0.1355      1.224    177.036 126.959646     2.9101      6.461   -83.1239 1.5019e+00     3.5516      5.678      8.235    10.8940 0.0000e+00
      5.714     -0.309     0.1414      1.212    175.708 126.118236     2.9231      6.462   -83.4524 1.6443e+00     3.5409      5.600      8.122    10.8280 0.0000e+00
      5.642     -0.299     0.1405      1.194    174.165 125.149073     2.9554      6.464   -83.9813 1.7724e+00     3.5751      5.532      8.023    10.8152 0.0000e+00
      5.573     -0.274     0.1355      1.174    172.386 124.037074     3.0004      6.464   -84.5288 1.9118e+00     3.6238      5.465      7.927    10.8242 0.0000e+00
      5.504     -0.243     0.1357      1.164    170.162 122.615244     3.0268      6.465   -84.9953 2.0761e+00     3.6170      5.399      7.830    10.8536 0.0000e+00
      5.435     -0.209     0.1341      1.170    167.960 121.213135     3.0333      6.468   -84.8893 2.2407e+00     3.5265      5.329      7.728    10.8833 0.0000e+00
      5.375     -0.171     0.1322      1.180    166.908 120.657425     3.1037      6.468   -84.3665 2.3557e+00     3.4518      5.263      7.632    10.9222 0.0000e+00
      5.336     -0.131     0.1288      1.180    167.288 121.121440     3.2528      6.466   -84.0080 2.3985e+00     3.4314      5.224      7.576    10.9733 0.0000e+00
      5.318     -0.091     0.1274      1.181    167.453 121.343870     3.3470      6.464   -83.9099 2.4051e+00     3.4172      5.213      7.560    11.0267 0.0000e+00
      5.310     -0.056     0.1282      1.191    167.895 121.690255     3.3609      6.463   -83.9555 2.4185e+00     3.4166      5.207      7.551    11.0793 0.0000e+00
      5.304     -0.030     0.1307      1.205    169.779 123.015185     3.3870      6.464   -83.9565 2.4292e+00     3.4583      5.200      7.542    11.1396 0.0000e+00
      5.301     -0.015     0.1289      1.206    170.956 123.726523     3.4543      6.465   -83.9223 2.4306e+00     3.5115      5.199      7.540    11.2122 0.0000e+00
      5.299     -0.007     0.1293      1.208    171.174 123.727483     3.5007      6.465   -83.9719 2.4279e+00     3.5473      5.197      7.537    11.2381 0.0000e+00
      5.298     -0.006     0.1299      1.213    171.724 124.046223     3.4984      6.464   -84.1259 2.4156e+00     3.5831      5.194      7.534    11.2380 0.0000e+00
      5.299     -0.015     0.1335      1.203    171.823 124.075228     3.4926      6.463   -84.3215 2.3977e+00     3.6029      5.195      7.535    11.2439 0.0000e+00
      5.300     -0.036     0.1321      1.202    170.903 123.377159     3.4971      6.463   -84.6155 2.3729e+00     3.5819      5.198      7.539    11.1854 0.0000e+00
      5.300     -0.070     0.1319      1.215    169.193 122.169819     3.4955      6.464   -85.2723 2.3703e+00     3.5337      5.200      7.543    11.1225 0.0000e+00
      5.290     -0.108     0.1353      1.228    167.149 120.820374     3.4893      6.466   -85.7240 2.4565e+00     3.4642      5.197      7.536    11.1148 0.0000e+00
      5.256     -0.143     0.1310      1.216    165.025 119.486953     3.4721      6.469   -85.3453 2.6635e+00     3.3562      5.165      7.490    11.1041 0.0000e+00
      5.198     -0.168     0.1320      1.183    162.675 118.026489     3.4371      6.472   -84.9953 2.9371e+00     3.2534      5.100      7.397    11.0862 0.0000e+00
      5.130     -0.183     0.1331      1.148    160.841 116.987804     3.4154      6.475   -85.2772 3.1666e+00     3.2110      5.026      7.291    11.0890 0.0000e+00
      5.073     -0.185     0.1367      1.129    160.003 116.676224     3.4185      6.477   -85.4847 3.3079e+00     3.2200      4.968      7.205    11.1298 0.0000e+00
      5.032     -0.175     0.1344      1.139    159.387 116.425616     3.4577      6.479   -85.0953 3.4178e+00     3.2596      4.933      7.154    11.1992 0.0000e+00
      4.998     -0.155     0.1294      1.153    159.010 116.251327     3.5153      6.480   -84.5268 3.5548e+00     3.2808      4.904      7.112    11.2675 0.0000e+00
      4.962     -0.138     0.1252      1.160    158.885 116.225337     3.5404      6.481   -84.3748 3.7040e+00     3.3058      4.866      7.058    11.3598 0.0000e+00
      4.926     -0.130     0.1212      1.168    158.433 115.920316     3.5538      6.482   -84.3753 3.8130e+00     3.3564      4.828      7.002    11.4742 0.0000e+00
      4.897     -0.135     0.1243      1.175    157.844 115.493762     3.5601      6.484   -83.9310 3.8847e+00     3.3462      4.800      6.961    11.5341 0.0000e+00
      4.872     -0.146     0.1262      1.200    157.304 115.144913     3.5174      6.486   -83.3916 3.9886e+00     3.2844      4.781      6.934    11.5498 0.0000e+00
      4.842     -0.161     0.1252      1.223    156.315 114.505351     3.4538      6.487   -83.0155 4.1770e+00     3.2249      4.755      6.896    11.5789 0.0000e+00
      4.797     -0.178     0.1281      1.217    153.570 112.602100     3.4231      6.487   -82.5679 4.4253e+00     3.2065      4.708      6.828    11.5863 0.0000e+00
      4.741     -0.193     0.1263      1.207    149.665 109.966866     3.4289      6.487   -82.1089 4.7072e+00     3.1988      4.650      6.744    11.5731 0.0000e+00
      4.684     -0.193     0.1301      1.193    148.184 109.265278     3.6405      6.487   -81.6823 5.0196e+00     3.1663      4.594      6.663    11.5912 0.0000e+00
      4.626     -0.169     0.1354      1.171    148.036 109.469525     4.0506      6.487   -81.3672 5.3520e+00     3.1894      4.538      6.582    11.6273 0.0000e+00
      4.566     -0.128     0.1314      1.166    146.655 108.551429     4.2751      6.486   -81.3958 5.6402e+00     3.2379      4.472      6.487    11.6454 0.0000e+00
      4.524     -0.079     0.1311      1.171    146.401 108.417699     4.2829      6.485   -81.7709 5.7321e+00     3.2748      4.420      6.410    11.7043 0.0000e+00
      4.518     -0.033     0.1301      1.161    146.288 108.426599     4.1787      6.485   -82.2028 5.6133e+00     3.3625      4.420      6.411    11.8754 0.0000e+00
      4.541      0.004     0.1248      1.141    144.430 107.130803     3.9807      6.485   -82.1435 5.4463e+00     3.4442      4.455      6.460    12.0128 0.0000e+00
      4.566      0.023     0.1247      1.122    142.577 105.867980     3.8701      6.485   -81.6559 5.3389e+00     3.4772      4.484      6.503    12.0042 0.0000e+00
      4.579      0.009     0.1276      1.121    139.976 104.110319     3.8565      6.485   -81.3833 5.3015e+00     3.4875      4.494      6.518    12.0118 0.0000e+00
      4.585     -0.040     0.1246      1.131    135.057 100.713233     3.7996      6.487   -81.0845 5.3009e+00     3.3988      4.495      6.520    12.0682 0.0000e+00
      4.585     -0.114     0.1232      1.118    127.638  95.605708     3.6984      6.490   -80.5386 5.3933e+00     3.2586      4.504      6.531    12.0769 0.0000e+00
      4.563     -0.197     0.1197      1.076    115.306  86.971786     3.6476      6.494   -80.2896 5.7357e+00     3.2264      4.493      6.516    12.1138 0.0000e+00
      4.499     -0.276     0.1190      1.020    100.175  76.415284     3.6511      6.497   -80.3973 6.3480e+00     3.2834      4.425      6.418    12.1831 0.0000e+00
      4.397     -0.337     0.1229      0.963     88.734  68.771326     3.6412      6.504   -81.4969 7.1255e+00     3.3674      4.316      6.259    12.2537 0.0000e+00
      4.278     -0.365     0.1206      0.937     81.059  63.848472     3.6029      6.517   -83.2595 8.0266e+00     3.4563      4.197      6.088    12.4314 0.0000e+00
      4.154     -0.351     0.1142      0.946     72.469  57.819874     3.5715      6.529   -83.1246 8.9728e+00     3.4703      4.071      5.905    12.6862 0.0000e+00
      4.042     -0.300     0.1081      1.013     62.889  50.763938     3.5613      6.536   -81.5866 9.7331e+00     3.4335      3.951      5.730    13.1125 0.0000e+00
      3.964     -0.228     0.0980      1.258     57.967  47.444452     3.6539      6.541   -80.5801 1.0092e+01     3.3871      3.868      5.610    13.7881 0.0000e+00
      3.929     -0.152     0.0940      1.760     57.926  47.978451     3.8512      6.543   -79.6461 1.0104e+01     3.3195      3.842      5.573    14.4779 0.0000e+00
      3.924     -0.084     0.0955      2.508     58.782  48.967655     3.9659      6.544   -78.6384 1.0023e+01     3.2985      3.848      5.581    14.9655 0.0000e+00
      3.928     -0.032     0.0944      3.532     59.476  49.564265     3.9667      6.544   -78.1187 9.9648e+00     3.3045      3.852      5.586    15.3343 0.0000e+00
      3.930     -0.001     0.1139      4.815     61.444  51.128543     3.9441      6.545   -77.9235 9.9189e+00     3.2900      3.854      5.591    15.9425 0.0000e+00
      3.932      0.011     0.1648      6.152     65.303  54.291592     3.9670      6.547   -76.9660 9.8944e+00     3.2597      3.856      5.593    16.5214 0.0000e+00
      3.933      0.013     0.2343      7.274     68.878  57.199089     4.0525      6.550   -74.8008 9.8647e+00     3.2452      3.856      5.593    16.7296 0.0000e+00
      3.938      0.011     0.3320      7.965     69.764  57.766245     4.1210      6.555   -72.9107 9.7732e+00     3.2867      3.861      5.599    16.6901 0.0000e+00
      3.945      0.004     0.4678      8.121     67.539  55.685740     4.1367      6.562   -71.8367 9.6792e+00     3.2820      3.870      5.613    16.5755 0.0000e+00
      3.949     -0.017     0.6076      7.762     63.984  52.622744     4.1676      6.569   -70.5057 9.6661e+00     3.1886      3.875      5.620    16.5670 0.0000e+00
      3.950     -0.060     0.7247      6.967     61.619  50.771197     4.2361      6.577   -68.8625 9.6878e+00     3.1479      3.874      5.618    16.5573 0.0000e+00
      3.946     -0.124     0.7987      5.921     61.751  51.079302     4.2752      6.586   -67.3710 9.7849e+00     3.1995      3.873      5.618    16.4262 0.0000e+00
      3.926     -0.198     0.8153      4.956     61.914  51.332504     4.2744      6.594   -65.9804 1.0208e+01     3.2665      3.864      5.605    16.1858 0.0000e+00
      3.868     -0.267     0.7814      4.365     60.276  50.023280     4.1514      6.599   -64.5236 1.1113e+01     3.2749      3.813      5.529    16.0317 0.0000e+00
      3.766     -0.321     0.6956      4.245     57.842  48.075900     3.9110      6.604   -63.1787 1.2362e+01     3.2319      3.700      5.367    16.1603 0.0000e+00
      3.643     -0.351     0.5763      4.559     55.207  46.009285     3.7820      6.608   -61.6797 1.3707e+01     3.2258      3.568      5.175    16.3944 0.0000e+00
      3.528     -0.350     0.4692      5.265     51.724  43.256792     3.7900      6.610   -59.2192 1.4917e+01     3.2690      3.452      5.007    16.4771 0.0000e+00
      3.434     -0.309     0.4094      6.342     48.293  40.566913     3.9657      6.614   -55.9707 1.5859e+01     3.3104      3.360      4.872    16.4757 0.0000e+00
      3.361     -0.232     0.3999      7.777     47.011  39.699968     4.2757      6.620   -53.2041 1.6649e+01     3.3160      3.292      4.774    16.5359 0.0000e+00
      3.302     -0.139     0.4308      9.569     46.791  39.693488     4.4329      6.626   -51.4081 1.7343e+01     3.2682      3.234      4.690    16.6611 0.0000e+00
      3.266     -0.056     0.4983     11.734     46.846  39.854220     4.4518      6.632   -49.5708 1.7488e+01     3.2114      3.185      4.620    16.8123 0.0000e+00
      3.274      0.007     0.6014     14.284     47.456  40.437625     4.5369      6.637   -47.0785 1.6808e+01     3.2439      3.192      4.630    16.9785 0.0000e+00
      3.321      0.049     0.7361     17.138     47.989  40.908765     4.6723      6.640   -44.4195 1.5880e+01     3.3197      3.259      4.726    17.2330 0.0000e+00
      3.370      0.070     0.9038     20.090     48.693  41.489023     4.7394      6.642   -42.2865 1.5365e+01     3.3075      3.318      4.812    17.4484 0.0000e+00
      3.391      0.072     1.1084     22.949     49.711  42.312524     4.7573      6.645   -40.5609 1.5268e+01     3.2339      3.332      4.833    17.5424 0.0000e+00
      3.392      0.057     1.3501     25.441     50.437  42.868405     4.9217      6.649   -38.6122 1.5272e+01     3.1812      3.324      4.822    17.6214 0.0000e+00
      3.392      0.032     1.6332     27.208     50.589  42.941950     5.2382      6.652   -36.6209 1.5174e+01     3.1822      3.323      4.820    17.6318 0.0000e+00
      3.399      0.009     1.9194     28.088     50.030  42.440014     5.4211      6.656   -33.8637 1.5002e+01     3.2462      3.333      4.834    17.6025 0.0000e+00
      3.408     -0.019     2.2014     28.107     48.315  40.988591     5.4268      6.661   -29.6252 1.4912e+01     3.2727      3.345      4.852    17.5664 0.0000e+00
      3.411     -0.064     2.4611     27.401     46.268  39.292202     5.3988      6.667   -25.8112 1.4915e+01     3.2289      3.346      4.854    17.4903 0.0000e+00
      3.406     -0.131     2.6363     26.243     45.244  38.493540     5.2742      6.672   -23.2833 1.5060e+01     3.1603      3.345      4.851    17.4237 0.0000e+00
      3.381     -0.214     2.7208     24.991     44.732  38.122712     5.0602      6.676   -21.0867 1.5671e+01     3.0924      3.330      4.831    17.4025 0.0000e+00
      3.318     -0.299     2.7190     24.018     43.994  37.537336     4.9505      6.679   -18.9553 1.6948e+01     3.0911      3.269      4.741    17.4013 0.0000e+00
      3.214     -0.364     2.6396     23.626     43.168  36.873130     4.9635      6.680   -16.8717 1.8814e+01     3.0764      3.162      4.586    17.4390 0.0000e+00
      3.083     -0.395     2.5104     23.866     42.598  36.437399     5.3089      6.677   -14.4781 2.1086e+01     3.0168      3.028      4.392    17.5436 0.0000e+00
      2.943     -0.382     2.3753     24.622     42.260  36.203154     5.9717      6.673   -11.4390 2.3375e+01     2.9858      2.880      4.177    17.6207 0.0000e+00
      2.821     -0.328     2.2675     25.806     41.972  36.007966     6.3526      6.672    -8.1752 2.5192e+01     3.0086      2.751      3.990    17.6555 0.0000e+00
      2.736     -0.248     2.2275     27.312     41.446  35.600304     6.4519      6.673    -5.3869 2.6219e+01     3.0880      2.666      3.867    17.6983 0.0000e+00
      2.697     -0.160     2.2549     29.036     40.351  34.700429     7.0229      6.673    -3.0209 2.6387e+01     3.0578      2.631      3.815    17.7651 0.0000e+00
      2.692     -0.076     2.3234     30.906     39.484  34.010401     8.0542      6.672    -0.7343 2.6098e+01     2.9165      2.636      3.824    17.8311 0.0000e+00
      2.701     -0.010     2.4380     32.855     39.452  34.046158     8.6088      6.672     1.3526 2.5902e+01     2.8479      2.651      3.846    17.8937 0.0000e+00
      2.709      0.031     2.5811     34.870     39.415  34.054293     8.6522      6.673     3.1966 2.5813e+01     2.8436      2.657      3.853    17.9490 0.0000e+00
      2.719      0.048     2.7444     37.037     38.650  33.410893     8.5703      6.675     5.1286 2.5525e+01     2.8982      2.660      3.858    17.9837 0.0000e+00
      2.739      0.048     2.9199     39.334     37.623  32.547745     8.3923      6.676     7.3314 2.5056e+01     2.9614      2.684      3.892    18.0568 0.0000e+00
      2.763      0.039     3.0990     41.464     37.149  32.182729     8.2898      6.677     9.8701 2.4798e+01     2.9593      2.716      3.939    18.1589 0.0000e+00
      2.775      0.017     3.2811     43.159     37.447  32.486790     8.2796      6.678    12.5073 2.4835e+01     2.9754      2.725      3.953    18.2108 0.0000e+00
      2.777     -0.026     3.4826     44.548     38.077  33.052188     8.2346      6.681    14.8680 2.4886e+01     2.9845      2.721      3.947    18.2119 0.0000e+00
      2.775     -0.091     3.7108     45.950     38.607  33.499603     8.1457      6.685    16.9892 2.5014e+01     2.9325      2.724      3.951    18.2378 0.0000e+00
      2.762     -0.174     3.9190     47.383     38.812  33.645812     8.0881      6.688    18.8816 2.5664e+01     2.8944      2.720      3.945    18.3105 0.0000e+00
      2.720     -0.266     4.0655     48.544     38.521  33.360747     8.0626      6.690    20.5406 2.7165e+01     2.8644      2.683      3.890    18.3886 0.0000e+00
      2.637     -0.355     4.1768     49.163     38.013  32.907797     8.0282      6.693    22.0773 2.9606e+01     2.8437      2.599      3.770    18.4144 0.0000e+00
      2.517     -0.429     4.3109     49.192     37.653  32.610171     7.8464      6.694    23.6957 3.2867e+01     2.8497      2.476      3.593    18.3884 0.0000e+00
      2.372     -0.469     4.4635     48.799     37.338  32.363276     7.5380      6.694    25.7402 3.6630e+01     2.8333      2.329      3.378    18.3423 0.0000e+00
      2.220     -0.461     4.5879     48.283     36.976  32.079591     7.3791      6.691    28.2127 4.0568e+01     2.8166      2.175      3.153    18.2868 0.0000e+00
      2.077     -0.408     4.6492     47.923     36.815  31.971525     7.3817      6.690    30.5326 4.4330e+01     2.8185      2.030      2.943    18.2657 0.0000e+00
      1.962     -0.325     4.6435     47.885     36.825  32.008293     7.6356      6.691    32.4519 4.7180e+01     2.8224      1.907      2.766    18.2942 0.0000e+00
      1.892     -0.227     4.5914     48.253     36.818  32.016674     8.1097      6.691    34.2100 4.8388e+01     2.8298      1.836      2.663    18.3355 0.0000e+00
      1.868     -0.131     4.5295     49.062     36.731  31.946003     8.3534      6.691    35.9594 4.8344e+01     2.8053      1.825      2.645    18.3706 0.0000e+00
      1.868     -0.051     4.4866     50.251     36.613  31.851635     8.3693      6.692    37.8579 4.7990e+01     2.7649      1.832      2.656    18.4192 0.0000e+00
      1.876      0.002     4.4763     51.577     36.567  31.827264     8.4352      6.694    39.7848 4.7580e+01     2.8190      1.836      2.665    18.4638 0.0000e+00
      1.891      0.026     4.5083     52.752     36.495  31.778231     8.5582      6.697    41.4471 4.6986e+01     2.9140      1.851      2.685    18.4814 0.0000e+00
      1.910      0.026     4.5844     53.674     36.400  31.702868     8.6250      6.699    42.8998 4.6457e+01     2.8876      1.876      2.720    18.4802 0.0000e+00
      1.921      0.001     4.7041     54.341     36.440  31.740748     8.6101      6.701    44.3577 4.6357e+01     2.8077      1.888      2.739    18.4874 0.0000e+00
      1.922     -0.054     4.8386     54.696     36.501  31.792181     8.4366      6.702    45.9105 4.6504e+01     2.8359      1.885      2.735    18.5157 0.0000e+00
      1.917     -0.142     4.9478     54.765     36.316  31.626930     8.1252      6.705    47.5636 4.6859e+01     2.9218      1.882      2.730    18.5382 0.0000e+00
      1.898     -0.251     5.0312     54.736     35.973  31.328636     7.9577      6.708    49.2887 4.8234e+01     2.9586      1.876      2.721    18.5454 0.0000e+00
      1.838     -0.361     5.0971     54.727     35.698  31.103624     7.9344      6.711    50.9371 5.1709e+01     2.9383      1.826      2.648    18.5481 0.0000e+00
      1.715     -0.448     5.1315     54.751     35.476  30.936304     7.7187      6.710    52.6959 5.7852e+01     2.8813      1.701      2.467    18.5505 0.0000e+00
      1.542     -0.492     5.1294     54.952     35.169  30.701207     7.3222      6.705    54.9813 6.6040e+01     2.8840      1.517      2.200    18.5368 0.0000e+00
      1.355     -0.482     5.1226     55.545     34.867  30.481324     7.1184      6.703    57.4035 7.4615e+01     2.9370      1.317      1.910    18.5307 0.0000e+00
      1.197     -0.421     5.1235     56.631     34.754  30.434534     7.0946      6.703    59.3539 8.1741e+01     2.9413      1.153      1.673    18.5545 0.0000e+00
      1.094     -0.322     5.1148     58.227     34.730  30.452719     7.0836      6.705    61.0118 8.5707e+01     2.9022      1.051      1.524    18.5967 0.0000e+00
      1.048     -0.212     5.1199     60.300     34.700  30.447508     7.1440      6.707    62.7368 8.6356e+01     2.8399      1.015      1.472    18.6375 0.0000e+00
      1.041     -0.115     5.1670     62.691     34.672  30.434992     7.2515      6.709    64.4651 8.5533e+01     2.8029      1.017      1.475    18.6973 0.0000e+00
      1.046     -0.045     5.2585     65.140     34.586  30.364840     7.3094      6.710    66.1631 8.4702e+01     2.8308      1.026      1.488    18.7931 0.0000e+00
      1.050     -0.007     5.4004     67.358     34.427  30.233633     7.2947      6.710    67.8663 8.4330e+01     2.8362      1.032      1.496    18.8477 0.0000e+00
      1.050      0.006     5.5968     69.123     34.270  30.117247     7.0486      6.710    69.6569 8.4039e+01     2.7656      1.028      1.491    18.8676 0.0000e+00
      1.051      0.006     5.8255     70.412     34.141  30.036010     6.6140      6.711    71.4663 8.3245e+01     2.6944      1.029      1.492    18.8916 0.0000e+00
      1.055     -0.009     6.0625     71.382     34.078  30.012632     6.4017      6.713    72.9657 8.2390e+01     2.6585      1.036      1.501    18.8929 0.0000e+00
      1.057     -0.047     6.2775     72.208     34.138  30.088366     6.4046      6.715    74.1910 8.2004e+01     2.6735      1.039      1.507    18.8934 0.0000e+00
      1.057     -0.117     6.4374     73.041     34.255  30.190546     6.3566      6.718    75.3550 8.2116e+01     2.7047      1.037      1.503    18.9305 0.0000e+00
      1.048     -0.216     6.5426     73.955     34.329  30.233169     6.2633      6.722    76.3710 8.4148e+01     2.7279      1.038      1.505    18.9853 0.0000e+00
      1.007     -0.323     6.6206     74.864     34.340  30.223095     6.2255      6.725    77.1831 9.2129e+01     2.7486      1.012      1.468    19.0338 0.0000e+00
      0.903     -0.413     6.6866     75.563     34.300  30.195578     6.2409      6.724    78.2046 1.0904e+02     2.7164      0.908      1.316    19.0783 0.0000e+00
      0.740     -0.461     6.7593     75.847     34.212  30.154209     6.3161      6.719    79.5155 1.3711e+02     2.6808      0.735      1.065    19.0785 0.0000e+00
      0.553     -0.459     6.8554     75.731     34.100  30.103556     6.4354      6.715    80.8157 1.7661e+02     2.6595      0.535      0.775    19.0275 0.0000e+00
      0.391     -0.406     6.9517     75.487     34.032  30.090655     6.4931      6.714    82.2238 2.1184e+02     2.6297      0.358      0.520    18.9856 0.0000e+00
      0.293     -0.313     7.0247     75.379     34.007  30.125149     6.4977      6.714    83.8069 2.2270e+02     2.6615      0.263      0.381    18.9945 0.0000e+00
      0.256     -0.204     7.0423     75.532     33.932  30.140101     6.4243      6.714    85.3301 2.1806e+02     2.7364      0.242      0.352    19.0602 0.0000e+00
      0.250     -0.106     7.0077     76.042     33.812  30.144678     6.2723      6.714    86.7888 2.1868e+02     2.7834      0.244      0.354    19.1396 0.0000e+00
      0.253     -0.037     6.9668     77.005     33.728  30.180634     6.1913      6.715    88.3648 2.2337e+02     2.7862      0.247      0.358    19.2020 0.0000e+00
      0.258     -0.000     6.9453     78.440     33.664  30.194409     6.1763      6.715    90.0173 2.2329e+02     2.7706      0.254      0.367    19.2714 0.0000e+00
      0.263      0.013     6.9402     80.282     33.625  30.184457     6.1490      6.714    91.5405 2.1868e+02     2.7988      0.259      0.375    19.3904 0.0000e+00
      0.264      0.014     6.9572     82.301     33.630  30.187193     6.0034      6.714    92.9298 2.1283e+02     2.7860      0.259      0.376    19.5681 0.0000e+00
      0.267      0.012     7.0190     84.096     33.687  30.227485     5.7472      6.714    94.4252 2.0827e+02     2.6841      0.260      0.378    19.7623 0.0000e+00
      0.273      0.010     7.1348     85.381     33.757  30.291013     5.6157      6.714    96.1136 2.0711e+02     2.6261      0.268      0.390    19.8731 0.0000e+00
      0.277      0.008     7.3074     86.191     33.758  30.320985     5.6036      6.714    97.7701 2.1035e+02     2.6312      0.274      0.397    19.8875 0.0000e+00
      0.277      0.008     7.5067     86.664     33.732  30.336182     5.5081      6.714    99.2247 2.1648e+02     2.6436      0.272      0.394    19.8862 0.0000e+00
      0.276      0.007     7.6879     86.869     33.713  30.347951     5.3356      6.714   100.6232 2.2268e+02     2.6392      0.269      0.390    19.8539 0.0000e+00
      0.277      0.007     7.8022     86.899     33.669  30.336446     5.2412      6.714   102.0321 2.2698e+02     2.6121      0.271      0.393    19.8391 0.0000e+00
      0.280      0.008     7.8604     86.880     33.619  30.323977     5.2397      6.715   103.3534 2.2937e+02     2.6229      0.274      0.398    19.8998 0.0000e+00
      0.283      0.009     7.8926     86.925     33.587  30.324103     5.1844      6.717   104.5537 2.3077e+02     2.7021      0.277      0.403    19.9740 0.0000e+00
      0.286      0.009     7.9019     87.080     33.578  30.338004     5.0398      6.718   105.7042 2.3087e+02     2.8182      0.280      0.406    20.0045 0.0000e+00
      0.288      0.008     7.8964     87.366     33.591  30.365227     4.9392      6.719   106.9386 2.2913e+02     2.8992      0.283      0.411    20.0382 0.0000e+00
      0.290      0.006     7.8792     87.758     33.616  30.399538     4.9084      6.719   108.2073 2.2490e+02     2.8608      0.285      0.414    20.1012 0.0000e+00
      0.291      0.004     7.8777     88.138     33.643  30.435705     4.8839      6.719   109.4290 2.1825e+02     2.8323      0.286      0.414    20.1382 0.0000e+00
      0.291      0.002     7.8850     88.439     33.618  30.421932     4.8674      6.720   110.6108 2.1086e+02     2.8972      0.286      0.414    20.1749 0.0000e+00
      0.291      0.002     7.9062     88.636     33.550  30.359893     4.8585      6.721   111.8279 2.0357e+02     2.8940      0.285      0.414    20.1986 0.0000e+00
      0.292      0.003     7.9473     88.686     33.519  30.319930     4.8515      6.722   113.1315 1.9565e+02     2.8278      0.286      0.415    20.2069 0.0000e+00
      0.292      0.006     7.9789     88.600     33.470  30.255889     4.9160      6.723   114.3277 1.8675e+02     2.8133      0.286      0.415    20.2307 0.0000e+00
      0.292      0.009     8.0033     88.408     33.335  30.093009     5.0560      6.723   115.2777 1.7825e+02     2.8554      0.285      0.413    20.2466 0.0000e+00
      0.295      0.012     8.0241     88.077     33.257  29.936318     5.1456      6.723   116.1849 1.7272e+02     2.9274      0.288      0.418    20.2499 0.0000e+00
      0.300      0.014     8.0308     87.513     33.320  29.883594     5.1505      6.722   117.2953 1.7059e+02     2.9320      0.295      0.427    20.2245 0.0000e+00
      0.305      0.015     8.0262     86.705     33.435  29.899402     5.1233      6.721   118.4653 1.6886e+02     2.8429      0.299      0.434    20.1987 0.0000e+00
      0.310      0.014     8.0141     85.696     33.544  29.937027     5.0491      6.720   119.5766 1.6624e+02     2.8070      0.305      0.442    20.1650 0.0000e+00
      0.314      0.013     8.0127     84.544     33.606  29.957854     4.9279      6.718   120.6654 1.6394e+02     2.8739      0.308      0.447    20.0212 0.0000e+00
      0.317      0.013     7.9935     83.409     33.620  29.960886     4.8648      6.716   121.7354 1.6174e+02     2.9341      0.311      0.451    19.8163 0.0000e+00
      0.318      0.011     7.9358     82.420     33.636  29.973672     4.8613      6.714   122.7910 1.5987e+02     2.9196      0.313      0.454    19.6927 0.0000e+00
      0.319      0.005     7.8589     81.643     33.651  29.985586     4.8441      6.710   123.4483 1.5837e+02     2.8356      0.312      0.453    19.6111 0.0000e+00
      0.323     -0.007     7.7534     81.146     33.641  29.978069     4.8223      6.706   123.5734 1.5668e+02     2.7378      0.317      0.460    19.5473 0.0000e+00
      0.328     -0.030     7.6462     80.943     33.671  30.009648     4.8066      6.708   123.8739 1.5660e+02     2.6598      0.324      0.471    19.5520 0.0000e+00
      0.327     -0.063     7.5533     80.969     33.766  30.113687     4.8039      6.712   124.6730 1.6133e+02     2.6094      0.325      0.471    19.5557 0.0000e+00
      0.314     -0.102     7.4807     81.185     33.821  30.221110     4.8140      6.715   125.4058 1.7629e+02     2.6069      0.315      0.456    19.5445 0.0000e+00
      0.283     -0.148     7.4332     81.656     33.793  30.293651     4.8215      6.718   125.7648 2.0898e+02     2.6301      0.286      0.415    19.5530 0.0000e+00
      0.231     -0.202     7.4171     82.353     33.744  30.356586     4.8278      6.723   126.0017 2.7069e+02     2.6843      0.229      0.333    19.5524 0.0000e+00
      0.170     -0.263     7.4220     83.195     33.702  30.411301     4.8401      6.727   126.8081 4.1116e+02     2.7842      0.164      0.238    19.5609 0.0000e+00
      0.105     -0.326     7.4229     84.275     33.662  30.447867     5.0951      6.730   128.2012 6.4775e+02     3.7693      0.109      0.158    19.6487 0.0000e+00
      0.025     -0.376     7.4419     85.651     33.641  30.481645     5.6051      6.732   130.1115 9.0639e+02     5.6460      0.037      0.053    19.8166 0.0000e+00
     -0.085     -0.400     7.4878     87.137     33.626  30.502620     5.8875      6.733   134.9346 1.1460e+03     6.6872     -0.074     -0.108    19.9857 0.0000e+00
     -0.220     -0.398     7.5370     88.494     33.608  30.511218     5.7461      6.730   141.0883 1.3259e+03     6.7929     -0.212     -0.307    20.1217 0.0000e+00
     -0.360     -0.376     7.6141     89.542     33.598  30.522195     3.7458      6.723   144.6323 1.4009e+03     6.7539     -0.364     -0.529    20.2320 0.0000e+00
     -0.468     -0.333     7.7358     90.097     33.638  30.571942     0.0632      6.716   145.5189 1.4184e+03     6.6256     -0.484     -0.701    20.3098 0.0000e+00
     -0.527     -0.273     7.8711     90.037     34.235  31.112723    -1.9419      6.713   148.2815 1.4199e+03     6.5738     -0.524     -0.761    20.3561 0.0000e+00
     -0.563     -0.204     7.9926     89.396     35.222  31.985793    -2.1116      6.714   156.6107 1.3699e+03     6.6408     -0.542     -0.788    20.3879 0.0000e+00
     -0.607     -0.141     8.0886     88.422     35.561  32.247040    -2.0716      6.710   166.9838 1.2666e+03     6.6839     -0.598     -0.866    20.4202 0.0000e+00
     -0.646     -0.095     8.1397     87.532     35.408  32.051191    -1.3753      6.684   181.2958 1.2037e+03     6.9585     -0.645     -0.937    20.4455 0.0000e+00
     -0.662     -0.065     8.1327     86.947     35.302  31.901520    -0.0685      6.633   196.5531 1.2235e+03     7.5695     -0.652     -0.946    20.4476 0.0000e+00
     -0.665     -0.040     8.0734     86.484     34.220  30.881378     0.6615      6.576   204.1595 1.2633e+03     7.9574     -0.652     -0.946    20.4143 0.0000e+00
     -0.666     -0.019     7.9802     85.882     27.287  24.601095     0.7594      6.532   208.0460 1.2264e+03     7.9251     -0.654     -0.948    20.3425 0.0000e+00
     -0.665     -0.005     7.9033     85.130     15.661  14.109070     0.8985      6.509   211.8827 1.0669e+03     6.8370     -0.652     -0.945    20.2505 0.0000e+00
     -0.665     -0.001     7.8747     84.735      9.936   8.947161     1.0119      6.503   213.5521 9.8713e+02     5.8345     -0.652     -0.946    20.1744 0.0000e+00
     -0.665 -9.990e-29     7.8501 -9.990e-29 -9.990e-29 -9.990e-29 -9.990e-29 -9.990e-29 -9.990e-29 1.0876e+03 -9.990e-29     -0.652     -0.945    20.1086 0.0000e+00
     -0.664 -9.990e-29     7.8094 -9.990e-29 -9.990e-29 -9.990e-29 -9.990e-29 -9.990e-29 -9.990e-29 1.1451e+03 -9.990e-29     -0.651     -0.945    20.0564 0.0000e+00
     -0.664 -9.990e-29     7.7287 -9.990e-29 -9.990e-29 -9.990e-29 -9.990e-29 -9.990e-29 -9.990e-29 1.1437e+03 -9.990e-29     -0.651     -0.945    20.0191 0.0000e+00
     -0.664 -9.990e-29     7.6645 -9.990e-29 -9.990e-29 -9.990e-29 -9.990e-29 -9.990e-29 -9.990e-29 1.1564e+03 -9.990e-29     -0.651     -0.944    19.9971 0.0000e+00
