* Sea-Bird SBE19plus  Data File:
* FileName = C:\DATA\100420_fcr50_0002.hex
* Software version 2.8.0.119
* Temperature SN = 7809
* Conductivity SN = 7809
* System UpLoad Time = Oct 05 2020 07:49:53
* <ApplicationData>
* <Seaterm232>
* <SoftwareVersion>2.8.0.119</SoftwareVersion>
* <BuildDate>07-Nov-2018</BuildDate>
* </Seaterm232>
* </ApplicationData>
* <InstrumentState>
* <HardwareData DeviceType='SBE19plus' SerialNumber='01907809'>
*
*    <Manufacturer>Sea-Bird Electronics, Inc.</Manufacturer>
*
*    <FirmwareVersion>3.1.8</FirmwareVersion>
*
*    <FirmwareDate>Mar  9 2016 16:22:29</FirmwareDate>
*
*    <CommandSetVersion>1.4</CommandSetVersion>
*
*    <PCBAssembly PCBSerialNum='120721' AssemblyNum='41054J'/>
*
*    <PCBAssembly PCBSerialNum='120715' AssemblyNum='41967A'/>
*
*    <PCBAssembly PCBSerialNum='116699' AssemblyNum='41606'/>
*
*    <PCBAssembly PCBSerialNum='120719' AssemblyNum='41059D'/>
*
*    <MfgDate>28-Apr-2017</MfgDate>
*
*    <InternalSensors>
*
*       <Sensor id='Main Temperature'>
*
*          <type>temperature0</type>
*
*          <SerialNumber>01907809</SerialNumber>
*
*       </Sensor>
*
*       <Sensor id='Main Conductivity'>
*
*          <type>conductivity-0</type>
*
*          <SerialNumber>01907809</SerialNumber>
*
*       </Sensor>
*
*       <Sensor id='Main Pressure'>
*
*          <type>strain-0</type>
*
*          <SerialNumber>10586018</SerialNumber>
*
*       </Sensor>
*
*    </InternalSensors>
*
*    <ExternalSensors>
*
*       <Sensor id='volt 0'>
*
*          <type>pH</type>
*
*          <SerialNumber>27-0363</SerialNumber>
*
*       </Sensor>
*
*       <Sensor id='volt 1'>
*
*          <type>ORP</type>
*
*          <SerialNumber>27-0363</SerialNumber>
*
*       </Sensor>
*
*       <Sensor id='volt 2'>
*
*          <type>OXY</type>
*
*          <SerialNumber>43-0434</SerialNumber>
*
*       </Sensor>
*
*       <Sensor id='volt 3'>
*
*          <type>PAR</type>
*
*          <SerialNumber>1122</SerialNumber>
*
*       </Sensor>
*
*       <Sensor id='volt 4'>
*
*          <type>ECO AFL/FL</type>
*
*          <SerialNumber>FLNTURT-2496</SerialNumber>
*
*       </Sensor>
*
*       <Sensor id='volt 5'>
*
*          <type>ECO-NTU</type>
*
*          <SerialNumber>FLNTURT-2496</SerialNumber>
*
*       </Sensor>
*
*       <Sensor id='serial'>
*
*          <type>not assigned</type>
*
*          <SerialNumber>not assigned</SerialNumber>
*
*       </Sensor>
*
*    </ExternalSensors>
*
* </HardwareData>
* <StatusData DeviceType='SBE19plus' SerialNumber='01907809'>
*
*    <DateTime>2020-10-04T18:48:26</DateTime>
*
*    <LoggingState>not logging</LoggingState>
*
*    <EventSummary numEvents='0'/>
*
*    <Power>
*
*       <vMain>12.1</vMain>
*
*       <vLith>8.5</vLith>
*
*       <iMain>63.0</iMain>
*
*       <iPump>44.1</iPump>
*
*       <iExt01>20.0</iExt01>
*
*       <iExt2345>39.7</iExt2345>
*
*    </Power>
*
*    <MemorySummary>
*
*       <Bytes>65389</Bytes>
*
*       <Samples>2843</Samples>
*
*       <SamplesFree>2857945</SamplesFree>
*
*       <SampleLength>23</SampleLength>
*
*       <Profiles>2</Profiles>
*
*    </MemorySummary>
*
* </StatusData>
* <ConfigurationData DeviceType='SBE19plus' SerialNumber='01907809'>
*
*    <ProfileMode>
*
*       <ScansToAverage>1</ScansToAverage>
*
*       <MinimumCondFreq>5</MinimumCondFreq>
*
*       <PumpDelay>30</PumpDelay>
*
*       <AutoRun>no</AutoRun>
*
*       <IgnoreSwitch>no</IgnoreSwitch>
*
*    </ProfileMode>
*
*    <Battery>
*
*       <Type>alkaline</Type>
*
*       <CutOff>7.5</CutOff>
*
*    </Battery>
*
*    <DataChannels>
*
*       <ExtVolt0>yes</ExtVolt0>
*
*       <ExtVolt1>yes</ExtVolt1>
*
*       <ExtVolt2>yes</ExtVolt2>
*
*       <ExtVolt3>yes</ExtVolt3>
*
*       <ExtVolt4>yes</ExtVolt4>
*
*       <ExtVolt5>yes</ExtVolt5>
*
*       <SBE38>no</SBE38>
*
*       <WETLABS>no</WETLABS>
*
*       <OPTODE>no</OPTODE>
*
*       <SBE63>no</SBE63>
*
*       <SeaFET>no</SeaFET>
*
*       <GTD>no</GTD>
*
*    </DataChannels>
*
*    <EchoCharacters>yes</EchoCharacters>
*
*    <OutputExecutedTag>yes</OutputExecutedTag>
*
*    <OutputFormat>raw HEX</OutputFormat>
*
* </ConfigurationData>
* <CalibrationCoefficients DeviceType='SBE19plus' SerialNumber='01907809'>
*
*    <Calibration format='TEMP1' id='Main Temperature'>
*
*       <SerialNum>01907809</SerialNum>
*
*       <CalDate>17-Feb-20</CalDate>
*
*       <TA0>1.231828e-03</TA0>
*
*       <TA1>2.765479e-04</TA1>
*
*       <TA2>-9.738161e-07</TA2>
*
*       <TA3>1.725813e-07</TA3>
*
*       <TOFFSET>0.000000e+00</TOFFSET>
*
*    </Calibration>
*
*    <Calibration format='WBCOND0' id='Main Conductivity'>
*
*       <SerialNum>01907809</SerialNum>
*
*       <CalDate>17-Feb-20</CalDate>
*
*       <G>-1.004905e+00</G>
*
*       <H>1.264249e-01</H>
*
*       <I>-3.338479e-05</I>
*
*       <J>1.822406e-05</J>
*
*       <CPCOR>-9.570000e-08</CPCOR>
*
*       <CTCOR>3.250000e-06</CTCOR>
*
*       <CSLOPE>1.000000e+00</CSLOPE>
*
*    </Calibration>
*
*    <Calibration format='STRAIN0' id='Main Pressure'>
*
*       <SerialNum>10586018</SerialNum>
*
*       <CalDate>30-Jan-20</CalDate>
*
*       <PA0>-8.839367e-03</PA0>
*
*       <PA1>4.852353e-04</PA1>
*
*       <PA2>-3.463847e-12</PA2>
*
*       <PTCA0>5.254672e+05</PTCA0>
*
*       <PTCA1>5.138564e+00</PTCA1>
*
*       <PTCA2>-2.726934e-01</PTCA2>
*
*       <PTCB0>2.516687e+01</PTCB0>
*
*       <PTCB1>3.750000e-04</PTCB1>
*
*       <PTCB2>0.000000e+00</PTCB2>
*
*       <PTEMPA0>-5.396332e+01</PTEMPA0>
*
*       <PTEMPA1>5.390761e+01</PTEMPA1>
*
*       <PTEMPA2>-2.231787e-02</PTEMPA2>
*
*       <POFFSET>6.460000e-01</POFFSET>
*
*       <PRANGE>1.600000e+02</PRANGE>
*
*    </Calibration>
*
*    <Calibration format='VOLT0' id='Volt 0'>
*
*       <OFFSET>-4.920000e-02</OFFSET>
*
*       <SLOPE>1.248122e+00</SLOPE>
*
*    </Calibration>
*
*    <Calibration format='VOLT0' id='Volt 1'>
*
*       <OFFSET>-4.784000e-02</OFFSET>
*
*       <SLOPE>1.248871e+00</SLOPE>
*
*    </Calibration>
*
*    <Calibration format='VOLT0' id='Volt 2'>
*
*       <OFFSET>-4.864632e-02</OFFSET>
*
*       <SLOPE>1.248714e+00</SLOPE>
*
*    </Calibration>
*
*    <Calibration format='VOLT0' id='Volt 3'>
*
*       <OFFSET>-4.743790e-02</OFFSET>
*
*       <SLOPE>1.248571e+00</SLOPE>
*
*    </Calibration>
*
*    <Calibration format='VOLT0' id='Volt 4'>
*
*       <OFFSET>-4.671263e-02</OFFSET>
*
*       <SLOPE>1.248951e+00</SLOPE>
*
*    </Calibration>
*
*    <Calibration format='VOLT0' id='Volt 5'>
*
*       <OFFSET>-4.871053e-02</OFFSET>
*
*       <SLOPE>1.249136e+00</SLOPE>
*
*    </Calibration>
*
*    <Calibration format='FREQ0' id='external frequency channel'>
*
*       <EXTFREQSF>1.000014e+00</EXTFREQSF>
*
*    </Calibration>
*
* </CalibrationCoefficients>
* <EventCounters DeviceType='SBE19plus' SerialNumber='01907809'>
*
*    <EventSummary numEvents='0'/>
*
* </EventCounters></InstrumentState>
* <Headers>
*
* cast   2 04 Oct 2020 00:45:34 samples 2325 to 2843, avg = 1, stop = mag switch
*
# nquan = 16
# nvalues = 519                         
# units = specified
# name 0 = depFM: Depth [fresh water, m]
# name 1 = dz/dtM: Descent Rate [m/s]
# name 2 = sbeox0ML/L: Oxygen, SBE 43 [ml/l]
# name 3 = sbeox0PS: Oxygen, SBE 43 [% saturation]
# name 4 = specc: Specific Conductance [uS/cm]
# name 5 = c0uS/cm: Conductivity [uS/cm]
# name 6 = flECO-AFL: Fluorescence, WET Labs ECO-AFL/FL [mg/m^3]
# name 7 = ph: pH
# name 8 = orp: Oxidation Reduction Potential [mV]
# name 9 = par/sat/log: PAR/Logarithmic, Satlantic
# name 10 = turbWETntu0: Turbidity, WET Labs ECO [NTU]
# name 11 = prdM: Pressure, Strain Gauge [db]
# name 12 = prdE: Pressure, Strain Gauge [psi]
# name 13 = tv290C: Temperature [ITS-90, deg C]
# name 14 = density00: Density [density, kg/m^3]
# name 15 = flag:  0.000e+00
# span 0 =     -0.624,      1.520       
# span 1 =     -0.393,      0.250       
# span 2 =     4.9082,     7.2271       
# span 3 =     74.385,    109.170       
# span 4 =      1.427,     38.276       
# span 5 =   1.185234,  32.724131       
# span 6 =    -3.1569,     4.2502       
# span 7 =     -2.377,     15.763       
# span 8 =   133.8565,  1115.2395       
# span 9 = 1.0767e+01, 1.5709e+03       
# span 10 =    -1.1773,    28.2578      
# span 11 =     -0.612,      1.491      
# span 12 =     -0.887,      2.162      
# span 13 =    16.4784,    18.5273      
# span 14 =   998.5150,   998.8873      
# span 15 = 0.0000e+00, 0.0000e+00      
# interval = seconds: 0.25
# start_time = Oct 04 2020 00:45:34 [Instrument's time stamp, header]
# bad_flag = -9.990e-29
# <Sensors count="9" >
#   <sensor Channel="1" >
#     <!-- Count, Temperature -->
#     <TemperatureSensor SensorID="58" >
#       <SerialNumber>7809</SerialNumber>
#       <CalibrationDate>17-Feb-20</CalibrationDate>
#       <A0>1.23182765e-003</A0>
#       <A1>2.76547921e-004</A1>
#       <A2>-9.73816136e-007</A2>
#       <A3>1.72581310e-007</A3>
#       <Slope>1.00000000</Slope>
#       <Offset>0.0000</Offset>
#     </TemperatureSensor>
#   </sensor>
#   <sensor Channel="2" >
#     <!-- Frequency 0, Conductivity -->
#     <ConductivitySensor SensorID="3" >
#       <SerialNumber>7809</SerialNumber>
#       <CalibrationDate>17-Feb-20</CalibrationDate>
#       <UseG_J>1</UseG_J>
#       <!-- Cell const and series R are applicable only for wide range sensors. -->
#       <SeriesR>0.0000</SeriesR>
#       <CellConst>2000.0000</CellConst>
#       <ConductivityType>0</ConductivityType>
#       <Coefficients equation="0" >
#         <A>0.00000000e+000</A>
#         <B>0.00000000e+000</B>
#         <C>0.00000000e+000</C>
#         <D>0.00000000e+000</D>
#         <M>0.0</M>
#         <CPcor>-9.57000000e-008</CPcor>
#       </Coefficients>
#       <Coefficients equation="1" >
#         <G>-1.00490463e+000</G>
#         <H>1.26424869e-001</H>
#         <I>-3.33847890e-005</I>
#         <J>1.82240562e-005</J>
#         <CPcor>-9.57000000e-008</CPcor>
#         <CTcor>3.2500e-006</CTcor>
#         <!-- WBOTC not applicable unless ConductivityType = 1. -->
#         <WBOTC>0.00000000e+000</WBOTC>
#       </Coefficients>
#       <Slope>1.00000000</Slope>
#       <Offset>0.00000</Offset>
#     </ConductivitySensor>
#   </sensor>
#   <sensor Channel="3" >
#     <!-- Count, Pressure, Strain Gauge -->
#     <PressureSensor SensorID="46" >
#       <SerialNumber>7809</SerialNumber>
#       <CalibrationDate>30-Jan-20</CalibrationDate>
#       <PA0>-8.83936748e-003</PA0>
#       <PA1>4.85235293e-004</PA1>
#       <PA2>-3.46384727e-012</PA2>
#       <PTEMPA0>-5.39633232e+001</PTEMPA0>
#       <PTEMPA1>5.39076104e+001</PTEMPA1>
#       <PTEMPA2>-2.23178720e-002</PTEMPA2>
#       <PTCA0>5.25467230e+005</PTCA0>
#       <PTCA1>5.13856356e+000</PTCA1>
#       <PTCA2>-2.72693365e-001</PTCA2>
#       <PTCB0>2.51668750e+001</PTCB0>
#       <PTCB1>3.75000000e-004</PTCB1>
#       <PTCB2>0.00000000e+000</PTCB2>
#       <Offset>0.000000</Offset>
#     </PressureSensor>
#   </sensor>
#   <sensor Channel="4" >
#     <!-- A/D voltage 0, Oxygen, SBE 43 -->
#     <OxygenSensor SensorID="38" >
#       <SerialNumber>0434</SerialNumber>
#       <CalibrationDate>17-Mar-20</CalibrationDate>
#       <Use2007Equation>1</Use2007Equation>
#       <CalibrationCoefficients equation="0" >
#         <!-- Coefficients for Owens-Millard equation. -->
#         <Boc>0.0000</Boc>
#         <Soc>0.0000e+000</Soc>
#         <offset>0.0000</offset>
#         <Pcor>0.00e+000</Pcor>
#         <Tcor>0.0000</Tcor>
#         <Tau>0.0</Tau>
#       </CalibrationCoefficients>
#       <CalibrationCoefficients equation="1" >
#         <!-- Coefficients for Sea-Bird equation - SBE calibration in 2007 and later. -->
#         <Soc>4.3425e-001</Soc>
#         <offset>-0.6091</offset>
#         <A>-4.2837e-003</A>
#         <B> 1.6743e-004</B>
#         <C>-2.2978e-006</C>
#         <D0> 2.5826e+000</D0>
#         <D1> 1.92634e-004</D1>
#         <D2>-4.64803e-002</D2>
#         <E> 3.6000e-002</E>
#         <Tau20> 1.3000</Tau20>
#         <H1>-3.3000e-002</H1>
#         <H2> 5.0000e+003</H2>
#         <H3> 1.4500e+003</H3>
#       </CalibrationCoefficients>
#     </OxygenSensor>
#   </sensor>
#   <sensor Channel="5" >
#     <!-- A/D voltage 1, PAR/Logarithmic, Satlantic -->
#     <PARLog_SatlanticSensor SensorID="76" >
#       <SerialNumber>1122</SerialNumber>
#       <CalibrationDate>08-May-2019</CalibrationDate>
#       <a0>9.7456e-001</a0>
#       <a1>8.1640e-001</a1>
#       <Im>1.3589e+000</Im>
#       <Multiplier>1.0000e+000</Multiplier>
#     </PARLog_SatlanticSensor>
#   </sensor>
#   <sensor Channel="6" >
#     <!-- A/D voltage 2, pH -->
#     <pH_Sensor SensorID="43" >
#       <SerialNumber>0363</SerialNumber>
#       <CalibrationDate>24-Feb-20</CalibrationDate>
#       <Slope>4.6470</Slope>
#       <Offset>2.5043</Offset>
#     </pH_Sensor>
#   </sensor>
#   <sensor Channel="7" >
#     <!-- A/D voltage 3, Oxidation Reduction Potential -->
#     <OxidationReductionPotentialSensor SensorID="41" >
#       <SerialNumber>0363</SerialNumber>
#       <CalibrationDate>24-Feb-20</CalibrationDate>
#       <B>2.499480</B>
#       <M>-0.496195</M>
#       <Offset>0.0</Offset>
#     </OxidationReductionPotentialSensor>
#   </sensor>
#   <sensor Channel="8" >
#     <!-- A/D voltage 4, Fluorometer, WET Labs ECO-AFL/FL -->
#     <FluoroWetlabECO_AFL_FL_Sensor SensorID="20" >
#       <SerialNumber>FLNTURT-2496</SerialNumber>
#       <CalibrationDate>31-Jan-2020</CalibrationDate>
#       <ScaleFactor>5.50000000e+001</ScaleFactor>
#       <!-- Dark output -->
#       <Vblank>0.0700</Vblank>
#     </FluoroWetlabECO_AFL_FL_Sensor>
#   </sensor>
#   <sensor Channel="9" >
#     <!-- A/D voltage 5, Turbidity Meter, WET Labs, ECO-NTU -->
#     <TurbidityMeter SensorID="67" >
#       <SerialNumber>FLNTURT-2496</SerialNumber>
#       <CalibrationDate>31-Jan-20</CalibrationDate>
#       <ScaleFactor>198.000000</ScaleFactor>
#       <!-- Dark output -->
#       <DarkVoltage>0.070000</DarkVoltage>
#     </TurbidityMeter>
#   </sensor>
# </Sensors>
# datcnv_date = Oct 05 2020 07:54:26, 7.26.7.129 [datcnv_vars = 15]
# datcnv_in = C:\DATA\100420_fcr20.hex C:\DATA\SBE19plusV2_7809.xmlcon
# datcnv_skipover = 0
# datcnv_ox_hysteresis_correction = yes
# datcnv_ox_tau_correction = yes
# filter_date = Oct 05 2020 07:55:15, 7.26.7.129
# filter_in = C:\DATA\100420_fcr20.cnv
# filter_low_pass_tc_A = 0.030
# filter_low_pass_tc_B = 0.150
# filter_low_pass_A_vars = sbeox0ML/L prdM prdE tv290C density00
# filter_low_pass_B_vars = depFM dz/dtM sbeox0PS specc c0uS/cm flECO-AFL ph orp par/sat/log turbWETntu0
# alignctd_date = Oct 05 2020 07:55:47, 7.26.7.129
# alignctd_in = C:\DATA\100420_fcr20.cnv
# alignctd_adv = dz/dtM 1.000, sbeox0PS 1.000, specc 1.000, c0uS/cm 1.000, flECO-AFL 1.000, ph 1.000, orp 1.000, turbWETntu0 1.000                                                                                                   
# file_type = ascii
*END*
     -0.623 9.6978e-15     6.3900     93.466      1.427   1.185234    -0.9499     -2.094   877.8962 4.5659e+02    -0.2344     -0.610     -0.885    16.5007   998.8653 0.0000e+00
     -0.623 1.0668e-13     6.3897     93.443      1.530   1.270320    -0.9495     -2.351   877.6525 5.3244e+02    -0.2507     -0.611     -0.886    16.4996   998.8655 0.0000e+00
     -0.623 1.1734e-12     6.3904     93.439      1.730   1.435922    -0.9414     -2.375   877.5026 9.1865e+02    -0.2808     -0.610     -0.885    16.4986   998.8657 0.0000e+00
     -0.623 1.2908e-11     6.3908     93.451      1.932   1.603771    -0.9371     -2.377   877.4605 1.5709e+03    -0.2901     -0.610     -0.885    16.4976   998.8658 0.0000e+00
     -0.622 1.4198e-10     6.3872     93.470      2.068   1.716012    -0.9263     -2.377   877.4018 1.5490e+03    -0.2598     -0.610     -0.885    16.4967   998.8660 0.0000e+00
     -0.622 1.5618e-09     6.3862     93.490      2.144   1.779402    -0.9251     -2.377   877.3950 8.0729e+02    -0.2917     -0.609     -0.884    16.4953   998.8663 0.0000e+00
     -0.622 1.7180e-08     6.3857     93.512      2.169   1.800056    -0.9328     -2.377   877.3782 3.6368e+02    -0.2992     -0.610     -0.885    16.4941   998.8665 0.0000e+00
     -0.622 1.8898e-07     6.3874     93.523      2.139   1.775676    -0.9329     -2.377   877.2846 3.1313e+02    -0.0416     -0.610     -0.885    16.4922   998.8669 0.0000e+00
     -0.622      0.000     6.3889     93.519      2.094   1.738035    -0.9359     -2.376   877.2965 3.0143e+02     0.3513     -0.610     -0.885    16.4912   998.8670 0.0000e+00
     -0.622      0.000     6.3905     93.519      2.078   1.725047    -0.9411     -2.364   878.0373 2.9711e+02     0.5721     -0.610     -0.885    16.4886   998.8675 0.0000e+00
     -0.622      0.000     6.3920     93.505      2.249   1.872045    -0.9662     -2.238   885.9833 3.0037e+02     0.7053     -0.610     -0.885    16.4890   998.8674 0.0000e+00
     -0.622      0.003     6.3945     93.480      2.905   2.438397    -1.3637     -0.868   973.8015 3.0693e+02     1.3089     -0.610     -0.885    16.4845   998.8681 0.0000e+00
     -0.622      0.010     6.3916     93.459      7.624   6.482171    -2.1040      2.901  1115.2395 3.1257e+02     2.3775     -0.610     -0.885    16.4884   998.8676 0.0000e+00
     -0.622      0.025     6.3944     93.409     18.912  16.162108    -2.4979      7.609   945.6926 3.1648e+02     3.0509     -0.611     -0.886    16.4784   998.8691 0.0000e+00
     -0.620      0.048     6.3909     93.372     30.295  25.982032    -2.4926     11.115   474.5966 3.2363e+02     3.6494     -0.610     -0.885    16.5013   998.8654 0.0000e+00
     -0.612      0.080     6.3500     93.353     35.940  30.932166    -2.0778     13.165   207.9451 3.3639e+02     9.3730     -0.606     -0.878    16.7724   998.8192 0.0000e+00
     -0.592      0.120     6.2927     93.318     37.350  32.249266    -1.3173     14.294   178.6551 3.4794e+02    19.8624     -0.584     -0.848    17.2307   998.7403 0.0000e+00
     -0.557      0.161     6.2356     93.299     37.406  32.390927    -0.9069     14.904   173.8839 3.5714e+02    25.5895     -0.552     -0.800    17.6126   998.6767 0.0000e+00
     -0.508      0.198     6.2022     93.309     37.315  32.391305    -0.8256     15.241   171.3364 3.6661e+02    25.8490     -0.504     -0.732    17.8528   998.6376 0.0000e+00
     -0.443      0.227     6.1813     93.362     37.241  32.380836    -0.3444     15.429   167.6420 3.7216e+02    22.3824     -0.436     -0.634    18.0304   998.6066 0.0000e+00
     -0.370      0.245     6.1576     93.528     37.221  32.391311     0.5241     15.541   164.4924 3.7051e+02    15.9129     -0.362     -0.525    18.1739   998.5804 0.0000e+00
     -0.299      0.250     6.1420     93.822     37.208  32.391101     1.0062     15.607   164.0565 3.5884e+02    12.3795     -0.291     -0.422    18.2947   998.5578 0.0000e+00
     -0.234      0.242     6.1283     94.201     37.192  32.378297     1.0594     15.645   161.6830 3.2754e+02    12.0700     -0.228     -0.332    18.4128   998.5359 0.0000e+00
     -0.173      0.226     6.1199     94.683     37.180  32.363406     1.0630     15.667   158.4231 2.7313e+02    12.0675     -0.168     -0.245    18.4853   998.5224 0.0000e+00
     -0.116      0.205     6.1263     95.253     37.163  32.337931     1.0972     15.680   157.4225 2.1618e+02    12.1437     -0.110     -0.159    18.5138   998.5172 0.0000e+00
     -0.066      0.184     6.1474     95.839     37.165  32.324051     1.1873     15.688   157.2429 1.6931e+02    12.3387     -0.062     -0.089    18.5270   998.5150 0.0000e+00
     -0.024      0.163     6.1695     96.402     37.180  32.322459     1.2463     15.693   157.2834 1.2451e+02    12.5031     -0.022     -0.032    18.5273   998.5152 0.0000e+00
      0.014      0.142     6.2026     96.890     37.188  32.318665     1.2573     15.697   157.3956 9.0328e+01    12.5861      0.015      0.021    18.5201   998.5167 0.0000e+00
      0.048      0.122     6.2445     97.273     37.151  32.278166     1.3300     15.698   157.4818 7.5459e+01    12.8611      0.050      0.072    18.5067   998.5193 0.0000e+00
      0.077      0.106     6.2859     97.633     37.086  32.213461     1.4574     15.698   157.3792 6.9392e+01    13.2886      0.078      0.114    18.4821   998.5241 0.0000e+00
      0.099      0.091     6.3272     98.021     37.055  32.170779     1.5201     15.699   157.1015 6.4096e+01    13.4624      0.098      0.142    18.4591   998.5286 0.0000e+00
      0.118      0.078     6.3625     98.253     37.051  32.142766     1.5342     15.701   156.8772 5.8637e+01    13.4521      0.115      0.168    18.4467   998.5310 0.0000e+00
      0.137      0.067     6.3865     98.106     37.066  32.128518     1.5993     15.703   156.8182 5.4107e+01    13.6101      0.135      0.196    18.4382   998.5328 0.0000e+00
      0.152      0.060     6.4071     97.503     37.091  32.125355     1.6972     15.705   156.8184 5.1454e+01    13.8968      0.150      0.218    18.4289   998.5346 0.0000e+00
      0.165      0.055     6.4421     96.508     37.091  32.104491     1.7362     15.706   156.9651 5.0329e+01    14.0351      0.161      0.235    18.4096   998.5382 0.0000e+00
      0.176      0.052     6.4681     95.273     37.066  32.066576     1.7272     15.707   157.2154 5.0084e+01    14.0114      0.173      0.251    18.3745   998.5449 0.0000e+00
      0.188      0.050     6.4647     93.906     37.061  32.047581     1.7606     15.708   157.3495 4.9847e+01    14.0228      0.184      0.267    18.3336   998.5527 0.0000e+00
      0.201      0.049     6.4288     92.496     37.094  32.065143     1.8347     15.709   157.2105 4.9427e+01    14.1379      0.197      0.286    18.2985   998.5594 0.0000e+00
      0.215      0.048     6.3615     91.124     37.130  32.088568     1.8701     15.709   156.9968 4.8776e+01    14.2369      0.210      0.305    18.2719   998.5644 0.0000e+00
      0.228      0.045     6.2811     89.848     37.121  32.077007     1.8641     15.709   157.0898 4.7504e+01    14.2232      0.224      0.325    18.2510   998.5684 0.0000e+00
      0.241      0.041     6.1919     88.733     37.096  32.052248     1.8857     15.710   157.4736 4.6265e+01    14.0752      0.238      0.344    18.2312   998.5721 0.0000e+00
      0.251      0.035     6.0981     87.789     37.089  32.042992     1.9504     15.711   157.9376 4.5532e+01    13.8888      0.247      0.358    18.2145   998.5753 0.0000e+00
      0.259      0.027     6.0090     86.962     37.077  32.028530     1.9977     15.712   158.3983 4.4802e+01    13.8238      0.254      0.368    18.2054   998.5771 0.0000e+00
      0.265      0.018     5.9221     86.195     37.056  32.004282     1.9995     15.712   158.8279 4.4105e+01    13.8041      0.260      0.377    18.2010   998.5779 0.0000e+00
      0.269      0.009     5.8493     85.443     37.065  32.003591     1.9919     15.713   159.2601 4.3880e+01    13.7533      0.264      0.383    18.1975   998.5786 0.0000e+00
      0.270      0.000     5.7893     84.705     37.095  32.020161     1.9906     15.713   159.5803 4.3958e+01    13.4498      0.266      0.386    18.1941   998.5792 0.0000e+00
      0.268     -0.010     5.7363     84.027     37.098  32.014280     1.9933     15.713   159.5155 4.3908e+01    12.8817      0.265      0.383    18.1887   998.5802 0.0000e+00
      0.264     -0.017     5.6886     83.510     37.084  31.995919     2.0057     15.713   159.4233 4.3685e+01    12.5847      0.259      0.376    18.1790   998.5820 0.0000e+00
      0.258     -0.020     5.6396     83.236     37.079  31.988487     2.0072     15.714   159.7566 4.3526e+01    12.5703      0.255      0.369    18.1671   998.5842 0.0000e+00
      0.249     -0.018     5.5922     83.290     37.078  31.987863     2.0013     15.714   160.3618 4.3509e+01    12.6049      0.246      0.357    18.1553   998.5864 0.0000e+00
      0.239     -0.013     5.5449     83.733     37.078  31.988374     2.0108     15.714   160.7181 4.3304e+01    12.7279      0.233      0.338    18.1435   998.5885 0.0000e+00
      0.234     -0.008     5.5110     84.575     37.085  31.994671     2.0182     15.714   160.3646 4.2786e+01    12.8218      0.226      0.328    18.1342   998.5903 0.0000e+00
      0.237     -0.008     5.4908     85.761     37.093  32.000552     2.0141     15.714   159.7876 4.2259e+01    12.7784      0.230      0.334    18.1310   998.5909 0.0000e+00
      0.244     -0.008     5.4925     87.075     37.086  31.996032     1.9715     15.714   159.7637 4.1955e+01    12.3749      0.240      0.349    18.1313   998.5908 0.0000e+00
      0.249     -0.005     5.5222     88.284     37.091  32.003463     1.9032     15.714   160.4206 4.2085e+01    11.7199      0.249      0.361    18.1334   998.5904 0.0000e+00
      0.242      0.001     5.5769     89.270     37.115  32.026968     1.8750     15.714   160.8467 4.2995e+01    11.4165      0.241      0.351    18.1336   998.5904 0.0000e+00
      0.228      0.014     5.6628     89.948     37.111  32.026448     1.8777     15.714   160.8716 4.4027e+01    11.4532      0.220      0.320    18.1300   998.5910 0.0000e+00
      0.222      0.036     5.7554     90.211     37.072  31.997174     1.9367     15.714   161.3245 4.3770e+01    12.0603      0.209      0.303    18.1315   998.5906 0.0000e+00
      0.233      0.064     5.8364     90.047     37.059  31.990251     2.0533     15.714   161.6760 4.2218e+01    13.2298      0.225      0.327    18.1376   998.5896 0.0000e+00
      0.258      0.088     5.9022     89.572     37.072  32.006202     2.1250     15.714   161.5080 4.0281e+01    13.9209      0.251      0.365    18.1413   998.5891 0.0000e+00
      0.295      0.102     5.9502     88.929     37.060  31.999706     2.1459     15.714   161.3577 3.7801e+01    14.0306      0.282      0.409    18.1458   998.5884 0.0000e+00
      0.341      0.100     5.9678     88.294     37.031  31.975151     2.1520     15.714   161.4075 3.5279e+01    13.8008      0.339      0.491    18.1513   998.5876 0.0000e+00
      0.377      0.084     5.9517     87.773     37.018  31.963094     2.1421     15.714   161.4222 3.4137e+01    13.3051      0.380      0.550    18.1559   998.5869 0.0000e+00
      0.394      0.059     5.9178     87.378     37.040  31.980823     2.1314     15.714   161.4497 3.4151e+01    13.0145      0.390      0.564    18.1641   998.5854 0.0000e+00
      0.398      0.029     5.8691     87.133     37.065  31.999167     2.1277     15.714   161.4818 3.4727e+01    13.0005      0.393      0.569    18.1701   998.5843 0.0000e+00
      0.395      0.002     5.8242     86.949     37.065  31.994543     2.1255     15.714   161.4659 3.5797e+01    12.9981      0.388      0.563    18.1703   998.5842 0.0000e+00
      0.389     -0.016     5.7920     86.689     37.065  31.988361     2.1051     15.715   161.7734 3.7170e+01    12.7443      0.382      0.554    18.1685   998.5845 0.0000e+00
      0.380     -0.023     5.7630     86.313     37.071  31.987851     2.0720     15.715   162.1890 3.8580e+01    12.3353      0.374      0.542    18.1660   998.5850 0.0000e+00
      0.370     -0.023     5.7502     85.756     37.077  31.988371     2.0583     15.715   162.3602 3.9993e+01    12.1389      0.362      0.525    18.1625   998.5856 0.0000e+00
      0.363     -0.018     5.7440     84.936     37.089  31.994650     2.0639     15.715   162.5523 4.1392e+01    12.1210      0.353      0.512    18.1557   998.5868 0.0000e+00
      0.359     -0.012     5.7266     83.957     37.098  32.000313     2.0729     15.714   162.7051 4.2514e+01    12.2215      0.351      0.509    18.1472   998.5884 0.0000e+00
      0.358     -0.005     5.7042     83.028     37.091  31.993392     2.0709     15.714   162.5735 4.3241e+01    12.4275      0.351      0.510    18.1391   998.5899 0.0000e+00
      0.359      0.000     5.6724     82.276     37.070  31.974416     2.0594     15.715   162.5100 4.3332e+01    12.5165      0.352      0.510    18.1322   998.5912 0.0000e+00
      0.361      0.005     5.6159     81.836     37.055  31.961217     2.0678     15.716   162.7975 4.2633e+01    12.5778      0.355      0.514    18.1274   998.5921 0.0000e+00
      0.363      0.009     5.5439     81.778     37.053  31.960688     2.1052     15.716   163.2107 4.1342e+01    13.0997      0.357      0.517    18.1247   998.5926 0.0000e+00
      0.364      0.010     5.4826     82.033     37.062  31.968024     2.1389     15.716   163.4614 3.9999e+01    13.9514      0.356      0.517    18.1227   998.5930 0.0000e+00
      0.367      0.010     5.4286     82.528     37.083  31.986471     2.1427     15.716   163.5054 3.8955e+01    14.3963      0.359      0.520    18.1216   998.5932 0.0000e+00
      0.372      0.009     5.3966     83.168     37.090  31.993392     2.1326     15.715   163.5709 3.8242e+01    14.4269      0.366      0.531    18.1221   998.5931 0.0000e+00
      0.377      0.008     5.3967     83.767     37.082  31.988257     2.1306     15.715   163.8239 3.8062e+01    14.4588      0.371      0.539    18.1232   998.5929 0.0000e+00
      0.379      0.006     5.4142     84.215     37.081  31.987831     2.1375     15.716   164.1551 3.8377e+01    14.5763      0.372      0.540    18.1242   998.5927 0.0000e+00
      0.378      0.004     5.4479     84.490     37.082  31.988248     2.1399     15.717   164.3921 3.8947e+01    14.6453      0.370      0.537    18.1241   998.5928 0.0000e+00
      0.377      0.002     5.4965     84.580     37.088  31.993288     2.1308     15.717   164.4520 3.9572e+01    14.6059      0.369      0.535    18.1249   998.5926 0.0000e+00
      0.378      0.000     5.5385     84.525     37.080  31.985326     2.1416     15.716   164.2765 4.0100e+01    14.4440      0.370      0.536    18.1273   998.5922 0.0000e+00
      0.379 7.4185e-12     5.5663     84.361     37.047  31.955429     2.1847     15.716   164.0778 4.0529e+01    14.1988      0.371      0.538    18.1284   998.5920 0.0000e+00
      0.379 8.1603e-11     5.5872     84.129     37.042  31.949039     2.2134     15.716   164.1142 4.0839e+01    14.0435      0.372      0.539    18.1286   998.5919 0.0000e+00
      0.378 8.9764e-10     5.5903     83.936     37.070  31.971495     2.2020     15.716   164.2872 4.0949e+01    13.9738      0.371      0.538    18.1277   998.5922 0.0000e+00
      0.377 9.8740e-09     5.5867     83.853     37.074  31.973159     2.1810     15.716   164.3627 4.0794e+01    13.9399      0.370      0.536    18.1257   998.5925 0.0000e+00
      0.377 1.0861e-07     5.5761     83.888     37.071  31.969159     2.1785     15.716   164.3378 4.0499e+01    14.0122      0.370      0.536    18.1234   998.5930 0.0000e+00
      0.378 -6.700e-07     5.5571     84.014     37.093  31.986575     2.1915     15.716   164.5033 4.0274e+01    14.1606      0.371      0.537    18.1211   998.5933 0.0000e+00
      0.378      0.000     5.5431     84.164     37.102  31.993403     2.2037     15.716   164.8146 4.0205e+01    14.1894      0.371      0.538    18.1188   998.5938 0.0000e+00
      0.378      0.000     5.5382     84.278     37.098  31.988260     2.2022     15.716   165.0043 4.0359e+01    14.1195      0.371      0.538    18.1165   998.5942 0.0000e+00
      0.378     -0.001     5.5408     84.308     37.100  31.987834     2.2117     15.716   165.0761 4.0774e+01    14.0020      0.371      0.538    18.1144   998.5945 0.0000e+00
      0.378     -0.003     5.5515     84.196     37.102  31.988249     2.2521     15.716   165.1662 4.1382e+01    13.7655      0.371      0.538    18.1126   998.5950 0.0000e+00
      0.377     -0.003     5.5633     83.932     37.109  31.993278     2.2809     15.716   165.1472 4.1990e+01    13.5595      0.371      0.537    18.1111   998.5952 0.0000e+00
      0.375     -0.002     5.5710     83.536     37.099  31.985202     2.2827     15.716   164.8461 4.2513e+01    13.5033      0.369      0.534    18.1089   998.5956 0.0000e+00
      0.373      0.000     5.5763     83.046     37.063  31.954047     2.2743     15.716   164.8821 4.2950e+01    13.7377      0.366      0.531    18.1058   998.5962 0.0000e+00
      0.373      0.003     5.5683     82.536     37.040  31.933813     2.2651     15.716   165.3244 4.3229e+01    14.1962      0.366      0.531    18.1037   998.5966 0.0000e+00
      0.374      0.005     5.5507     82.072     37.038  31.930890     2.2670     15.716   165.2036 4.3370e+01    14.4467      0.367      0.533    18.1032   998.5967 0.0000e+00
      0.376      0.005     5.5239     81.666     37.026  31.918702     2.2683     15.716   164.5395 4.3233e+01    14.3978      0.367      0.533    18.1038   998.5965 0.0000e+00
      0.382      0.002     5.4893     81.282     37.020  31.913339     2.2617     15.716   164.0923 4.2790e+01    13.9828      0.375      0.543    18.1036   998.5966 0.0000e+00
      0.388     -0.001     5.4539     80.897     37.040  31.929497     2.2546     15.716   164.2700 4.2525e+01    13.3084      0.385      0.558    18.1041   998.5966 0.0000e+00
      0.386     -0.003     5.4229     80.487     37.035  31.923730     2.2582     15.716   164.9673 4.2713e+01    12.9732      0.382      0.553    18.1014   998.5971 0.0000e+00
      0.377     -0.004     5.3986     80.057     37.019  31.907050     2.2682     15.716   165.4686 4.3078e+01    13.0197      0.369      0.535    18.0960   998.5979 0.0000e+00
      0.371     -0.006     5.3728     79.629     37.035  31.918160     2.2696     15.717   165.3402 4.3355e+01    13.1144      0.361      0.522    18.0979   998.5976 0.0000e+00
      0.371     -0.006     5.3483     79.195     37.053  31.931160     2.2660     15.718   164.9637 4.3664e+01    13.1914      0.363      0.526    18.0992   998.5974 0.0000e+00
      0.376     -0.004     5.3215     78.737     37.064  31.937334     2.2621     15.718   164.7884 4.4212e+01    13.2301      0.370      0.536    18.0950   998.5982 0.0000e+00
      0.378     -0.001     5.2923     78.234     37.057  31.929364     2.2611     15.718   164.9419 4.5025e+01    13.2390      0.373      0.540    18.0914   998.5988 0.0000e+00
      0.376      0.000     5.2651     77.710     37.021  31.898238     2.2633     15.717   165.2705 4.5836e+01    13.2295      0.370      0.536    18.0882   998.5994 0.0000e+00
      0.372     -0.000     5.2368     77.224     36.997  31.878223     2.2606     15.717   165.3202 4.6326e+01    13.1504      0.364      0.528    18.0838   998.6002 0.0000e+00
      0.370     -0.000     5.2081     76.802     36.996  31.877703     2.2568     15.717   164.9402 4.6418e+01    13.0379      0.362      0.524    18.0795   998.6010 0.0000e+00
      0.372     -0.000     5.1746     76.434     37.014  31.891951     2.2646     15.717   164.5480 4.6176e+01    13.0021      0.365      0.529    18.0764   998.6016 0.0000e+00
      0.374      0.001     5.1380     76.091     37.053  31.923597     2.2790     15.717   164.4498 4.5857e+01    13.0270      0.368      0.534    18.0762   998.6017 0.0000e+00
      0.375      0.002     5.1050     75.767     37.077  31.943092     2.2874     15.718   164.6125 4.5608e+01    13.0976      0.369      0.536    18.0786   998.6012 0.0000e+00
      0.374      0.002     5.0776     75.513     37.071  31.937336     2.2803     15.719   164.8805 4.5375e+01    13.2041      0.367      0.533    18.0794   998.6010 0.0000e+00
      0.374      0.001     5.0540     75.304     37.050  31.917446     2.2693     15.719   165.1101 4.5227e+01    13.2504      0.367      0.532    18.0770   998.6015 0.0000e+00
      0.375      0.000     5.0329     75.057     37.023  31.892941     2.2783     15.719   165.2379 4.5233e+01    13.2450      0.368      0.534    18.0736   998.6021 0.0000e+00
      0.376 2.2015e-08     5.0088     74.797     37.028  31.894825     2.2756     15.719   165.3071 4.5452e+01    13.0704      0.369      0.536    18.0721   998.6024 0.0000e+00
      0.376 2.4216e-07     4.9920     74.541     37.081  31.940230     2.2461     15.719   165.3437 4.5852e+01    12.7531      0.369      0.536    18.0716   998.6025 0.0000e+00
      0.375 2.4552e-07     4.9836     74.385     37.140  31.997802     2.2259     15.718   165.3366 4.6318e+01    12.5678      0.368      0.534    18.0703   998.6027 0.0000e+00
      0.375 6.2629e-08     4.9640     74.861     37.150  32.019907     2.2128     15.717   165.3070 4.6758e+01    12.4768      0.367      0.532    18.0670   998.6033 0.0000e+00
      0.375 4.4909e-07     4.9473     76.720     37.132  32.017189     2.2402     15.715   165.1577 4.7077e+01    12.5800      0.368      0.533    18.0639   998.6039 0.0000e+00
      0.376      0.000     4.9325     80.237     37.137  32.028395     2.3091     15.715   164.9941 4.7240e+01    12.8890      0.369      0.535    18.0601   998.6046 0.0000e+00
      0.376      0.000     4.9082     85.035     37.133  32.028522     2.3405     15.716   165.0491 4.7256e+01    13.0198      0.369      0.535    18.0664   998.6035 0.0000e+00
      0.375      0.001     4.9136     90.475     37.121  32.018723     2.3344     15.716   165.2213 4.7159e+01    12.9939      0.368      0.534    18.0915   998.5988 0.0000e+00
      0.375      0.002     5.0276     95.970     37.142  32.036810     2.3206     15.716   165.2703 4.6784e+01    12.9884      0.368      0.533    18.1121   998.5950 0.0000e+00
      0.376      0.002     5.2714    100.980     37.165  32.056879     2.2976     15.717   165.0391 4.6255e+01    12.9536      0.368      0.534    18.1200   998.5936 0.0000e+00
      0.377      0.002     5.6039    104.974     37.182  32.071029     2.2755     15.717   164.9205 4.5985e+01    12.8812      0.369      0.536    18.1234   998.5929 0.0000e+00
      0.379      0.003     5.9772    107.644     37.194  32.081004     2.2630     15.717   165.2134 4.5988e+01    12.8003      0.371      0.538    18.1232   998.5929 0.0000e+00
      0.379      0.003     6.3504    108.961     37.159  32.050596     2.2617     15.716   165.3961 4.6019e+01    12.7313      0.372      0.539    18.1229   998.5931 0.0000e+00
      0.379      0.003     6.6972    109.170     37.124  32.020601     2.2691     15.715   165.2366 4.5811e+01    12.6644      0.371      0.538    18.1240   998.5929 0.0000e+00
      0.380      0.002     6.9670    108.690     37.139  32.035565     2.2756     15.715   165.0051 4.5765e+01    12.6089      0.371      0.538    18.1230   998.5930 0.0000e+00
      0.381      0.000     7.1445    107.855     37.143  32.041192     2.2741     15.716   164.9207 4.6378e+01    12.5757      0.374      0.542    18.1222   998.5932 0.0000e+00
      0.382     -0.002     7.2263    106.884     37.122  32.025191     2.2703     15.716   165.0770 4.7541e+01    12.5036      0.376      0.545    18.1221   998.5932 0.0000e+00
      0.381     -0.006     7.2271    105.946     37.128  32.032433     2.2765     15.716   165.1741 4.9499e+01    12.3550      0.375      0.542    18.1220   998.5932 0.0000e+00
      0.378     -0.014     7.1887    105.159     37.163  32.065323     2.2824     15.716   164.8891 5.2857e+01    12.1858      0.371      0.537    18.1239   998.5928 0.0000e+00
      0.376     -0.028     7.1280    104.522     37.205  32.105628     2.2752     15.716   164.2126 5.7234e+01    12.0717      0.368      0.534    18.1272   998.5922 0.0000e+00
      0.373     -0.046     7.0602    103.997     37.237  32.139086     2.2659     15.716   163.4476 6.1951e+01    12.0060      0.367      0.532    18.1308   998.5915 0.0000e+00
      0.364     -0.063     6.9936    103.597     37.244  32.152630     2.2366     15.716   163.1255 6.6585e+01    11.6657      0.362      0.524    18.1328   998.5912 0.0000e+00
      0.344     -0.077     6.9424    103.290     37.225  32.142515     2.1885     15.716   163.1573 7.0791e+01    11.0474      0.342      0.496    18.1366   998.5904 0.0000e+00
      0.312     -0.087     6.9011    103.004     37.225  32.143684     2.1701     15.716   163.1436 7.4843e+01    10.7442      0.307      0.445    18.1428   998.5890 0.0000e+00
      0.278     -0.097     6.8638    102.719     37.258  32.166766     2.1670     15.716   163.0456 7.7648e+01    10.7117      0.267      0.388    18.1489   998.5878 0.0000e+00
      0.253     -0.107     6.8369    102.461     37.265  32.167805     2.1600     15.716   162.8333 7.9131e+01    10.7579      0.244      0.354    18.1608   998.5855 0.0000e+00
      0.237     -0.117     6.8171    102.243     37.251  32.156236     2.1622     15.716   162.4702 8.4733e+01    10.9593      0.236      0.342    18.1737   998.5830 0.0000e+00
      0.217     -0.127     6.7987    102.107     37.242  32.153780     2.1652     15.716   162.0107 9.7345e+01    11.0872      0.220      0.318    18.1744   998.5827 0.0000e+00
      0.182     -0.137     6.7796    102.072     37.217  32.138120     2.1581     15.716   161.6648 1.1252e+02    11.1367      0.183      0.264    18.1638   998.5845 0.0000e+00
      0.135     -0.144     6.7651    102.091     37.162  32.093793     2.0941     15.716   161.7301 1.2862e+02    11.1810      0.132      0.192    18.1535   998.5862 0.0000e+00
      0.085     -0.145     6.7487    102.105     37.124  32.061963     1.9929     15.716   162.1120 1.4945e+02    11.1762      0.081      0.118    18.1538   998.5859 0.0000e+00
      0.041     -0.136     6.7378    102.076     37.136  32.070496     1.9460     15.716   164.5610 1.7418e+02    11.1810      0.036      0.052    18.1628   998.5840 0.0000e+00
      0.009     -0.117     6.7359    102.008     37.139  32.070068     1.9365     15.716   167.0779 2.1445e+02    11.1700      0.004      0.007    18.1723   998.5821 0.0000e+00
     -0.014     -0.092     6.7377    101.912     37.129  32.056789     1.9263     15.716   165.1832 4.4687e+02    11.1125     -0.014     -0.019    18.1784   998.5809 0.0000e+00
     -0.034     -0.063     6.7396    101.782     37.112  32.036825     1.8604     15.716   162.6455 8.4157e+02    11.0694     -0.034     -0.049    18.1790   998.5807 0.0000e+00
     -0.049     -0.033     6.7375    101.629     37.095  32.019010     1.7400     15.716   162.6373 1.0724e+03    11.0951     -0.052     -0.076    18.1761   998.5812 0.0000e+00
     -0.056     -0.005     6.7333    101.504     37.112  32.031729     1.6819     15.717   163.4490 1.1444e+03    11.1483     -0.057     -0.083    18.1722   998.5819 0.0000e+00
     -0.055      0.019     6.7282    101.431     37.150  32.063710     1.6736     15.717   164.3728 1.0573e+03    11.1287     -0.058     -0.084    18.1652   998.5832 0.0000e+00
     -0.044      0.036     6.7211    101.419     37.180  32.088459     1.7254     15.716   167.0098 7.0800e+02    11.1329     -0.049     -0.070    18.1577   998.5846 0.0000e+00
     -0.021      0.046     6.7093    101.470     37.168  32.077183     1.8507     15.716   170.8967 3.4646e+02    11.2679     -0.021     -0.029    18.1529   998.5856 0.0000e+00
      0.002      0.046     6.7011    101.535     37.141  32.054266     1.9290     15.716   171.0168 1.9583e+02    11.3878      0.008      0.011    18.1515   998.5860 0.0000e+00
      0.015      0.041     6.6965    101.573     37.151  32.065149     1.9475     15.716   167.3428 1.6965e+02    11.4157      0.019      0.026    18.1504   998.5863 0.0000e+00
      0.020      0.031     6.6952    101.608     37.168  32.081880     1.9317     15.715   164.5913 1.6705e+02    11.4678      0.020      0.029    18.1476   998.5868 0.0000e+00
      0.021      0.018     6.7007    101.677     37.148  32.066226     1.8897     15.715   163.6453 1.7192e+02    11.5711      0.020      0.029    18.1462   998.5871 0.0000e+00
      0.024      0.004     6.7061    101.740     37.148  32.066220     1.8689     15.715   163.2193 1.6724e+02    11.6004      0.023      0.033    18.1473   998.5869 0.0000e+00
      0.028     -0.009     6.7075    101.751     37.165  32.081809     1.8622     15.715   162.9682 1.6263e+02    11.5809      0.027      0.040    18.1508   998.5863 0.0000e+00
      0.028     -0.020     6.7072    101.745     37.142  32.064364     1.7988     15.716   162.7598 1.6912e+02    11.4397      0.029      0.042    18.1542   998.5856 0.0000e+00
      0.021     -0.027     6.7134    101.738     37.117  32.045643     1.6838     15.716   162.6784 1.7992e+02    11.0947      0.025      0.035    18.1551   998.5854 0.0000e+00
      0.006     -0.029     6.7198    101.708     37.114  32.045797     1.6163     15.715   162.7582 1.8693e+02    10.8773      0.007      0.011    18.1549   998.5854 0.0000e+00
     -0.011     -0.026     6.7182    101.674     37.136  32.066234     1.6031     15.715   162.7787 1.8862e+02    10.8711     -0.014     -0.020    18.1552   998.5853 0.0000e+00
     -0.021     -0.019     6.7167    101.639     37.179  32.102399     1.6191     15.716   162.6679 1.8439e+02    10.9502     -0.026     -0.038    18.1587   998.5844 0.0000e+00
     -0.021     -0.010     6.7174    101.588     37.180  32.102398     1.6579     15.716   162.5367 1.7001e+02    11.0782     -0.023     -0.033    18.1646   998.5834 0.0000e+00
     -0.016      0.000     6.7133    101.555     37.139  32.066220     1.6716     15.716   162.5692 1.5929e+02    11.1146     -0.015     -0.022    18.1689   998.5827 0.0000e+00
     -0.011      0.007     6.7106    101.550     37.116  32.045641     1.6601     15.715   162.7165 1.6076e+02    11.0819     -0.010     -0.014    18.1703   998.5824 0.0000e+00
     -0.008      0.009     6.7102    101.560     37.115  32.043924     1.6621     15.715   162.6830 1.6435e+02    11.0949     -0.007     -0.010    18.1689   998.5827 0.0000e+00
     -0.007      0.009     6.7047    101.597     37.117  32.045462     1.6863     15.716   162.5947 1.6554e+02    11.1343     -0.007     -0.010    18.1672   998.5831 0.0000e+00
     -0.007      0.009     6.7029    101.659     37.137  32.064233     1.7140     15.717   162.6807 1.6525e+02    11.1113     -0.007     -0.010    18.1660   998.5832 0.0000e+00
     -0.006      0.010     6.7037    101.709     37.154  32.080547     1.7207     15.717   162.8630 1.6468e+02    11.0565     -0.006     -0.008    18.1646   998.5834 0.0000e+00
     -0.004      0.012     6.7037    101.726     37.120  32.052375     1.7201     15.717   162.9918 1.6454e+02    11.0895     -0.005     -0.006    18.1634   998.5837 0.0000e+00
      0.000      0.014     6.7056    101.700     37.107  32.040845     1.7161     15.716   163.0328 1.6461e+02    11.3395     -0.000      0.000    18.1639   998.5837 0.0000e+00
      0.006      0.014     6.7115    101.638     37.140  32.068021     1.6819     15.716   163.1014 1.6350e+02    11.7103      0.005      0.008    18.1664   998.5832 0.0000e+00
      0.011      0.014     6.7141    101.584     37.136  32.063732     1.6495     15.716   163.2186 1.6147e+02    11.8647      0.011      0.016    18.1689   998.5828 0.0000e+00
      0.015      0.012     6.7155    101.544     37.123  32.052434     1.6487     15.716   163.3319 1.6008e+02    11.8331      0.015      0.022    18.1695   998.5827 0.0000e+00
      0.018      0.009     6.7146    101.526     37.130  32.058306     1.6338     15.715   163.3529 1.5834e+02    11.8441      0.018      0.025    18.1686   998.5828 0.0000e+00
      0.020      0.005     6.7078    101.552     37.145  32.071283     1.5843     15.715   163.3867 1.5674e+02    11.8937      0.021      0.030    18.1679   998.5830 0.0000e+00
      0.021      0.003     6.7057    101.629     37.156  32.082443     1.5464     15.715   163.5679 1.5802e+02    11.8832      0.022      0.031    18.1669   998.5832 0.0000e+00
      0.020      0.002     6.7025    101.735     37.135  32.066350     1.5280     15.715   163.7373 1.5997e+02    11.8205      0.020      0.028    18.1658   998.5834 0.0000e+00
      0.018      0.003     6.7009    101.851     37.131  32.067052     1.5048     15.715   163.7138 1.6129e+02    11.6512      0.017      0.025    18.1658   998.5834 0.0000e+00
      0.017      0.003     6.7022    101.980     37.155  32.090928     1.4852     15.715   163.4560 1.6355e+02    11.3464      0.016      0.023    18.1661   998.5833 0.0000e+00
      0.020      0.002     6.7077    102.099     37.165  32.101258     1.4820     15.715   163.2872 1.6375e+02    11.1570      0.019      0.027    18.1670   998.5832 0.0000e+00
      0.024      0.000     6.7152    102.152     37.196  32.128499     1.4760     15.716   163.3945 1.6042e+02    11.1463      0.025      0.036    18.1703   998.5826 0.0000e+00
      0.026     -0.002     6.7212    102.100     37.238  32.166518     1.4596     15.716   163.5485 1.5813e+02    11.3195      0.027      0.039    18.1766   998.5814 0.0000e+00
      0.023     -0.002     6.7298    101.978     37.249  32.180260     1.4652     15.716   163.6855 1.5854e+02    11.6722      0.024      0.034    18.1819   998.5804 0.0000e+00
      0.018     -0.001     6.7384    101.834     37.228  32.167766     1.4871     15.715   163.6753 1.5950e+02    11.8747      0.018      0.025    18.1840   998.5800 0.0000e+00
      0.015      0.000     6.7441    101.701     37.190  32.142355     1.4950     15.714   163.5109 1.6124e+02    11.8797      0.013      0.018    18.1838   998.5800 0.0000e+00
      0.016      0.003     6.7386    101.615     37.164  32.126817     1.4844     15.714   163.5049 1.6270e+02    11.9033      0.014      0.020    18.1855   998.5797 0.0000e+00
      0.021      0.006     6.7284    101.565     37.133  32.106797     1.4831     15.714   163.6018 1.6197e+02    12.1952      0.021      0.032    18.1909   998.5788 0.0000e+00
      0.025      0.006     6.7177    101.507     37.108  32.090637     1.5078     15.714   163.3920 1.6161e+02    12.7306      0.026      0.038    18.1990   998.5773 0.0000e+00
      0.027     -0.004     6.7060    101.455     37.142  32.121773     1.5252     15.714   163.0331 1.6522e+02    13.0208      0.026      0.037    18.2084   998.5755 0.0000e+00
      0.029     -0.022     6.6994    101.445     37.193  32.166036     1.5217     15.714   163.0484 1.7194e+02    12.9920      0.028      0.040    18.2187   998.5736 0.0000e+00
      0.029     -0.042     6.6963    101.421     37.213  32.181689     1.4841     15.713   163.3197 1.8603e+02    12.5196      0.032      0.046    18.2293   998.5717 0.0000e+00
      0.019     -0.059     6.6915    101.326     37.217  32.184143     1.4232     15.713   163.5592 2.1047e+02    11.6698      0.027      0.039    18.2357   998.5704 0.0000e+00
     -0.007     -0.067     6.6850    101.185     37.229  32.195712     1.3972     15.713   163.7080 2.3092e+02    11.1977     -0.003     -0.004    18.2383   998.5698 0.0000e+00
     -0.043     -0.062     6.6871    101.046     37.225  32.194675     1.3987     15.714   163.7416 2.4312e+02    11.1371     -0.046     -0.066    18.2381   998.5696 0.0000e+00
     -0.072     -0.047     6.6879    100.935     37.196  32.171603     1.3640     15.714   163.8793 2.7729e+02    11.1768     -0.075     -0.110    18.2342   998.5702 0.0000e+00
     -0.084     -0.023     6.6805    100.847     37.194  32.170545     1.3025     15.714   164.1686 4.9981e+02    11.3012     -0.089     -0.129    18.2324   998.5705 0.0000e+00
     -0.078      0.003     6.6699    100.812     37.205  32.181881     1.2744     15.714   164.1417 8.8953e+02    11.4048     -0.081     -0.118    18.2354   998.5699 0.0000e+00
     -0.060      0.026     6.6590    100.856     37.204  32.181767     1.2719     15.714   163.8132 1.1144e+03    11.3993     -0.058     -0.084    18.2390   998.5694 0.0000e+00
     -0.043      0.042     6.6527    100.944     37.189  32.169173     1.2825     15.713   163.6380 9.6271e+02    11.2682     -0.040     -0.058    18.2414   998.5690 0.0000e+00
     -0.032      0.049     6.6453    101.039     37.177  32.156502     1.3069     15.713   163.4860 6.2905e+02    11.1242     -0.030     -0.045    18.2433   998.5687 0.0000e+00
     -0.023      0.052     6.6412    101.082     37.179  32.155443     1.3289     15.713   163.3522 6.3508e+02    11.1002     -0.023     -0.034    18.2454   998.5683 0.0000e+00
     -0.013      0.057     6.6462    101.027     37.184  32.156377     1.3477     15.713   163.5688 9.5168e+02    11.1506     -0.014     -0.021    18.2466   998.5681 0.0000e+00
      0.000      0.066     6.6520    100.950     37.199  32.167784     1.4207     15.713   163.8673 1.0944e+03    11.3208     -0.000      0.000    18.2468   998.5682 0.0000e+00
      0.016      0.073     6.6598    100.907     37.201  32.166473     1.5332     15.713   163.8646 1.0274e+03    11.6143      0.015      0.021    18.2446   998.5686 0.0000e+00
      0.038      0.076     6.6664    100.855     37.176  32.140518     1.5738     15.713   163.6211 8.9360e+02    11.7809      0.033      0.048    18.2387   998.5699 0.0000e+00
      0.067      0.074     6.6596    100.785     37.142  32.107748     1.5780     15.713   163.4186 7.3158e+02    11.8246      0.066      0.096    18.2350   998.5707 0.0000e+00
      0.095      0.069     6.6526    100.748     37.120  32.087480     1.5936     15.713   163.4821 6.3658e+02    11.8334      0.097      0.142    18.2338   998.5710 0.0000e+00
      0.111      0.062     6.6531    100.795     37.119  32.085794     1.6387     15.714   163.7853 6.4253e+02    11.7491      0.112      0.162    18.2299   998.5718 0.0000e+00
      0.117      0.054     6.6504    100.902     37.122  32.087355     1.7321     15.715   164.1592 6.7229e+02    11.6300      0.116      0.167    18.2228   998.5732 0.0000e+00
      0.122      0.047     6.6455    101.033     37.145  32.106359     1.7882     15.714   164.2180 6.8530e+02    11.5611      0.118      0.171    18.2175   998.5742 0.0000e+00
      0.133      0.043     6.6410    101.200     37.167  32.125219     1.7926     15.713   163.8938 6.9396e+02    11.5679      0.129      0.187    18.2162   998.5745 0.0000e+00
      0.149      0.043     6.6453    101.394     37.169  32.125062     1.7947     15.713   163.5946 6.1745e+02    11.5405      0.146      0.212    18.2162   998.5746 0.0000e+00
      0.164      0.046     6.6541    101.587     37.149  32.104461     1.7952     15.714   163.5263 4.5453e+02    11.4009      0.162      0.234    18.2152   998.5748 0.0000e+00
      0.174      0.050     6.6615    101.748     37.113  32.066459     1.7889     15.715   163.5845 3.4215e+02    11.3229      0.172      0.249    18.2137   998.5751 0.0000e+00
      0.183      0.054     6.6733    101.848     37.101  32.046259     1.7944     15.715   163.6957 2.9327e+02    11.3864      0.178      0.259    18.2133   998.5753 0.0000e+00
      0.194      0.058     6.6869    101.883     37.118  32.050551     1.8422     15.715   163.9243 2.6354e+02    11.5857      0.188      0.273    18.2121   998.5756 0.0000e+00
      0.211      0.063     6.7009    101.878     37.133  32.054890     1.9090     15.715   164.3699 2.4886e+02    11.8434      0.204      0.297    18.2068   998.5766 0.0000e+00
      0.231      0.069     6.7139    101.851     37.115  32.035266     1.9341     15.715   165.0390 2.4813e+02    11.9614      0.226      0.328    18.1973   998.5785 0.0000e+00
      0.251      0.074     6.7224    101.841     37.080  32.003608     1.9261     15.715   165.6470 2.6393e+02    12.0171      0.247      0.358    18.1841   998.5811 0.0000e+00
      0.270      0.076     6.7258    101.893     37.066  31.989350     1.9467     15.715   166.0429 2.8987e+02    12.1056      0.265      0.384    18.1678   998.5842 0.0000e+00
      0.289      0.076     6.7273    101.989     37.071  31.989757     1.9928     15.715   166.2988 2.9460e+02    12.1041      0.282      0.409    18.1557   998.5865 0.0000e+00
      0.309      0.075     6.7251    102.089     37.098  32.008524     2.0062     15.716   166.5036 2.6845e+02    12.0328      0.303      0.440    18.1525   998.5872 0.0000e+00
      0.330      0.073     6.7224    102.168     37.123  32.025923     1.9947     15.716   166.7123 2.3494e+02    11.9994      0.324      0.470    18.1510   998.5876 0.0000e+00
      0.348      0.069     6.7276    102.228     37.108  32.009774     2.0150     15.716   166.9295 2.0259e+02    12.0436      0.342      0.496    18.1476   998.5882 0.0000e+00
      0.365      0.064     6.7356    102.298     37.102  32.003600     2.0607     15.717   167.1503 1.7241e+02    12.0871      0.357      0.518    18.1425   998.5893 0.0000e+00
      0.381      0.058     6.7438    102.363     37.115  32.014721     2.0802     15.718   167.2308 1.5066e+02    12.0437      0.374      0.542    18.1354   998.5907 0.0000e+00
      0.397      0.050     6.7501    102.384     37.119  32.017341     2.0698     15.718   167.2152 1.3657e+02    11.9996      0.390      0.566    18.1290   998.5919 0.0000e+00
      0.409      0.042     6.7529    102.339     37.142  32.035282     2.0591     15.717   167.3049 1.2756e+02    12.0349      0.402      0.583    18.1256   998.5926 0.0000e+00
      0.418      0.033     6.7587    102.265     37.152  32.041310     2.1126     15.716   167.4560 1.2173e+02    12.4358      0.411      0.597    18.1250   998.5928 0.0000e+00
      0.425      0.024     6.7636    102.191     37.137  32.026773     2.2210     15.717   167.4940 1.1732e+02    13.1385      0.416      0.605    18.1247   998.5929 0.0000e+00
      0.429      0.016     6.7664    102.115     37.164  32.049848     2.2733     15.718   167.4200 1.1324e+02    13.4585      0.421      0.610    18.1237   998.5931 0.0000e+00
      0.431      0.010     6.7623    102.049     37.183  32.066527     2.2675     15.717   167.4213 1.1621e+02    13.3874      0.423      0.614    18.1217   998.5935 0.0000e+00
      0.432      0.008     6.7567    102.001     37.150  32.038095     2.2660     15.717   167.5088 1.2832e+02    13.0683      0.424      0.615    18.1179   998.5942 0.0000e+00
      0.432      0.011     6.7534    101.969     37.133  32.023313     2.2738     15.717   167.7045 1.3897e+02    12.5182      0.424      0.616    18.1152   998.5947 0.0000e+00
      0.432      0.016     6.7473    101.954     37.122  32.014684     2.2762     15.717   168.0667 1.4595e+02    12.1952      0.423      0.615    18.1148   998.5948 0.0000e+00
      0.433      0.021     6.7430    101.953     37.102  31.997217     2.2758     15.717   168.1884 1.5214e+02    12.1155      0.423      0.613    18.1150   998.5948 0.0000e+00
      0.439      0.024     6.7397    101.941     37.109  32.002460     2.2690     15.717   168.0568 1.5522e+02    12.0699      0.428      0.621    18.1156   998.5946 0.0000e+00
      0.452      0.024     6.7377    101.925     37.124  32.014628     2.2610     15.717   168.0247 1.5414e+02    12.0900      0.443      0.645    18.1164   998.5946 0.0000e+00
      0.466      0.021     6.7361    101.929     37.127  32.017445     2.2747     15.717   168.1443 1.4895e+02    12.1188      0.459      0.667    18.1169   998.5945 0.0000e+00
      0.472      0.019     6.7373    101.918     37.148  32.036516     2.2914     15.717   168.5560 1.4019e+02    12.1089      0.466      0.675    18.1160   998.5947 0.0000e+00
      0.472      0.017     6.7371    101.897     37.168  32.054877     2.2710     15.717   168.8732 1.3078e+02    11.9707      0.464      0.673    18.1150   998.5949 0.0000e+00
      0.468      0.013     6.7337    101.896     37.160  32.049120     2.2292     15.716   168.7094 1.2273e+02    11.7173      0.457      0.663    18.1144   998.5950 0.0000e+00
      0.468      0.010     6.7368    101.908     37.136  32.030352     2.2148     15.716   168.3832 1.1592e+02    11.6207      0.455      0.660    18.1140   998.5951 0.0000e+00
      0.477      0.010     6.7354    101.958     37.121  32.018296     2.2215     15.716   168.2851 1.1129e+02    11.6609      0.468      0.678    18.1148   998.5950 0.0000e+00
      0.487      0.015     6.7316    102.021     37.135  32.030250     2.2330     15.716   168.5553 1.1082e+02    11.7916      0.482      0.698    18.1169   998.5947 0.0000e+00
      0.487      0.021     6.7336    102.038     37.156  32.047992     2.2490     15.716   168.8104 1.1427e+02    12.0677      0.479      0.695    18.1191   998.5942 0.0000e+00
      0.483      0.024     6.7313    102.007     37.151  32.042466     2.2531     15.716   168.7887 1.1777e+02    12.2532      0.468      0.680    18.1215   998.5937 0.0000e+00
      0.488      0.024     6.7359    101.975     37.134  32.026879     2.2551     15.716   168.7233 1.1876e+02    12.2833      0.475      0.687    18.1230   998.5935 0.0000e+00
      0.503      0.024     6.7420    101.953     37.162  32.049868     2.2535     15.716   168.7943 1.1885e+02    12.2598      0.497      0.719    18.1231   998.5936 0.0000e+00
      0.515      0.026     6.7433    101.912     37.184  32.066643     2.2343     15.716   169.0439 1.1877e+02    12.0719      0.509      0.740    18.1221   998.5938 0.0000e+00
      0.519      0.026     6.7398    101.856     37.154  32.039355     2.2131     15.716   169.2469 1.1708e+02    11.7627      0.510      0.739    18.1199   998.5942 0.0000e+00
      0.521      0.022     6.7371    101.815     37.154  32.037156     2.2062     15.716   169.0964 1.1336e+02    11.6111      0.509      0.738    18.1189   998.5944 0.0000e+00
      0.526      0.017     6.7378    101.806     37.160  32.040053     2.2180     15.716   168.8600 1.0865e+02    11.6117      0.515      0.746    18.1178   998.5946 0.0000e+00
      0.531      0.016     6.7345    101.810     37.129  32.010938     2.2410     15.716   168.8830 1.0439e+02    11.6671      0.522      0.757    18.1149   998.5952 0.0000e+00
      0.535      0.018     6.7309    101.793     37.121  32.002358     2.2565     15.716   168.9450 1.0119e+02    11.7663      0.526      0.763    18.1129   998.5956 0.0000e+00
      0.537      0.020     6.7273    101.739     37.120  31.999758     2.2618     15.716   169.0935 9.8735e+01    11.8495      0.527      0.764    18.1101   998.5961 0.0000e+00
      0.541      0.021     6.7286    101.698     37.099  31.979496     2.2664     15.716   169.3872 9.6665e+01    11.9182      0.529      0.767    18.1060   998.5969 0.0000e+00
      0.548      0.022     6.7293    101.692     37.137  32.011151     2.2840     15.717   169.4851 9.5459e+01    12.2187      0.537      0.779    18.1030   998.5974 0.0000e+00
      0.557      0.024     6.7303    101.692     37.202  32.065262     2.3125     15.718   169.4173 9.5378e+01    12.7366      0.547      0.793    18.1006   998.5980 0.0000e+00
      0.564      0.028     6.7247    101.682     37.201  32.062727     2.3251     15.717   169.3414 9.5711e+01    12.9959      0.554      0.803    18.0977   998.5986 0.0000e+00
      0.568      0.034     6.7214    101.664     37.182  32.043949     2.3306     15.717   169.4286 9.6076e+01    13.0194      0.557      0.808    18.0959   998.5989 0.0000e+00
      0.573      0.040     6.7232    101.674     37.168  32.028555     2.3416     15.717   169.6962 9.5941e+01    13.1578      0.561      0.813    18.0941   998.5993 0.0000e+00
      0.583      0.045     6.7226    101.705     37.147  32.003491     2.3436     15.717   169.9092 9.4521e+01    13.3638      0.570      0.826    18.0916   998.5998 0.0000e+00
      0.599      0.048     6.7240    101.719     37.149  31.994680     2.3364     15.718   169.8542 9.1811e+01    13.4513      0.586      0.850    18.0894   998.6003 0.0000e+00
      0.619      0.048     6.7203    101.699     37.154  31.985452     2.3305     15.719   169.5464 8.8674e+01    13.4593      0.608      0.881    18.0878   998.6006 0.0000e+00
      0.635      0.047     6.7222    101.635     37.138  31.955349     2.3389     15.721   169.3716 8.5244e+01    13.6327      0.625      0.906    18.0835   998.6014 0.0000e+00
      0.645      0.047     6.7274    101.533     37.145  31.947910     2.3528     15.721   169.4619 8.1607e+01    13.9689      0.635      0.921    18.0730   998.6034 0.0000e+00
      0.650      0.047     6.7294    101.389     37.169  31.958935     2.3450     15.720   169.6909 7.8667e+01    14.1247      0.638      0.925    18.0599   998.6060 0.0000e+00
      0.655      0.046     6.7321    101.204     37.179  31.961752     2.3300     15.720   170.0764 7.5996e+01    14.1088      0.638      0.926    18.0407   998.6096 0.0000e+00
      0.669      0.044     6.7301    100.993     37.205  31.981967     2.3342     15.720   170.2518 7.3374e+01    14.0866      0.652      0.946    18.0153   998.6143 0.0000e+00
      0.689      0.041     6.7266    100.803     37.235  32.013006     2.3474     15.720   169.9177 7.1540e+01    13.8214      0.677      0.981    17.9977   998.6177 0.0000e+00
      0.706      0.036     6.7184    100.672     37.233  32.019812     2.3572     15.719   169.7361 7.0494e+01    13.3406      0.696      1.010    17.9869   998.6197 0.0000e+00
      0.715      0.031     6.7073    100.597     37.199  32.000824     2.3568     15.718   170.1212 7.0313e+01    13.0801      0.705      1.023    17.9770   998.6216 0.0000e+00
      0.715      0.026     6.6926    100.564     37.163  31.973782     2.3423     15.718   170.4444 7.0732e+01    13.0406      0.703      1.020    17.9739   998.6221 0.0000e+00
      0.712      0.022     6.6776    100.553     37.139  31.946637     2.3345     15.718   170.3747 7.0732e+01    13.2060      0.695      1.009    17.9800   998.6210 0.0000e+00
      0.715      0.020     6.6678    100.561     37.135  31.926395     2.3486     15.719   170.1391 6.9706e+01    13.5689      0.697      1.011    17.9945   998.6184 0.0000e+00
      0.725      0.022     6.6602    100.568     37.153  31.919353     2.3602     15.721   170.0045 6.8195e+01    13.7542      0.711      1.032    18.0113   998.6153 0.0000e+00
      0.737      0.026     6.6583    100.564     37.186  31.924905     2.3508     15.722   170.0378 6.7114e+01    13.7299      0.726      1.053    18.0200   998.6138 0.0000e+00
      0.745      0.030     6.6579    100.549     37.214  31.930051     2.3401     15.723   170.2836 6.6317e+01    13.8589      0.732      1.061    18.0102   998.6156 0.0000e+00
      0.750      0.031     6.6633    100.516     37.216  31.918092     2.3541     15.724   170.8261 6.4917e+01    14.2151      0.733      1.064    17.9841   998.6204 0.0000e+00
      0.755      0.031     6.6683    100.480     37.216  31.907191     2.3679     15.724   171.0900 6.2996e+01    14.4318      0.739      1.073    17.9519   998.6264 0.0000e+00
      0.762      0.030     6.6719    100.447     37.245  31.925129     2.3548     15.725   170.9797 6.0883e+01    14.4190      0.746      1.082    17.9199   998.6323 0.0000e+00
      0.773      0.028     6.6754    100.448     37.272  31.944626     2.3384     15.725   170.8684 5.8480e+01    13.9923      0.756      1.096    17.8938   998.6371 0.0000e+00
      0.786      0.026     6.6744    100.506     37.279  31.952586     2.3314     15.724   170.8631 5.6805e+01    13.2206      0.773      1.121    17.8751   998.6406 0.0000e+00
      0.793      0.024     6.6747    100.587     37.279  31.957938     2.3369     15.723   171.0871 5.6550e+01    12.8475      0.781      1.133    17.8622   998.6431 0.0000e+00
      0.793      0.021     6.6727    100.645     37.256  31.945891     2.3472     15.723   171.2544 5.6945e+01    12.8112      0.778      1.128    17.8514   998.6450 0.0000e+00
      0.793      0.018     6.6726    100.700     37.233  31.933826     2.3418     15.723   171.0790 5.7186e+01    12.7473      0.776      1.125    17.8461   998.6460 0.0000e+00
      0.798      0.017     6.6771    100.769     37.233  31.938967     2.3294     15.722   170.9459 5.6959e+01    12.7275      0.781      1.133    17.8486   998.6456 0.0000e+00
      0.806      0.020     6.6833    100.806     37.238  31.944620     2.3304     15.722   171.0210 5.6484e+01    12.7785      0.791      1.148    17.8573   998.6441 0.0000e+00
      0.813      0.026     6.6846    100.797     37.235  31.938730     2.3449     15.723   171.0409 5.6128e+01    12.8489      0.798      1.158    17.8691   998.6419 0.0000e+00
      0.816      0.033     6.6850    100.765     37.235  31.931180     2.3518     15.723   171.1855 5.5553e+01    12.8576      0.800      1.160    17.8809   998.6398 0.0000e+00
      0.821      0.040     6.6913    100.740     37.229  31.916770     2.3475     15.723   171.3069 5.4017e+01    13.0208      0.802      1.163    17.8897   998.6382 0.0000e+00
      0.832      0.045     6.6931    100.741     37.211  31.891382     2.3505     15.724   171.0461 5.1802e+01    13.4489      0.815      1.182    17.8907   998.6380 0.0000e+00
      0.848      0.051     6.6928    100.742     37.206  31.877994     2.3585     15.725   170.7858 4.9676e+01    13.7421      0.831      1.206    17.8845   998.6392 0.0000e+00
      0.866      0.059     6.6916    100.717     37.222  31.881770     2.3586     15.725   171.0845 4.7749e+01    13.7851      0.849      1.231    17.8746   998.6411 0.0000e+00
      0.882      0.066     6.6905    100.684     37.228  31.873583     2.3525     15.726   171.6470 4.6263e+01    13.9339      0.867      1.257    17.8614   998.6437 0.0000e+00
      0.896      0.069     6.6935    100.667     37.211  31.842429     2.3411     15.727   171.6497 4.5028e+01    14.2369      0.878      1.275    17.8474   998.6463 0.0000e+00
      0.911      0.067     6.6965    100.679     37.205  31.822300     2.3359     15.727   171.2036 4.3223e+01    14.4273      0.891      1.291    17.8365   998.6482 0.0000e+00
      0.934      0.062     6.6953    100.715     37.213  31.820523     2.3463     15.727   171.0710 4.0915e+01    14.4851      0.915      1.326    17.8239   998.6507 0.0000e+00
      0.959      0.057     6.6954    100.750     37.216  31.820929     2.3329     15.726   171.5091 3.9244e+01    14.3179      0.945      1.371    17.8054   998.6543 0.0000e+00
      0.972      0.051     6.6972    100.780     37.221  31.827206     2.2892     15.726   172.0269 3.8669e+01    13.9507      0.957      1.389    17.7809   998.6587 0.0000e+00
      0.976      0.042     6.7010    100.832     37.225  31.832971     2.2660     15.727   171.9970 3.8307e+01    13.7523      0.955      1.386    17.7573   998.6630 0.0000e+00
      0.981      0.031     6.7062    100.917     37.215  31.827192     2.2712     15.727   171.6644 3.7482e+01    13.7391      0.959      1.391    17.7464   998.6651 0.0000e+00
      0.992      0.023     6.7083    100.997     37.202  31.820790     2.2849     15.726   171.6181 3.6544e+01    13.6883      0.973      1.411    17.7466   998.6651 0.0000e+00
      1.002      0.021     6.7094    101.054     37.200  31.819011     2.2892     15.726   171.7824 3.6278e+01    13.5503      0.987      1.432    17.7494   998.6646 0.0000e+00
      1.004      0.023     6.7111    101.068     37.194  31.805691     2.2747     15.727   171.8444 3.6595e+01    13.4785      0.986      1.430    17.7526   998.6640 0.0000e+00
      1.001      0.025     6.7189    101.027     37.187  31.786612     2.2629     15.728   171.8499 3.6552e+01    13.5064      0.978      1.418    17.7561   998.6633 0.0000e+00
      1.004      0.026     6.7223    100.978     37.191  31.778642     2.2710     15.728   171.8496 3.5833e+01    13.7159      0.981      1.423    17.7648   998.6617 0.0000e+00
      1.016      0.028     6.7260    100.928     37.191  31.772760     2.2867     15.728   171.7544 3.4903e+01    14.1580      0.996      1.445    17.7691   998.6610 0.0000e+00
      1.029      0.031     6.7305    100.877     37.201  31.778932     2.2807     15.728   171.7311 3.4188e+01    14.4223      1.011      1.466    17.7547   998.6637 0.0000e+00
      1.039      0.033     6.7275    100.849     37.215  31.789822     2.2649     15.728   171.7406 3.3630e+01    14.4056      1.020      1.480    17.7336   998.6676 0.0000e+00
      1.046      0.033     6.7278    100.856     37.202  31.777538     2.2681     15.729   171.5255 3.3015e+01    14.4019      1.026      1.488    17.7171   998.6706 0.0000e+00
      1.051      0.032     6.7253    100.869     37.181  31.757295     2.2903     15.729   171.3672 3.2367e+01    14.5147      1.030      1.494    17.7092   998.6722 0.0000e+00
      1.057      0.033     6.7217    100.846     37.158  31.735397     2.3237     15.729   171.5472 3.1742e+01    14.6368      1.036      1.503    17.7072   998.6725 0.0000e+00
      1.065      0.035     6.7192    100.790     37.122  31.703108     2.3385     15.729   171.8961 3.1229e+01    14.6770      1.045      1.517    17.7068   998.6726 0.0000e+00
      1.075      0.039     6.7204    100.699     37.101  31.684123     2.3360     15.730   172.1440 3.0742e+01    14.6570      1.054      1.528    17.7057   998.6729 0.0000e+00
      1.087      0.040     6.7240    100.627     37.119  31.696176     2.3403     15.730   172.1351 3.0183e+01    14.6015      1.066      1.546    17.7023   998.6736 0.0000e+00
      1.099      0.039     6.7212    100.621     37.155  31.721948     2.3433     15.730   172.0463 2.9682e+01    14.5205      1.079      1.565    17.6985   998.6743 0.0000e+00
      1.111      0.038     6.7195    100.631     37.184  31.741944     2.3431     15.730   172.1027 2.9271e+01    14.4335      1.090      1.581    17.6963   998.6747 0.0000e+00
      1.121      0.036     6.7113    100.632     37.196  31.747607     2.3385     15.729   172.0426 2.8998e+01    14.3730      1.101      1.597    17.6968   998.6747 0.0000e+00
      1.128      0.035     6.7048    100.646     37.177  31.726957     2.3163     15.729   171.8363 2.8845e+01    14.2018      1.106      1.604    17.6915   998.6756 0.0000e+00
      1.133      0.035     6.7085    100.681     37.135  31.682600     2.2928     15.729   171.8452 2.8512e+01    13.9088      1.109      1.608    17.6847   998.6769 0.0000e+00
      1.142      0.035     6.7101    100.706     37.119  31.655395     2.2842     15.729   171.8922 2.7842e+01    13.7473      1.119      1.622    17.6781   998.6782 0.0000e+00
      1.154      0.036     6.7103    100.669     37.133  31.651788     2.2687     15.730   171.8018 2.7149e+01    13.7260      1.133      1.642    17.6705   998.6796 0.0000e+00
      1.164      0.039     6.7117    100.597     37.134  31.638967     2.2496     15.731   171.6997 2.6583e+01    13.7204      1.143      1.657    17.6674   998.6802 0.0000e+00
      1.173      0.041     6.7156    100.559     37.132  31.627257     2.2530     15.731   171.6897 2.6014e+01    13.7471      1.150      1.668    17.6564   998.6822 0.0000e+00
      1.183      0.041     6.7227    100.569     37.153  31.637081     2.2623     15.732   171.6799 2.5429e+01    13.8082      1.159      1.681    17.6366   998.6858 0.0000e+00
      1.193      0.041     6.7224    100.599     37.156  31.630851     2.2670     15.733   171.4959 2.4766e+01    13.8074      1.169      1.696    17.6150   998.6898 0.0000e+00
      1.206      0.041     6.7173    100.577     37.150  31.615355     2.3194     15.733   171.3578 2.4173e+01    13.8413      1.183      1.715    17.5939   998.6937 0.0000e+00
      1.217      0.043     6.7175    100.519     37.189  31.640037     2.4179     15.733   171.3863 2.3840e+01    14.0453      1.195      1.733    17.5824   998.6958 0.0000e+00
      1.227      0.048     6.7185    100.476     37.164  31.612046     2.4762     15.733   171.5825 2.3648e+01    14.2489      1.203      1.745    17.5737   998.6973 0.0000e+00
      1.235      0.052     6.7263    100.410     37.031  31.467247     2.4810     15.735   171.8380 2.3398e+01    14.3114      1.210      1.755    17.5601   998.6999 0.0000e+00
      1.247      0.055     6.7258    100.257     36.986  31.348486     2.4665     15.738   171.8073 2.2900e+01    14.2863      1.221      1.770    17.5445   998.7027 0.0000e+00
      1.265      0.056     6.7208     99.942     37.069  31.318013     2.4057     15.742   171.5554 2.2150e+01    14.1848      1.239      1.797    17.5317   998.7051 0.0000e+00
      1.286      0.054     6.7202     99.472     37.120  31.289001     2.3177     15.746   171.4608 2.1420e+01    14.0812      1.262      1.831    17.5358   998.7045 0.0000e+00
      1.304      0.050     6.7186     98.899     37.127  31.251395     2.2801     15.748   171.6092 2.0979e+01    14.0640      1.282      1.860    17.5174   998.7078 0.0000e+00
      1.314      0.044     6.7296     98.208     37.162  31.243935     2.2851     15.749   171.7152 2.0777e+01    14.0452      1.291      1.872    17.3879   998.7310 0.0000e+00
      1.319      0.037     6.7325     97.401     37.219  31.262193     2.2922     15.750   171.6235 2.0549e+01    14.0936      1.292      1.875    17.2134   998.7619 0.0000e+00
      1.326      0.029     6.7099     96.581     37.257  31.281785     2.2895     15.751   171.4478 2.0234e+01    14.2716      1.300      1.885    17.1272   998.7771 0.0000e+00
      1.334      0.024     6.6785     95.842     37.265  31.290473     2.2801     15.751   171.3968 1.9921e+01    14.4124      1.309      1.898    17.0869   998.7842 0.0000e+00
      1.341      0.023     6.6405     95.240     37.276  31.303794     2.2841     15.751   171.3513 1.9731e+01    14.4560      1.316      1.909    17.0308   998.7940 0.0000e+00
      1.345      0.024     6.5887     94.804     37.291  31.315972     2.3091     15.750   171.2416 1.9732e+01    14.3872      1.321      1.916    16.9830   998.8024 0.0000e+00
      1.347      0.026     6.5329     94.503     37.292  31.310830     2.3354     15.750   171.2743 1.9692e+01    14.2330      1.320      1.915    16.9679   998.8050 0.0000e+00
      1.352      0.027     6.4807     94.329     37.300  31.305046     2.3446     15.750   171.2304 1.9376e+01    14.1711      1.322      1.919    16.9803   998.8028 0.0000e+00
      1.363      0.030     6.4373     94.322     37.317  31.309461     2.3532     15.751   171.2279 1.8968e+01    14.1882      1.336      1.938    16.9882   998.8015 0.0000e+00
      1.374      0.033     6.4093     94.413     37.301  31.300758     2.3919     15.751   171.4157 1.8732e+01    14.0276      1.350      1.958    16.9859   998.8020 0.0000e+00
      1.383      0.034     6.3912     94.526     37.232  31.263276     2.4404     15.750   171.4369 1.8624e+01    13.7050      1.357      1.968    16.9816   998.8028 0.0000e+00
      1.390      0.034     6.3784     94.668     37.177  31.236960     2.4529     15.748   171.3984 1.8447e+01    13.5159      1.363      1.976    16.9602   998.8065 0.0000e+00
      1.399      0.031     6.3844     94.794     37.171  31.236372     2.4578     15.748   171.4650 1.8150e+01    13.4577      1.371      1.988    16.9361   998.8108 0.0000e+00
      1.408      0.027     6.3926     94.850     37.211  31.256175     2.4511     15.749   171.4684 1.7866e+01    13.0706      1.382      2.004    16.9449   998.8093 0.0000e+00
      1.416      0.025     6.3927     94.856     37.271  31.286045     2.4005     15.750   171.4395 1.7635e+01    12.3369      1.389      2.014    16.9792   998.8033 0.0000e+00
      1.421      0.024     6.4000     94.838     37.284  31.280279     2.3516     15.751   171.5455 1.7411e+01    11.8992      1.394      2.021    17.0164   998.7969 0.0000e+00
      1.425      0.022     6.4089     94.764     37.262  31.249883     2.3366     15.752   171.7176 1.7187e+01    11.8295      1.398      2.028    17.0254   998.7954 0.0000e+00
      1.429      0.020     6.4159     94.641     37.261  31.235740     2.3331     15.753   171.8855 1.6936e+01    11.8377      1.401      2.033    16.9953   998.8006 0.0000e+00
      1.434      0.019     6.4187     94.489     37.284  31.236150     2.2909     15.753   172.1134 1.6656e+01    11.8614      1.406      2.040    16.9626   998.8063 0.0000e+00
      1.440      0.018     6.4228     94.312     37.332  31.254817     2.2270     15.754   172.3216 1.6370e+01    11.8750      1.412      2.048    16.9431   998.8097 0.0000e+00
      1.445      0.017     6.4188     94.135     37.368  31.271082     2.2083     15.755   172.4251 1.6120e+01    11.8654      1.418      2.057    16.9282   998.8123 0.0000e+00
      1.450      0.017     6.4113     93.964     37.338  31.242453     2.2082     15.755   172.5036 1.5933e+01    11.8139      1.422      2.063    16.9139   998.8148 0.0000e+00
      1.454      0.017     6.4058     93.790     37.314  31.225878     2.1970     15.754   172.6689 1.5788e+01    11.8012      1.425      2.067    16.8876   998.8194 0.0000e+00
      1.456      0.017     6.3963     93.586     37.356  31.261023     2.1967     15.754   172.8749 1.5648e+01    11.8150      1.429      2.071    16.8524   998.8254 0.0000e+00
      1.460      0.017     6.3885     93.330     37.393  31.286722     2.2053     15.755   173.0149 1.5468e+01    11.7746      1.431      2.075    16.8312   998.8291 0.0000e+00
      1.465      0.017     6.3758     93.018     37.397  31.282819     2.2054     15.755   172.9860 1.5223e+01    11.7594      1.435      2.082    16.8304   998.8292 0.0000e+00
      1.471      0.016     6.3645     92.696     37.397  31.277260     2.2164     15.755   172.8685 1.4943e+01    11.8719      1.444      2.093    16.8403   998.8276 0.0000e+00
      1.476      0.016     6.3503     92.386     37.401  31.282955     2.2535     15.755   172.7991 1.4728e+01    12.0361      1.448      2.100    16.8416   998.8274 0.0000e+00
      1.480      0.016     6.3352     92.029     37.398  31.288233     2.2725     15.754   172.6636 1.4601e+01    12.0615      1.450      2.105    16.8322   998.8291 0.0000e+00
      1.482      0.016     6.3142     91.631     37.388  31.277646     2.2643     15.754   172.4340 1.4501e+01    11.9731      1.453      2.108    16.8208   998.8311 0.0000e+00
      1.485      0.016     6.2912     91.261     37.426  31.281829     2.2308     15.755   172.1741 1.4361e+01    11.7571      1.455      2.111    16.8098   998.8330 0.0000e+00
      1.489      0.017     6.2742     90.977     37.555  31.338774     2.1736     15.758   172.0168 1.4128e+01    11.3728      1.460      2.117    16.8139   998.8322 0.0000e+00
      1.494      0.019     6.2460     90.769     37.681  31.395104     2.1450     15.759   171.9093 1.3765e+01    11.1370      1.464      2.124    16.8315   998.8293 0.0000e+00
      1.499      0.019     6.2166     90.533     37.721  31.391848     2.1415     15.760   171.7339 1.3213e+01    11.1376      1.470      2.131    16.8385   998.8281 0.0000e+00
      1.505      0.018     6.1945     90.155     37.723  31.362799     2.1416     15.762   171.7891 1.2475e+01    11.2090      1.476      2.140    16.8017   998.8344 0.0000e+00
      1.510      0.017     6.1858     89.551     37.756  31.361055     2.1650     15.763   171.9744 1.1681e+01    11.3139      1.482      2.150    16.7163   998.8491 0.0000e+00
      1.515      0.013     6.1848     88.655     37.782  31.370732     2.1955     15.763   172.1675 1.1044e+01    11.3762      1.487      2.157    16.6451   998.8613 0.0000e+00
      1.518      0.008     6.1757     87.418     37.733  31.352900     2.2142     15.762   172.5757 1.0767e+01    11.3783      1.490      2.161    16.6063   998.8678 0.0000e+00
      1.520      0.002     6.1578     85.939     37.649  31.335813     2.2193     15.760   172.8661 1.0899e+01    11.3737      1.491      2.162    16.5662   998.8746 0.0000e+00
      1.520     -0.007     6.1231     84.523     37.599  31.354535     2.1909     15.757   173.0113 1.1505e+01    11.4233      1.491      2.162    16.5217   998.8821 0.0000e+00
      1.519     -0.022     6.0680     83.469     37.565  31.389005     2.1479     15.755   173.2992 1.2688e+01    11.5659      1.491      2.162    16.4910   998.8873 0.0000e+00
      1.514     -0.047     5.9783     82.984     37.540  31.435451     2.1381     15.753   173.5932 1.4131e+01    11.6567      1.485      2.154    16.5257   998.8814 0.0000e+00
      1.506     -0.088     5.8563     83.215     37.563  31.535517     2.1489     15.750   173.6401 1.5244e+01    11.6279      1.477      2.143    16.6122   998.8667 0.0000e+00
      1.491     -0.148     5.7439     84.284     37.568  31.647327     2.1448     15.745   173.5219 1.6261e+01    11.4919      1.469      2.131    16.6900   998.8535 0.0000e+00
      1.460     -0.225     5.6571     86.154     37.498  31.708901     2.1357     15.740   173.4551 1.8234e+01    11.2833      1.441      2.091    16.7741   998.8390 0.0000e+00
      1.401     -0.305     5.6113     88.564     37.449  31.772606     2.1350     15.736   173.3491 2.2417e+01    11.2000      1.384      2.008    16.8610   998.8238 0.0000e+00
      1.307     -0.367     5.6121     91.206     37.437  31.846696     2.1365     15.732   173.1869 3.0496e+01    11.2054      1.296      1.879    16.9546   998.8072 0.0000e+00
      1.179     -0.393     5.6657     93.836     37.422  31.906923     2.1534     15.729   173.0424 4.3879e+01    11.3143      1.165      1.690    17.1061   998.7803 0.0000e+00
      1.030     -0.376     5.7790     96.333     37.756  32.247114     2.1863     15.727   173.0646 6.1714e+01    11.6244      1.005      1.456    17.2901   998.7472 0.0000e+00
      0.898     -0.317     5.9303     98.581     38.276  32.724131     2.2000     15.726   173.1967 7.8058e+01    11.8303      0.860      1.247    17.4278   998.7220 0.0000e+00
      0.818     -0.232     6.1012    100.396     38.191  32.662166     2.1946     15.725   173.3497 8.6018e+01    11.8125      0.783      1.136    17.5317   998.7031 0.0000e+00
      0.791     -0.141     6.2655    101.707     37.720  32.259332     2.1981     15.725   173.6232 8.5848e+01    11.8549      0.763      1.108    17.6355   998.6842 0.0000e+00
      0.798     -0.068     6.4229    102.556     37.460  32.041081     2.1946     15.726   173.6648 8.2483e+01    12.0001      0.777      1.127    17.7104   998.6708 0.0000e+00
      0.818     -0.039     6.5742    102.956     37.393  31.990173     2.1811     15.726   173.2503 7.9648e+01    12.0579      0.805      1.168    17.7544   998.6634 0.0000e+00
      0.833     -0.064     6.6946    102.939     37.351  31.961056     2.1867     15.725   172.5692 7.8818e+01    12.0386      0.823      1.194    17.7633   998.6618 0.0000e+00
      0.833     -0.135     6.7809    102.640     37.320  31.942824     2.1865     15.724   171.6242 8.2721e+01    11.7664      0.825      1.197    17.7532   998.6633 0.0000e+00
      0.805     -0.227     6.8367    102.180     37.327  31.960089     2.1594     15.723   170.5144 9.8755e+01    11.2387      0.805      1.168    17.7616   998.6615 0.0000e+00
      0.732     -0.310     6.8621    101.664     37.332  31.979484     2.1450     15.723   169.7340 1.3666e+02    10.9112      0.736      1.068    17.7732   998.6592 0.0000e+00
      0.611     -0.358     6.8553    101.238     37.324  31.987003     2.1563     15.723   169.4161 2.0781e+02    10.8278      0.609      0.883    17.7794   998.6575 0.0000e+00
      0.464     -0.360     6.8313    100.961     37.309  31.987580     2.1713     15.722   169.1655 3.1403e+02    10.8484      0.452      0.656    17.7893   998.6549 0.0000e+00
      0.329     -0.320     6.7978    100.825     37.292  31.986476     2.2792     15.721   168.7688 4.0475e+02    11.1608      0.304      0.442    17.8056   998.6513 0.0000e+00
      0.241     -0.247     6.7543    100.813     37.264  31.973661     2.4786     15.721   168.3190 4.2026e+02    11.7202      0.214      0.311    17.8269   998.6470 0.0000e+00
      0.210     -0.160     6.7234    100.868     37.240  31.959549     2.5895     15.721   168.0287 3.7651e+02    12.0165      0.194      0.281    17.8470   998.6432 0.0000e+00
      0.214     -0.078     6.7028    100.936     37.294  32.006194     2.6087     15.722   168.0118 3.2977e+02    12.0655      0.209      0.302    17.8646   998.6400 0.0000e+00
      0.225     -0.018     6.6911    101.006     37.469  32.156968     2.5485     15.722   168.0293 3.0379e+02    12.4832      0.225      0.326    17.8827   998.6368 0.0000e+00
      0.231      0.010     6.6893    101.078     37.666  32.323265     2.4141     15.722   167.6387 2.7494e+02    13.1535      0.227      0.329    17.9017   998.6333 0.0000e+00
      0.235      0.010     6.6937    101.124     37.727  32.367264     2.3382     15.722   166.9880 2.2612e+02    13.4406      0.229      0.331    17.9093   998.6319 0.0000e+00
      0.240     -0.006     6.6987    101.119     37.670  32.308253     2.3371     15.722   166.0990 1.7540e+02    13.4489      0.235      0.341    17.9057   998.6326 0.0000e+00
      0.245     -0.028     6.7024    101.059     37.598  32.244225     2.3333     15.721   164.6330 1.4094e+02    13.3229      0.245      0.356    17.9073   998.6324 0.0000e+00
      0.237     -0.052     6.7087    100.953     37.571  32.227580     2.3027     15.721   163.2874 1.2871e+02    13.0154      0.240      0.348    17.9067   998.6326 0.0000e+00
      0.217     -0.074     6.7138    100.776     37.568  32.233911     2.2812     15.721   162.5629 1.6321e+02    12.8200      0.213      0.309    17.8926   998.6351 0.0000e+00
      0.190     -0.089     6.7167    100.517     37.517  32.193887     2.2741     15.721   162.0679 2.9774e+02    12.7808      0.189      0.274    17.8752   998.6381 0.0000e+00
      0.158     -0.095     6.7120    100.221     37.435  32.124339     2.2738     15.721   161.6905 4.0559e+02    12.8843      0.157      0.228    17.8699   998.6389 0.0000e+00
      0.123     -0.090     6.7044     99.936     37.393  32.090923     2.2866     15.721   161.3550 3.7063e+02    13.1098      0.116      0.168    17.8843   998.6361 0.0000e+00
      0.097     -0.075     6.6912     99.707     37.404  32.107091     2.2861     15.721   160.8511 4.0650e+02    13.2415      0.090      0.131    17.8998   998.6331 0.0000e+00
      0.083     -0.055     6.6718     99.574     37.423  32.129494     2.2678     15.720   160.3302 5.4977e+02    13.3097      0.080      0.116    17.9031   998.6325 0.0000e+00
      0.074     -0.035     6.6517     99.541     37.467  32.171468     2.2365     15.720   159.8743 6.4060e+02    13.8313      0.069      0.101    17.9009   998.6328 0.0000e+00
      0.070     -0.016     6.6309     99.584     37.537  32.233925     2.2043     15.719   159.2973 5.9719e+02    14.8103      0.066      0.096    17.9052   998.6320 0.0000e+00
      0.072     -0.004     6.6134     99.698     37.555  32.250192     2.2026     15.719   158.6015 4.2809e+02    15.3268      0.071      0.103    17.9147   998.6302 0.0000e+00
      0.075      0.003     6.6031     99.860     37.542  32.241261     2.2066     15.719   157.7427 4.5614e+02    15.3385      0.073      0.107    17.9237   998.6286 0.0000e+00
      0.078      0.007     6.6010     99.993     37.551  32.252827     2.1861     15.719   156.7433 5.7589e+02    15.4669      0.077      0.111    17.9317   998.6272 0.0000e+00
      0.080      0.008     6.6037    100.058     37.556  32.263144     2.1259     15.718   155.8964 4.1659e+02    16.7759      0.079      0.115    17.9322   998.6271 0.0000e+00
      0.081      0.008     6.6110    100.077     37.520  32.239119     2.0404     15.717   155.3316 3.4047e+02    19.1503      0.078      0.114    17.9319   998.6271 0.0000e+00
      0.082      0.003     6.6240    100.066     37.483  32.216140     2.0023     15.717   154.6475 4.3265e+02    20.4509      0.080      0.118    17.9359   998.6264 0.0000e+00
      0.084     -0.010     6.6335    100.043     37.500  32.239102     1.9991     15.716   153.8196 3.8722e+02    20.6906      0.082      0.120    17.9408   998.6256 0.0000e+00
      0.087     -0.034     6.6352    100.040     37.521  32.262978     1.9819     15.715   155.6458 4.0838e+02    22.3927      0.085      0.123    17.9474   998.6243 0.0000e+00
      0.088     -0.063     6.6353    100.061     37.507  32.251048     1.9567     15.715   160.1223 5.9106e+02    25.5469      0.090      0.130    17.9575   998.6224 0.0000e+00
      0.074     -0.088     6.6324    100.103     37.477  32.221749     1.9417     15.716   162.5168 8.6436e+02    27.2752      0.083      0.120    17.9706   998.6200 0.0000e+00
      0.037     -0.101     6.6280    100.178     37.412  32.162517     1.9447     15.716   162.5708 1.1750e+03    27.3596      0.044      0.064    17.9831   998.6175 0.0000e+00
     -0.017     -0.099     6.6266    100.253     37.344  32.105888     1.9634     15.715   162.3235 1.3275e+03    26.7386     -0.019     -0.028    17.9921   998.6156 0.0000e+00
     -0.062     -0.084     6.6287    100.282     37.340  32.108081     1.9974     15.714   161.5065 1.3863e+03    25.6380     -0.072     -0.104    17.9923   998.6153 0.0000e+00
     -0.083     -0.057     6.6312    100.285     37.353  32.125583     2.0218     15.714   160.6085 1.4324e+03    25.0735     -0.091     -0.131    17.9837   998.6167 0.0000e+00
     -0.080     -0.024     6.6384    100.292     37.351  32.127173     2.0198     15.714   160.2411 1.4348e+03    25.1314     -0.080     -0.117    17.9779   998.6178 0.0000e+00
     -0.066      0.006     6.6450    100.319     37.351  32.127317     1.9733     15.714   158.0114 1.4396e+03    25.9603     -0.064     -0.093    17.9797   998.6176 0.0000e+00
     -0.053      0.024     6.6442    100.375     37.351  32.127331     1.8975     15.713   153.6098 1.4445e+03    27.4048     -0.050     -0.074    17.9885   998.6160 0.0000e+00
     -0.045      0.029     6.6422    100.425     37.348  32.127333     1.8667     15.713   150.6434 1.4448e+03    28.1769     -0.042     -0.061    18.0000   998.6140 0.0000e+00
     -0.040      0.025     6.6422    100.455     37.342  32.127343     1.8772     15.713   149.5919 1.4507e+03    28.2578     -0.039     -0.055    18.0041   998.6132 0.0000e+00
     -0.035      0.018     6.6429    100.495     37.334  32.127455     1.8908     15.712   150.7049 1.4588e+03    27.7645     -0.036     -0.052    18.0031   998.6134 0.0000e+00
     -0.030      0.013     6.6484    100.556     37.329  32.128702     1.9174     15.712   152.0548 1.4571e+03    26.7782     -0.030     -0.043    18.0023   998.6136 0.0000e+00
     -0.027      0.011     6.6524    100.643     37.339  32.142430     1.9405     15.712   149.9103 1.4421e+03    26.2892     -0.025     -0.036    18.0044   998.6133 0.0000e+00
     -0.027      0.009     6.6510    100.734     37.364  32.166550     1.9419     15.711   147.2314 1.4196e+03    26.2817     -0.026     -0.037    18.0127   998.6117 0.0000e+00
     -0.028      0.002     6.6532    100.774     37.361  32.166549     1.9335     15.711   148.0576 1.4031e+03    26.1385     -0.030     -0.043    18.0229   998.6098 0.0000e+00
     -0.025     -0.017     6.6552    100.782     37.330  32.142427     1.9062     15.711   151.2958 1.4066e+03    25.0033     -0.028     -0.039    18.0320   998.6081 0.0000e+00
     -0.019     -0.047     6.6603    100.814     37.312  32.128683     1.8698     15.712   153.2593 1.2250e+03    23.0624     -0.015     -0.023    18.0387   998.6069 0.0000e+00
     -0.020     -0.090     6.6684    100.851     37.311  32.127265     1.8644     15.714   153.4720 9.2639e+02    22.0011     -0.011     -0.016    18.0407   998.6066 0.0000e+00
     -0.043     -0.145     6.6705    100.855     37.311  32.125279     1.9272     15.714   153.2646 1.0118e+03    21.5432     -0.034     -0.048    18.0423   998.6062 0.0000e+00
     -0.089     -0.200     6.6669    100.791     37.289  32.104675     2.5428     15.713   152.9886 1.3239e+03    17.4230     -0.083     -0.120    18.0484   998.6048 0.0000e+00
     -0.154     -0.238     6.6707    100.695     37.245  32.068484     3.6617     15.711   152.8034 1.4501e+03     9.8127     -0.142     -0.205    18.0519   998.6039 0.0000e+00
     -0.240     -0.251     6.6738    100.653     37.239  32.068380     4.2502     15.710   152.9183 1.4326e+03     5.6102     -0.228     -0.331    18.0490   998.6040 0.0000e+00
     -0.337     -0.239     6.6758    100.653     37.272  32.103416     4.1369     15.709   153.6884 1.3796e+03     5.3718     -0.339     -0.493    18.0451   998.6042 0.0000e+00
     -0.412     -0.208     6.6720    100.629     37.273  32.111433     2.2727     15.708   154.7156 1.3353e+03     7.1024     -0.419     -0.608    18.0426   998.6043 0.0000e+00
     -0.451     -0.163     6.6607    100.516     37.255  32.101873    -1.1803     15.708   154.8416 1.2426e+03    10.2612     -0.450     -0.654    18.0444   998.6039 0.0000e+00
     -0.467     -0.111     6.6591    100.277     37.266  32.114733    -3.0704     15.708   153.4908 1.0985e+03    11.9088     -0.457     -0.664    18.0523   998.6024 0.0000e+00
     -0.480     -0.062     6.6583     99.864     37.296  32.140042    -3.1569     15.708   152.5806 1.0338e+03    11.7801     -0.467     -0.679    18.0631   998.6003 0.0000e+00
     -0.495     -0.030     6.6580     99.254     37.317  32.154097    -2.1110     15.708   153.7306 1.1224e+03     9.1519     -0.490     -0.711    18.0727   998.5984 0.0000e+00
     -0.501     -0.020     6.6493     98.509     37.329  32.157762    -0.1622     15.708   157.5861 1.2847e+03     4.3024     -0.498     -0.722    18.0812   998.5968 0.0000e+00
     -0.492     -0.026     6.6342     97.765     37.369  32.184347     0.8943     15.708   162.1145 1.3831e+03     1.6227     -0.481     -0.698    18.0866   998.5959 0.0000e+00
     -0.482     -0.040     6.6085     97.214     37.419  32.221744     0.9818     15.704   156.6018 1.4020e+03     1.3672     -0.469     -0.680    18.0855   998.5961 0.0000e+00
     -0.487     -0.057     6.5664     96.970     37.432  32.229242     0.9721     15.699   141.8675 1.2334e+03     1.3852     -0.468     -0.679    18.0792   998.5973 0.0000e+00
     -0.512     -0.073     6.5167     96.980     37.192  32.021216     0.9491     15.698   134.0160 9.8434e+02     1.4287     -0.498     -0.722    18.0693   998.5990 0.0000e+00
     -0.550     -0.083     6.4624     97.022     34.062  29.325823     0.9419     15.700   133.8565 9.3334e+02     1.4124     -0.542     -0.786    18.0586   998.6008 0.0000e+00
     -0.587     -0.082     6.4245     96.777     24.484  21.079453     0.9329     15.701   134.3466 9.2905e+02     1.3595     -0.578     -0.838    18.0503   998.6022 0.0000e+00
     -0.612     -0.069     6.4101     96.028     13.012  11.202477     0.8978     15.702   134.9513 8.3442e+02     1.3734     -0.610     -0.883    18.0453   998.6030 0.0000e+00
     -0.621     -0.048     6.4162     94.703      7.433   6.399402     0.6599     15.703   135.9196 6.5884e+02     1.8549     -0.612     -0.887    18.0433   998.6035 0.0000e+00
     -0.621     -0.026     6.4284     92.896      6.287   5.412414     0.2309     15.703   137.6218 4.8598e+02     2.7519     -0.608     -0.883    18.0430   998.6034 0.0000e+00
     -0.622     -0.011     6.4167     90.862      5.407   4.654802    -0.0161     15.703   139.4429 4.3402e+02     3.2243     -0.611     -0.886    18.0430   998.5998 0.0000e+00
     -0.622     -0.003     6.3694     88.904      4.595   3.955407    -0.0665     15.703   140.5593 4.3291e+02     3.1382     -0.609     -0.884    18.0423   998.5950 0.0000e+00
     -0.622     -0.000     6.2803     87.291      4.119   3.545473    -0.1395     15.703   141.8272 3.8034e+02     2.0532     -0.610     -0.886    18.0416   998.5943 0.0000e+00
     -0.622 -1.792e-08     6.1533     86.180      3.845   3.309685    -0.2417     15.703   143.2443 2.9961e+02     0.0632     -0.610     -0.885    18.0403   998.5947 0.0000e+00
     -0.622 -1.971e-07     6.0127     85.614      3.713   3.195274    -0.2998     15.703   143.6697 2.7985e+02    -1.0785     -0.610     -0.885    18.0376   998.5948 0.0000e+00
     -0.622 -1.971e-07     5.8761     85.561      3.543   3.049114    -0.3272     15.703   143.7012 3.0364e+02    -1.1773     -0.610     -0.885    18.0345   998.5952 0.0000e+00
     -0.622 -1.792e-08     5.7663     85.914      3.339   2.872920    -0.4778     15.703   144.8287 3.7756e+02    -0.9253     -0.610     -0.885    18.0313   998.5957 0.0000e+00
     -0.622 -1.629e-09     5.6927     86.487      3.299   2.838856    -0.7565     15.703   146.8919 5.5451e+02    -0.5032     -0.611     -0.886    18.0283   998.5963 0.0000e+00
     -0.622 -1.481e-10     5.6560     87.120      3.434   2.954027    -0.9222     15.704   148.6867 7.0234e+02    -0.2628     -0.610     -0.885    18.0249   998.5968 0.0000e+00
     -0.622 -1.346e-11     5.6554     87.765      3.706   3.188425    -0.9369     15.704   149.4068 7.4527e+02    -0.2160     -0.610     -0.885    18.0215   998.5974 0.0000e+00
     -0.622 -1.224e-12     5.6837     88.389      4.237   3.645576    -0.9240     15.705   149.5761 7.8747e+02    -0.2119     -0.610     -0.885    18.0183   998.5980 0.0000e+00
     -0.623 -1.113e-13     5.7272     88.939      4.776   4.109792    -0.9193     15.705   150.9912 8.5016e+02    -0.2125     -0.611     -0.886    18.0157   998.5984 0.0000e+00
     -0.623 -1.011e-14     5.7684     89.413      4.780   4.112797    -0.9188     15.705   152.6646 8.9043e+02    -0.1895     -0.611     -0.886    18.0145   998.5987 0.0000e+00
     -0.623 -9.195e-16     5.8123     89.834      4.353   3.745275    -0.9081     15.704   152.0854 9.2637e+02    -0.1743     -0.611     -0.886    18.0140   998.5988 0.0000e+00
     -0.623 -8.360e-17     5.8558     90.209      3.957   3.404210    -0.9043     15.704   150.6136 1.0078e+03    -0.1993     -0.611     -0.886    18.0140   998.5989 0.0000e+00
     -0.623 -7.600e-18     5.8915     90.548      3.744   3.220215    -0.9208     15.704   151.5610 1.1287e+03    -0.2521     -0.611     -0.886    18.0138   998.5992 0.0000e+00
     -0.623 -6.910e-19     5.9221     90.855      3.609   3.104495    -0.9356     15.704   154.4192 1.2087e+03    -0.2976     -0.611     -0.886    18.0138   998.5992 0.0000e+00
     -0.623 -6.280e-20     5.9501     91.107      3.435   2.955378    -0.9303     15.704   157.4669 1.0407e+03    -0.3041     -0.611     -0.886    18.0137   998.5990 0.0000e+00
     -0.623 -5.710e-21     5.9748     91.298      3.268   2.811056    -0.9237     15.704   159.7595 6.6566e+02    -0.2953     -0.611     -0.887    18.0136   998.5989 0.0000e+00
     -0.623 -5.190e-22     5.9967     91.477      3.127   2.689953    -0.9316     15.704   159.8555 4.7563e+02    -0.2944     -0.611     -0.886    18.0136   998.5989 0.0000e+00
     -0.623 -4.718e-23     6.0179     91.640      2.986   2.568143    -0.9311     15.704   159.8312 4.7676e+02    -0.2932     -0.611     -0.886    18.0131   998.5990 0.0000e+00
     -0.623 -4.289e-24     6.0357     91.733      2.881   2.478630    -0.9079     15.704   161.5307 4.6419e+02    -0.2814     -0.611     -0.886    18.0124   998.5990 0.0000e+00
     -0.623 -3.899e-25     6.0462     91.788      2.826   2.431254    -0.8983     15.704   163.2831 4.4739e+02    -0.2541     -0.611     -0.886    18.0112   998.5992 0.0000e+00
     -0.623 -3.545e-26     6.0577     91.852      2.761   2.375435    -0.9199     15.705   164.3269 4.3890e+02    -0.2376     -0.611     -0.886    18.0100   998.5994 0.0000e+00
     -0.623 -3.222e-27     6.0724     91.922      2.686   2.310555    -0.9312     15.705   164.9449 4.3291e+02    -0.2200     -0.611     -0.886    18.0087   998.5996 0.0000e+00
     -0.623 -2.930e-28     6.0761     92.000      2.651   2.280310    -0.9212     15.704   164.9915 4.3404e+02    -0.2121     -0.611     -0.886    18.0074   998.5999 0.0000e+00
     -0.623 -2.664e-29     6.0787     92.090      2.631   2.263156    -0.9228     15.704   163.7714 4.3719e+02    -0.2797     -0.611     -0.886    18.0063   998.6001 0.0000e+00
     -0.623 -2.420e-30     6.0838     92.176      2.592   2.229855    -0.9309     15.705   161.3781 4.4051e+02    -0.3508     -0.611     -0.887    18.0052   998.6003 0.0000e+00
     -0.623 -2.057e-31     6.0883     92.257      2.551   2.194430    -0.9242     15.705   159.7155 4.4430e+02    -0.3170     -0.612     -0.887    18.0043   998.6004 0.0000e+00
     -0.623 1.3861e-31     6.0932     92.346      2.502   2.151601    -0.9177     15.705   159.2420 4.4759e+02    -0.2484     -0.611     -0.886    18.0035   998.6006 0.0000e+00
     -0.623 1.7431e-30     6.0999     92.406      2.433   2.092125    -0.9197     15.705   158.3191 4.5440e+02    -0.2426     -0.611     -0.886    18.0025   998.6008 0.0000e+00
     -0.623 1.9193e-29     6.1064     92.442      2.378   2.045467    -0.9191     15.705   157.2474 4.5850e+02    -0.2805     -0.611     -0.886    18.0016   998.6009 0.0000e+00
     -0.623 2.1113e-28     6.1098     92.492      2.361   2.030933    -0.9201     15.706   156.8678 4.5236e+02    -0.2602     -0.611     -0.886    18.0009   998.6010 0.0000e+00
     -0.623 2.3224e-27     6.1187     92.547      2.376   2.043094    -0.9223     15.706   156.9120 4.4722e+02    -0.2039     -0.611     -0.887    18.0002   998.6012 0.0000e+00
     -0.623 2.5547e-26     6.1218     92.583      2.402   2.065801    -0.9265     15.706   158.1259 4.4828e+02    -0.2175     -0.611     -0.886    17.9994   998.6013 0.0000e+00
     -0.623 2.8101e-25     6.1227     92.603      2.386   2.052072    -0.9335     15.706   159.7570 4.5099e+02    -0.2533     -0.611     -0.886    17.9984   998.6014 0.0000e+00
     -0.623 3.0911e-24     6.1272     92.639      2.330   2.003802    -0.9295     15.706   159.7708 4.5341e+02    -0.2590     -0.611     -0.886    17.9977   998.6016 0.0000e+00
     -0.623 3.4003e-23     6.1312     92.702      2.312   1.988990    -0.9260     15.706   158.7227 4.5302e+02    -0.2177     -0.611     -0.887    17.9970   998.6017 0.0000e+00
     -0.623 3.7403e-22     6.1341     92.752      2.325   1.999690    -0.9389     15.706   158.0116 4.5183e+02    -0.2001     -0.611     -0.886    17.9964   998.6019 0.0000e+00
     -0.623 4.1143e-21     6.1339     92.745      2.333   2.006466    -0.9425     15.706   158.5721 4.5336e+02    -0.2176     -0.611     -0.886    17.9957   998.6020 0.0000e+00
     -0.623 4.5257e-20     6.1365     92.730      2.408   2.070912    -0.9319     15.706   159.6497 4.5368e+02    -0.2232     -0.611     -0.887    17.9948   998.6021 0.0000e+00
     -0.623 4.9783e-19     6.1413     92.761      2.568   2.208744    -0.9247     15.706   159.5116 4.5133e+02    -0.2677     -0.612     -0.887    17.9941   998.6022 0.0000e+00
     -0.623 5.4762e-18     6.1472     92.798      2.724   2.342589    -0.9221     15.706   159.1381 4.5083e+02    -0.3098     -0.611     -0.886    17.9933   998.6024 0.0000e+00
     -0.623 6.0238e-17     6.1449     92.813      2.817   2.422172    -0.9286     15.706   159.7798 4.5277e+02    -0.3208     -0.611     -0.886    17.9924   998.6025 0.0000e+00
     -0.623 6.6261e-16     6.1411     92.821      2.878   2.474102    -0.9275     15.706   160.8182 4.5446e+02    -0.2963     -0.611     -0.886    17.9917   998.6027 0.0000e+00
     -0.623 7.2888e-15     6.1465     92.862      2.940   2.526990    -0.9187     15.707   161.4540 4.5490e+02    -0.2552     -0.611     -0.887    17.9909   998.6029 0.0000e+00
     -0.624 8.0176e-14     6.1486     92.925      2.972   2.554815    -0.9275     15.709   163.0792 4.5511e+02    -0.2354     -0.612     -0.887    17.9899   998.6031 0.0000e+00
     -0.624 1.4699e-13     6.1503     92.950      2.974   2.557116    -0.9377     15.709   164.5514 4.5530e+02    -0.2281     -0.612     -0.887    17.9892   998.6032 0.0000e+00
     -0.623 -9.990e-29     6.1487 -9.990e-29 -9.990e-29 -9.990e-29 -9.990e-29 -9.990e-29 -9.990e-29 4.5453e+02 -9.990e-29     -0.611     -0.886    17.9883   998.6034 0.0000e+00
     -0.623 -9.990e-29     6.1516 -9.990e-29 -9.990e-29 -9.990e-29 -9.990e-29 -9.990e-29 -9.990e-29 4.5595e+02 -9.990e-29     -0.611     -0.886    17.9876   998.6036 0.0000e+00
     -0.623 -9.990e-29     6.1591 -9.990e-29 -9.990e-29 -9.990e-29 -9.990e-29 -9.990e-29 -9.990e-29 4.6285e+02 -9.990e-29     -0.611     -0.886    17.9868   998.6037 0.0000e+00
     -0.623 -9.990e-29     6.1592 -9.990e-29 -9.990e-29 -9.990e-29 -9.990e-29 -9.990e-29 -9.990e-29 4.6759e+02 -9.990e-29     -0.611     -0.887    17.9861   998.6038 0.0000e+00
