* Sea-Bird SBE19plus  Data File:
* FileName = C:\DATA\100818_fcr_0001.hex
* Software version 2.6.3.104
* Temperature SN = 7809
* Conductivity SN = 7809
* System UpLoad Time = Oct 08 2018 14:56:58
* <ApplicationData>
* <Seaterm232>
* <SoftwareVersion>2.6.3.104</SoftwareVersion>
* <BuildDate>30-Jun-2017</BuildDate>
* </Seaterm232>
* </ApplicationData>
* <InstrumentState>
* <HardwareData DeviceType='SBE19plus' SerialNumber='01907809'>
*
*    <Manufacturer>Sea-Bird Electronics, Inc.</Manufacturer>
*
*    <FirmwareVersion>3.1.8</FirmwareVersion>
*
*    <FirmwareDate>Mar  9 2016 16:22:29</FirmwareDate>
*
*    <CommandSetVersion>1.4</CommandSetVersion>
*
*    <PCBAssembly PCBSerialNum='120721' AssemblyNum='41054J'/>
*
*    <PCBAssembly PCBSerialNum='120715' AssemblyNum='41967A'/>
*
*    <PCBAssembly PCBSerialNum='116699' AssemblyNum='41606'/>
*
*    <PCBAssembly PCBSerialNum='120719' AssemblyNum='41059D'/>
*
*    <MfgDate>28-Apr-2017</MfgDate>
*
*    <InternalSensors>
*
*       <Sensor id='Main Temperature'>
*
*          <type>temperature0</type>
*
*          <SerialNumber>01907809</SerialNumber>
*
*       </Sensor>
*
*       <Sensor id='Main Conductivity'>
*
*          <type>conductivity-0</type>
*
*          <SerialNumber>01907809</SerialNumber>
*
*       </Sensor>
*
*       <Sensor id='Main Pressure'>
*
*          <type>strain-0</type>
*
*          <SerialNumber>10586018</SerialNumber>
*
*       </Sensor>
*
*    </InternalSensors>
*
*    <ExternalSensors>
*
*       <Sensor id='volt 0'>
*
*          <type>pH</type>
*
*          <SerialNumber>27-0363</SerialNumber>
*
*       </Sensor>
*
*       <Sensor id='volt 1'>
*
*          <type>ORP</type>
*
*          <SerialNumber>27-0363</SerialNumber>
*
*       </Sensor>
*
*       <Sensor id='volt 2'>
*
*          <type>OXY</type>
*
*          <SerialNumber>43-0434</SerialNumber>
*
*       </Sensor>
*
*       <Sensor id='volt 3'>
*
*          <type>PAR</type>
*
*          <SerialNumber>1122</SerialNumber>
*
*       </Sensor>
*
*       <Sensor id='volt 4'>
*
*          <type>ECO AFL/FL</type>
*
*          <SerialNumber>FLNTURT-2496</SerialNumber>
*
*       </Sensor>
*
*       <Sensor id='volt 5'>
*
*          <type>ECO-NTU</type>
*
*          <SerialNumber>FLNTURT-2496</SerialNumber>
*
*       </Sensor>
*
*       <Sensor id='serial'>
*
*          <type>not assigned</type>
*
*          <SerialNumber>not assigned</SerialNumber>
*
*       </Sensor>
*
*    </ExternalSensors>
*
* </HardwareData>
* <StatusData DeviceType='SBE19plus' SerialNumber='01907809'>
*
*    <DateTime>2018-10-08T18:56:32</DateTime>
*
*    <LoggingState>not logging</LoggingState>
*
*    <EventSummary numEvents='0'/>
*
*    <Power>
*
*       <vMain>12.4</vMain>
*
*       <vLith>8.8</vLith>
*
*       <iMain>63.2</iMain>
*
*       <iPump>50.0</iPump>
*
*       <iExt01>13.7</iExt01>
*
*       <iExt2345>43.2</iExt2345>
*
*    </Power>
*
*    <MemorySummary>
*
*       <Bytes>65366</Bytes>
*
*       <Samples>2842</Samples>
*
*       <SamplesFree>2857946</SamplesFree>
*
*       <SampleLength>23</SampleLength>
*
*       <Profiles>5</Profiles>
*
*    </MemorySummary>
*
* </StatusData>
* <ConfigurationData DeviceType='SBE19plus' SerialNumber='01907809'>
*
*    <ProfileMode>
*
*       <ScansToAverage>1</ScansToAverage>
*
*       <MinimumCondFreq>5</MinimumCondFreq>
*
*       <PumpDelay>45</PumpDelay>
*
*       <AutoRun>no</AutoRun>
*
*       <IgnoreSwitch>no</IgnoreSwitch>
*
*    </ProfileMode>
*
*    <Battery>
*
*       <Type>alkaline</Type>
*
*       <CutOff>7.5</CutOff>
*
*    </Battery>
*
*    <DataChannels>
*
*       <ExtVolt0>yes</ExtVolt0>
*
*       <ExtVolt1>yes</ExtVolt1>
*
*       <ExtVolt2>yes</ExtVolt2>
*
*       <ExtVolt3>yes</ExtVolt3>
*
*       <ExtVolt4>yes</ExtVolt4>
*
*       <ExtVolt5>yes</ExtVolt5>
*
*       <SBE38>no</SBE38>
*
*       <WETLABS>no</WETLABS>
*
*       <OPTODE>no</OPTODE>
*
*       <SBE63>no</SBE63>
*
*       <SeaFET>no</SeaFET>
*
*       <GTD>no</GTD>
*
*    </DataChannels>
*
*    <EchoCharacters>yes</EchoCharacters>
*
*    <OutputExecutedTag>yes</OutputExecutedTag>
*
*    <OutputFormat>raw HEX</OutputFormat>
*
* </ConfigurationData>
* <CalibrationCoefficients DeviceType='SBE19plus' SerialNumber='01907809'>
*
*    <Calibration format='TEMP1' id='Main Temperature'>
*
*       <SerialNum>01907809</SerialNum>
*
*       <CalDate>09-Mar-18</CalDate>
*
*       <TA0>1.210932e-03</TA0>
*
*       <TA1>2.843566e-04</TA1>
*
*       <TA2>-1.945074e-06</TA2>
*
*       <TA3>2.128067e-07</TA3>
*
*       <TOFFSET>0.000000e+00</TOFFSET>
*
*    </Calibration>
*
*    <Calibration format='WBCOND0' id='Main Conductivity'>
*
*       <SerialNum>01907809</SerialNum>
*
*       <CalDate>09-Mar-18</CalDate>
*
*       <G>-1.006721e+00</G>
*
*       <H>1.269065e-01</H>
*
*       <I>-1.405844e-04</I>
*
*       <J>2.478371e-05</J>
*
*       <CPCOR>-9.570000e-08</CPCOR>
*
*       <CTCOR>3.250000e-06</CTCOR>
*
*       <CSLOPE>1.000000e+00</CSLOPE>
*
*    </Calibration>
*
*    <Calibration format='STRAIN0' id='Main Pressure'>
*
*       <SerialNum>10586018</SerialNum>
*
*       <CalDate>07-Mar-18</CalDate>
*
*       <PA0>-4.081764e-02</PA0>
*
*       <PA1>4.851884e-04</PA1>
*
*       <PA2>-3.511682e-12</PA2>
*
*       <PTCA0>5.252134e+05</PTCA0>
*
*       <PTCA1>1.795324e+00</PTCA1>
*
*       <PTCA2>-2.843535e-01</PTCA2>
*
*       <PTCB0>2.516687e+01</PTCB0>
*
*       <PTCB1>3.750000e-04</PTCB1>
*
*       <PTCB2>0.000000e+00</PTCB2>
*
*       <PTEMPA0>-5.378069e+01</PTEMPA0>
*
*       <PTEMPA1>5.366207e+01</PTEMPA1>
*
*       <PTEMPA2>4.872143e-02</PTEMPA2>
*
*       <POFFSET>5.000000e-01</POFFSET>
*
*       <PRANGE>1.600000e+02</PRANGE>
*
*    </Calibration>
*
*    <Calibration format='VOLT0' id='Volt 0'>
*
*       <OFFSET>-4.920000e-02</OFFSET>
*
*       <SLOPE>1.248122e+00</SLOPE>
*
*    </Calibration>
*
*    <Calibration format='VOLT0' id='Volt 1'>
*
*       <OFFSET>-4.784000e-02</OFFSET>
*
*       <SLOPE>1.248871e+00</SLOPE>
*
*    </Calibration>
*
*    <Calibration format='VOLT0' id='Volt 2'>
*
*       <OFFSET>-4.864632e-02</OFFSET>
*
*       <SLOPE>1.248714e+00</SLOPE>
*
*    </Calibration>
*
*    <Calibration format='VOLT0' id='Volt 3'>
*
*       <OFFSET>-4.743790e-02</OFFSET>
*
*       <SLOPE>1.248571e+00</SLOPE>
*
*    </Calibration>
*
*    <Calibration format='VOLT0' id='Volt 4'>
*
*       <OFFSET>-4.671263e-02</OFFSET>
*
*       <SLOPE>1.248951e+00</SLOPE>
*
*    </Calibration>
*
*    <Calibration format='VOLT0' id='Volt 5'>
*
*       <OFFSET>-4.871053e-02</OFFSET>
*
*       <SLOPE>1.249136e+00</SLOPE>
*
*    </Calibration>
*
*    <Calibration format='FREQ0' id='external frequency channel'>
*
*       <EXTFREQSF>1.000014e+00</EXTFREQSF>
*
*    </Calibration>
*
* </CalibrationCoefficients>
* <EventCounters DeviceType='SBE19plus' SerialNumber='01907809'>
*
*    <EventSummary numEvents='0'/>
*
* </EventCounters></InstrumentState>
* <Headers>
*
* cast   1 08 Oct 2018 13:48:32 samples 1 to 504, avg = 1, stop = mag switch
*
# nquan = 17
# nvalues = 452                         
# units = specified
# name 0 = depFM: Depth [fresh water, m]
# name 1 = tv290C: Temperature [ITS-90, deg C]
# name 2 = sbeox0Mg/L: Oxygen, SBE 43 [mg/l]
# name 3 = sbeox0PS: Oxygen, SBE 43 [% saturation]
# name 4 = c0uS/cm: Conductivity [uS/cm]
# name 5 = specc: Specific Conductance [uS/cm]
# name 6 = ph: pH
# name 7 = orp: Oxidation Reduction Potential [mV]
# name 8 = flECO-AFL: Fluorescence, WET Labs ECO-AFL/FL [mg/m^3]
# name 9 = turbWETntu0: Turbidity, WET Labs ECO [NTU]
# name 10 = sal00: Salinity, Practical [PSU]
# name 11 = dz/dtM: Descent Rate [m/s]
# name 12 = prdM: Pressure, Strain Gauge [db]
# name 13 = prdE: Pressure, Strain Gauge [psi]
# name 14 = scan: Scan Count
# name 15 = par/sat/log: PAR/Logarithmic, Satlantic
# name 16 = flag:  0.000e+00
# span 0 =     -0.474,      2.637       
# span 1 =    20.5432,    23.0929       
# span 2 =    -0.0959,     9.8395       
# span 3 =     -1.069,    113.880       
# span 4 =   0.105888,  46.083952       
# span 5 =      0.530,     50.586       
# span 6 =      6.058,      7.946       
# span 7 = -1240.7455,   285.2803       
# span 8 =    -0.2062,     4.8039       
# span 9 =    -0.3049,     8.3159       
# span 10 =     0.0112,     0.0290      
# span 11 =     -0.251,      0.215      
# span 12 =     -0.464,      2.586      
# span 13 =     -0.673,      3.750      
# span 14 =          1,        452      
# span 15 = 1.3515e+01, 8.7754e+02      
# span 16 = 0.0000e+00, 0.0000e+00      
# interval = seconds: 0.25
# start_time = Oct 08 2018 13:48:32 [Instrument's time stamp, header]
# bad_flag = -9.990e-29
# <Sensors count="9" >
#   <sensor Channel="1" >
#     <!-- Count, Temperature -->
#     <TemperatureSensor SensorID="58" >
#       <SerialNumber>7809</SerialNumber>
#       <CalibrationDate>09-Mar-18</CalibrationDate>
#       <A0>1.21093245e-003</A0>
#       <A1>2.84356597e-004</A1>
#       <A2>-1.94507398e-006</A2>
#       <A3>2.12806664e-007</A3>
#       <Slope>1.00000000</Slope>
#       <Offset>0.0000</Offset>
#     </TemperatureSensor>
#   </sensor>
#   <sensor Channel="2" >
#     <!-- Frequency 0, Conductivity -->
#     <ConductivitySensor SensorID="3" >
#       <SerialNumber>7809</SerialNumber>
#       <CalibrationDate>09-Mar-18</CalibrationDate>
#       <UseG_J>1</UseG_J>
#       <!-- Cell const and series R are applicable only for wide range sensors. -->
#       <SeriesR>0.0000</SeriesR>
#       <CellConst>2000.0000</CellConst>
#       <ConductivityType>0</ConductivityType>
#       <Coefficients equation="0" >
#         <A>0.00000000e+000</A>
#         <B>0.00000000e+000</B>
#         <C>0.00000000e+000</C>
#         <D>0.00000000e+000</D>
#         <M>0.0</M>
#         <CPcor>-9.57000000e-008</CPcor>
#       </Coefficients>
#       <Coefficients equation="1" >
#         <G>-1.00672082e+000</G>
#         <H>1.26906489e-001</H>
#         <I>-1.40584351e-004</I>
#         <J>2.47837121e-005</J>
#         <CPcor>-9.57000000e-008</CPcor>
#         <CTcor>3.2500e-006</CTcor>
#         <!-- WBOTC not applicable unless ConductivityType = 1. -->
#         <WBOTC>0.00000000e+000</WBOTC>
#       </Coefficients>
#       <Slope>1.00000000</Slope>
#       <Offset>0.00000</Offset>
#     </ConductivitySensor>
#   </sensor>
#   <sensor Channel="3" >
#     <!-- Count, Pressure, Strain Gauge -->
#     <PressureSensor SensorID="46" >
#       <SerialNumber>7809</SerialNumber>
#       <CalibrationDate>07-Mar-18</CalibrationDate>
#       <PA0>-4.08176359e-002</PA0>
#       <PA1>4.85188419e-004</PA1>
#       <PA2>-3.51168169e-012</PA2>
#       <PTEMPA0>-5.37806900e+001</PTEMPA0>
#       <PTEMPA1>5.36620721e+001</PTEMPA1>
#       <PTEMPA2>4.87214332e-002</PTEMPA2>
#       <PTCA0>5.25213435e+005</PTCA0>
#       <PTCA1>1.79532409e+000</PTCA1>
#       <PTCA2>-2.84353509e-001</PTCA2>
#       <PTCB0>2.51668750e+001</PTCB0>
#       <PTCB1>3.75000000e-004</PTCB1>
#       <PTCB2>0.00000000e+000</PTCB2>
#       <Offset>0.000000</Offset>
#     </PressureSensor>
#   </sensor>
#   <sensor Channel="4" >
#     <!-- A/D voltage 0, pH -->
#     <pH_Sensor SensorID="43" >
#       <SerialNumber>0363</SerialNumber>
#       <CalibrationDate>16-Mar-18</CalibrationDate>
#       <Slope>4.6194</Slope>
#       <Offset>2.5947</Offset>
#     </pH_Sensor>
#   </sensor>
#   <sensor Channel="5" >
#     <!-- A/D voltage 1, Oxidation Reduction Potential -->
#     <OxidationReductionPotentialSensor SensorID="41" >
#       <SerialNumber>0363</SerialNumber>
#       <CalibrationDate>16-Mar-18</CalibrationDate>
#       <B>2.499480</B>
#       <M>-0.496195</M>
#       <Offset>0.0</Offset>
#     </OxidationReductionPotentialSensor>
#   </sensor>
#   <sensor Channel="6" >
#     <!-- A/D voltage 2, Oxygen, SBE 43 -->
#     <OxygenSensor SensorID="38" >
#       <SerialNumber>0434</SerialNumber>
#       <CalibrationDate>13-Mar-18</CalibrationDate>
#       <Use2007Equation>1</Use2007Equation>
#       <CalibrationCoefficients equation="0" >
#         <!-- Coefficients for Owens-Millard equation. -->
#         <Boc>0.0000</Boc>
#         <Soc>0.0000e+000</Soc>
#         <offset>0.0000</offset>
#         <Pcor>0.00e+000</Pcor>
#         <Tcor>0.0000</Tcor>
#         <Tau>0.0</Tau>
#       </CalibrationCoefficients>
#       <CalibrationCoefficients equation="1" >
#         <!-- Coefficients for Sea-Bird equation - SBE calibration in 2007 and later. -->
#         <Soc>4.5718e-001</Soc>
#         <offset>-0.6113</offset>
#         <A>-4.0649e-003</A>
#         <B> 2.0945e-004</B>
#         <C>-3.3182e-006</C>
#         <D0> 2.5826e+000</D0>
#         <D1> 1.92634e-004</D1>
#         <D2>-4.64803e-002</D2>
#         <E> 3.6000e-002</E>
#         <Tau20> 1.2200</Tau20>
#         <H1>-3.3000e-002</H1>
#         <H2> 5.0000e+003</H2>
#         <H3> 1.4500e+003</H3>
#       </CalibrationCoefficients>
#     </OxygenSensor>
#   </sensor>
#   <sensor Channel="7" >
#     <!-- A/D voltage 3, PAR/Logarithmic, Satlantic -->
#     <PARLog_SatlanticSensor SensorID="76" >
#       <SerialNumber>1122</SerialNumber>
#       <CalibrationDate>22-Jun-2017</CalibrationDate>
#       <a0>9.6090e-001</a0>
#       <a1>8.0780e-001</a1>
#       <Im>1.3589e+000</Im>
#       <Multiplier>1.0000e+000</Multiplier>
#     </PARLog_SatlanticSensor>
#   </sensor>
#   <sensor Channel="8" >
#     <!-- A/D voltage 4, Fluorometer, WET Labs ECO-AFL/FL -->
#     <FluoroWetlabECO_AFL_FL_Sensor SensorID="20" >
#       <SerialNumber>FLNTURT-2496</SerialNumber>
#       <CalibrationDate>25-Jan-2017</CalibrationDate>
#       <ScaleFactor>5.30000000e+001</ScaleFactor>
#       <!-- Dark output -->
#       <Vblank>0.0560</Vblank>
#     </FluoroWetlabECO_AFL_FL_Sensor>
#   </sensor>
#   <sensor Channel="9" >
#     <!-- A/D voltage 5, Turbidity Meter, WET Labs, ECO-NTU -->
#     <TurbidityMeter SensorID="67" >
#       <SerialNumber>FLNTURT-2496</SerialNumber>
#       <CalibrationDate>25-Jan-2017</CalibrationDate>
#       <ScaleFactor>176.000000</ScaleFactor>
#       <!-- Dark output -->
#       <DarkVoltage>0.072000</DarkVoltage>
#     </TurbidityMeter>
#   </sensor>
# </Sensors>
# datcnv_date = Oct 08 2018 15:09:27, 7.26.7.114 [datcnv_vars = 16]
# datcnv_in = C:\DATA\100818_fcr10.hex C:\DATA\SBE19plusV2_7809.xmlcon
# datcnv_skipover = 0
# datcnv_ox_hysteresis_correction = yes
# datcnv_ox_tau_correction = yes
# filter_date = Oct 08 2018 15:09:45, 7.26.7.114
# filter_in = C:\DATA\100818_fcr10.cnv
# filter_low_pass_tc_A = 0.030
# filter_low_pass_tc_B = 0.150
# filter_low_pass_A_vars = tv290C c0uS/cm par/sat/log
# filter_low_pass_B_vars = prdM prdE
# alignctd_date = Oct 08 2018 15:10:08, 7.26.7.114
# alignctd_in = C:\DATA\100818_fcr10.cnv
# alignctd_adv = tv290C 0.500, sbeox0Mg/L 3.000, sbeox0PS 3.000                                                                                                                                                                      
# file_type = ascii
*END*
     -0.473    23.0927     8.4675     98.890   0.626067      0.646      6.058 -1240.7455    -0.2021    -0.2914     0.0112 2.1053e-16     -0.464     -0.673          1 3.4340e+02 0.0000e+00
     -0.472    23.0922     8.4767     98.901   0.613022      0.646      6.071 -1240.7455    -0.1941    -0.1706     0.0112      0.000     -0.464     -0.673          2 3.6328e+02 0.0000e+00
     -0.473    23.0923     8.4927     98.883   0.634306      0.646      6.118 -1240.7455    -0.1779    -0.2646     0.0112     -0.000     -0.464     -0.673          3 3.9651e+02 0.0000e+00
     -0.473    23.0925     8.5091     98.928   0.599579      0.646      6.136 -1240.7455    -0.2062    -0.2914     0.0112      0.000     -0.463     -0.672          4 3.9633e+02 0.0000e+00
     -0.473    23.0924     8.5139     98.884   0.597026      0.588      6.153 -1240.7455    -0.1779    -0.2512     0.0112      0.000     -0.463     -0.672          5 3.8185e+02 0.0000e+00
     -0.473    23.0925     8.5222     98.905   0.578271      0.646      6.157 -1240.7455    -0.1658    -0.2512     0.0112      0.000     -0.463     -0.672          6 4.2863e+02 0.0000e+00
     -0.473    23.0924     8.5218     98.830   0.622919      0.588      6.165 -1240.7455    -0.1536    -0.3049     0.0112      0.000     -0.464     -0.673          7 5.1712e+02 0.0000e+00
     -0.473    23.0925     8.5345     98.927   0.541462      0.646      6.157 -1240.7455    -0.1779    -0.2243     0.0112     -0.000     -0.464     -0.673          8 5.5618e+02 0.0000e+00
     -0.474    23.0923     8.5500     99.078   0.620431      0.530      6.243 -1240.7455    -0.1779    -0.1303     0.0112     -0.000     -0.464     -0.673          9 5.6293e+02 0.0000e+00
     -0.473    23.0929     8.5652     99.236   0.406219      0.588      6.204 -1240.7455    -0.1738    -0.1437     0.0112     -0.000     -0.464     -0.673         10 5.6782e+02 0.0000e+00
     -0.474    23.0913     8.5927     99.542   0.867258      0.646      6.186 -1240.7455    -0.1536    -0.1974     0.0112     -0.001     -0.463     -0.672         11 5.7010e+02 0.0000e+00
     -0.473    23.0363     8.6081     99.713   0.105888      0.530      6.174 -1240.7455    -0.1981    -0.2914     0.0112     -0.000     -0.457     -0.663         12 5.8162e+02 0.0000e+00
     -0.456    22.9302     8.6134     99.770   3.692775      2.995      7.111 -1240.7455    -0.1779    -0.2243     0.0114      0.004     -0.432     -0.627         13 5.7296e+02 0.0000e+00
     -0.390    22.8489     8.5931     99.531  17.698881     19.064      7.267   285.2803    -0.1738    -0.1437     0.0168      0.025     -0.381     -0.553         14 5.6528e+02 0.0000e+00
     -0.324    22.7978     8.5257     98.749  30.165311     31.113      7.549   253.8588    -0.1779    -0.1437     0.0215      0.058     -0.320     -0.463         15 5.7938e+02 0.0000e+00
     -0.265    22.7560     8.4068     97.370  35.922318     37.996      7.746   207.5972    -0.1698    -0.2243     0.0243      0.096     -0.260     -0.377         16 5.9174e+02 0.0000e+00
     -0.205    22.7198     8.2471     95.519  36.565388     37.980      7.895   222.6265    -0.1253     7.5639     0.0243      0.136     -0.203     -0.295         17 6.0398e+02 0.0000e+00
     -0.151    22.6928     8.0551     93.295  35.918582     37.748      7.946   188.8957    -0.0728     7.6445     0.0242      0.173     -0.150     -0.218         18 5.9291e+02 0.0000e+00
     -0.101    22.6778     7.8502     90.925  36.134100     37.778      7.924   191.8865    -0.1011     7.6445     0.0242      0.202     -0.104     -0.151         19 5.7277e+02 0.0000e+00
     -0.065    22.6679     7.6440     88.540  35.911635     37.682      7.877   194.1200    -0.0728     7.6310     0.0241      0.215     -0.068     -0.099         20 5.6213e+02 0.0000e+00
     -0.042    22.6615     7.4632     86.450  36.017498     37.752      7.830   174.6614     2.9802     1.5348     0.0242      0.208     -0.041     -0.059         21 5.4405e+02 0.0000e+00
     -0.018    22.6574     7.3247     84.852  35.943046     37.701      7.774   199.3443     2.9964     1.4810     0.0241      0.186     -0.018     -0.027         22 5.1417e+02 0.0000e+00
      0.003    22.6547     7.2652     84.167  36.004294     37.765      7.712   199.1172     3.0085     1.4945     0.0242      0.161      0.003      0.002         23 4.9090e+02 0.0000e+00
      0.020    22.6528     7.2602     84.111  36.000596     37.768      7.637   173.7528     3.0004     1.6019     0.0242      0.137      0.023      0.032         24 4.5702e+02 0.0000e+00
      0.047    22.6521     7.2853     84.403  36.006968     37.771      7.612   170.6864     3.2754     1.8705     0.0242      0.116      0.048      0.070         25 4.1193e+02 0.0000e+00
      0.081    22.6516     7.3282     84.903  35.996367     37.772      7.600   170.0428     3.2309     1.9510     0.0242      0.104      0.078      0.113         26 3.2162e+02 0.0000e+00
      0.111    22.6507     7.3608     85.285  36.013790     37.773      7.587   169.4750     3.2269     1.9645     0.0242      0.098      0.105      0.152         27 2.5037e+02 0.0000e+00
      0.130    22.6507     7.3788     85.495  36.044604     37.832      7.552   172.5035     3.2592     2.0047     0.0242      0.097      0.122      0.176         28 2.7701e+02 0.0000e+00
      0.131    22.6522     7.3866     85.584  36.017338     37.774      7.498   173.0335     3.2147     1.9107     0.0242      0.092      0.126      0.183         29 2.4935e+02 0.0000e+00
      0.126    22.6543     7.3705     85.395  35.988406     37.774      7.470   173.6393     3.7808     1.2662     0.0242      0.081      0.124      0.180         30 2.5314e+02 0.0000e+00
      0.124    22.6573     7.3394     85.031  35.961976     37.714      7.452   174.1314     3.7364     1.2259     0.0241      0.067      0.123      0.179         31 2.7205e+02 0.0000e+00
      0.127    22.6609     7.3031     84.606  35.990912     37.771      7.462   192.2272     3.7485     1.2662     0.0242      0.050      0.128      0.184         32 2.2220e+02 0.0000e+00
      0.139    22.6632     7.2713     84.231  36.011710     37.768      7.469   174.4721     3.7444     1.3333     0.0242      0.035      0.138      0.199         33 2.0664e+02 0.0000e+00
      0.153    22.6642     7.2596     84.086  35.995407     37.766      7.476   189.0850     3.5827     1.6959     0.0242      0.024      0.153      0.222         34 1.8254e+02 0.0000e+00
      0.175    22.6653     7.2694     84.190  36.011201     37.764      7.483   172.8064     3.5342     1.7496     0.0242      0.023      0.176      0.255         35 1.6155e+02 0.0000e+00
      0.209    22.6672     7.2766     84.266  35.992056     37.763      7.480   171.3300     3.5301     1.6690     0.0242      0.034      0.209      0.302         36 1.4119e+02 0.0000e+00
      0.255    22.6695     7.2703     84.188  35.959914     37.703      7.469   171.4435     3.5625     1.6690     0.0241      0.057      0.246      0.356         37 1.1931e+02 0.0000e+00
      0.285    22.6701     7.2539     83.995  35.991882     37.761      7.463   173.7528     4.0922     1.3065     0.0242      0.080      0.279      0.404         38 1.0234e+02 0.0000e+00
      0.314    22.6693     7.2464     83.906  36.011590     37.759      7.460   170.7243     4.0922     1.2662     0.0242      0.099      0.311      0.451         39 7.6066e+01 0.0000e+00
      0.356    22.6681     7.2518     83.966  35.994705     37.758      7.461   169.2478     4.0558     1.2662     0.0242      0.116      0.345      0.501         40 7.0236e+01 0.0000e+00
      0.385    22.6661     7.2808     84.301  36.012895     37.759      7.458   169.6643     4.0679     1.2259     0.0242      0.127      0.373      0.541         41 6.7976e+01 0.0000e+00
      0.401    22.6631     7.3195     84.748  36.048271     37.819      7.441   170.0050     3.9547     1.2662     0.0242      0.129      0.390      0.565         42 7.1701e+01 0.0000e+00
      0.407    22.6590     7.3473     85.069  36.009998     37.762      7.431   171.3678     3.9588     1.3333     0.0242      0.120      0.399      0.578         43 8.1624e+01 0.0000e+00
      0.413    22.6537     7.3710     85.345  36.001209     37.764      7.427   172.2007     3.9790     1.2528     0.0242      0.103      0.404      0.587         44 8.6205e+01 0.0000e+00
      0.419    22.6478     7.3806     85.459  35.999893     37.767      7.432   172.2385     3.9628     1.2662     0.0242      0.083      0.409      0.593         45 9.1678e+01 0.0000e+00
      0.418    22.6428     7.4020     85.710  35.952320     37.713      7.429   172.4657     4.0801     1.3333     0.0241      0.064      0.410      0.595         46 9.6153e+01 0.0000e+00
      0.417    22.6393     7.4382     86.134  35.941781     37.717      7.431   172.9578     4.0639     1.2931     0.0241      0.044      0.411      0.595         47 9.6342e+01 0.0000e+00
      0.422    22.6377     7.4742     86.552  35.894377     37.663      7.436   173.7150     4.0841     1.3871     0.0241      0.027      0.412      0.597         48 9.4531e+01 0.0000e+00
      0.420    22.6366     7.4893     86.724  35.892683     37.665      7.444   173.6393     4.1165     1.3199     0.0241      0.015      0.409      0.593         49 9.6657e+01 0.0000e+00
      0.409    22.6349     7.4843     86.667  35.943893     37.725      7.444   173.7528     4.0760     1.3333     0.0241      0.006      0.403      0.584         50 1.0063e+02 0.0000e+00
      0.404    22.6337     7.4760     86.571  35.949281     37.726      7.446   174.8886     4.1326     1.0916     0.0241     -0.001      0.398      0.577         51 9.9801e+01 0.0000e+00
      0.405    22.6334     7.4710     86.512  35.945294     37.728      7.448   175.4943     4.1488     1.1051     0.0241     -0.006      0.397      0.576         52 1.0317e+02 0.0000e+00
      0.406    22.6332     7.4637     86.429  35.948857     37.728      7.450   175.6836     4.1448     1.1588     0.0241     -0.008      0.397      0.577         53 1.0793e+02 0.0000e+00
      0.407    22.6340     7.4310     86.050  35.944848     37.729      7.450   176.7814     4.1448     1.0514     0.0241     -0.008      0.397      0.575         54 1.0962e+02 0.0000e+00
      0.399    22.6356     7.3837     85.504  35.890964     37.670      7.448   176.5543     4.1852     1.0916     0.0241     -0.010      0.392      0.568         55 1.2114e+02 0.0000e+00
      0.392    22.6381     7.3460     85.071  35.897279     37.670      7.449   176.7057     4.2054     1.1319     0.0241     -0.012      0.391      0.566         56 1.2358e+02 0.0000e+00
      0.406    22.6407     7.3222     84.799  35.936989     37.727      7.446   177.6900     4.2054     1.0648     0.0241     -0.007      0.397      0.576         57 1.1968e+02 0.0000e+00
      0.417    22.6409     7.3093     84.651  35.960180     37.725      7.427   178.3336     4.2135     1.0916     0.0241      0.001      0.402      0.584         58 1.2400e+02 0.0000e+00
      0.407    22.6401     7.3078     84.632  35.987053     37.782      7.394   176.7057     4.2175     1.2393     0.0242      0.002      0.395      0.574         59 1.2490e+02 0.0000e+00
      0.385    22.6401     7.3047     84.595  35.962862     37.723      7.392   176.2893     4.1933     1.2125     0.0241     -0.003      0.382      0.554         60 1.2978e+02 0.0000e+00
      0.379    22.6398     7.3092     84.649  35.990284     37.782      7.396   176.6300     4.2297     1.3333     0.0242     -0.009      0.376      0.545         61 1.3405e+02 0.0000e+00
      0.386    22.6397     7.3084     84.639  36.012244     37.782      7.397   177.6143     4.1973     1.3871     0.0242     -0.010      0.378      0.549         62 1.3471e+02 0.0000e+00
      0.391    22.6401     7.2968     84.503  35.994850     37.782      7.400   178.8257     3.9345     1.2931     0.0242     -0.009      0.380      0.552         63 1.4035e+02 0.0000e+00
      0.385    22.6406     7.2750     84.249  36.011930     37.782      7.403   178.9393     3.9426     1.2662     0.0242     -0.011      0.377      0.548         64 1.4538e+02 0.0000e+00
      0.379    22.6415     7.2540     84.004  36.050306     37.841      7.404   178.3714     3.9547     1.3602     0.0242     -0.016      0.375      0.544         65 1.4809e+02 0.0000e+00
      0.386    22.6437     7.2440     83.887  36.006410     37.782      7.412   179.0529     3.9628     1.3065     0.0242     -0.013      0.378      0.548         66 1.4325e+02 0.0000e+00
      0.391    22.6458     7.2527     83.988  36.007239     37.781      7.409   179.7343     4.0154     1.3065     0.0242     -0.004      0.380      0.551         67 1.3543e+02 0.0000e+00
      0.384    22.6461     7.2616     84.094  36.049272     37.838      7.399   178.7500     3.9951     1.2662     0.0242      0.001      0.376      0.546         68 1.3608e+02 0.0000e+00
      0.375    22.6455     7.2589     84.063  36.072734     37.836      7.400   179.0529     4.0235     1.2528     0.0242     -0.001      0.372      0.539         69 1.3425e+02 0.0000e+00
      0.379    22.6451     7.2439     83.888  36.096677     37.895      7.403   179.9614     4.0396     1.2125     0.0242     -0.004      0.373      0.541         70 1.2720e+02 0.0000e+00
      0.388    22.6455     7.1990     83.369  36.078795     37.836      7.403   180.9079     4.0477     1.0648     0.0242     -0.002      0.378      0.549         71 1.2791e+02 0.0000e+00
      0.391    22.6454     7.1673     83.003  36.094988     37.896      7.401   180.9836     4.0315     1.0916     0.0242      0.001      0.382      0.554         72 1.3677e+02 0.0000e+00
      0.391    22.6445     7.1241     82.505  36.076524     37.836      7.395   181.3243     4.0073     1.0916     0.0242      0.003      0.382      0.553         73 1.3996e+02 0.0000e+00
      0.385    22.6434     7.0787     81.979  36.101773     37.895      7.389   180.6807     3.9830     1.0379     0.0242      0.002      0.378      0.548         74 1.4260e+02 0.0000e+00
      0.379    22.6422     7.0211     81.311  36.182202     37.955      7.390   180.9457     4.0235     1.0111     0.0242     -0.000      0.375      0.544         75 1.6012e+02 0.0000e+00
      0.384    22.6417     6.9664     80.676  36.184043     37.985      7.390   181.3621     4.0760     1.5213     0.0242      0.002      0.379      0.550         76 1.6727e+02 0.0000e+00
      0.397    22.6425     6.9172     80.110  36.069824     37.839      7.393   181.8921     4.0841     1.4945     0.0242      0.005      0.389      0.564         77 1.5954e+02 0.0000e+00
      0.409    22.6440     6.8684     79.552  36.057418     37.840      7.397   182.0814     4.0720     1.4676     0.0242      0.008      0.399      0.578         78 1.6381e+02 0.0000e+00
      0.413    22.6440     6.8268     79.074  36.110505     37.898      7.398   181.5136     4.0801     1.4408     0.0242      0.011      0.405      0.587         79 1.6877e+02 0.0000e+00
      0.418    22.6434     6.7825     78.565  36.063074     37.838      7.399   182.0057     4.1690     1.2796     0.0242      0.016      0.411      0.595         80 1.5368e+02 0.0000e+00
      0.426    22.6437     6.7531     78.227  36.057126     37.838      7.398   181.6650     4.1650     1.2931     0.0242      0.022      0.417      0.605         81 1.4362e+02 0.0000e+00
      0.432    22.6444     6.7280     77.937  36.058590     37.838      7.399   181.8164     4.1326     1.2662     0.0242      0.027      0.423      0.614         82 1.3668e+02 0.0000e+00
      0.437    22.6454     6.7067     77.690  36.061254     37.838      7.397   182.2329     4.1609     1.3602     0.0242      0.029      0.428      0.620         83 1.2971e+02 0.0000e+00
      0.440    22.6456     6.6923     77.525  36.113128     37.896      7.396   182.7250     4.0922     1.2528     0.0242      0.027      0.431      0.624         84 1.3427e+02 0.0000e+00
      0.440    22.6448     6.6793     77.375  36.112667     37.895      7.391   183.2171     4.0720     1.3333     0.0242      0.021      0.431      0.625         85 1.4523e+02 0.0000e+00
      0.439    22.6448     6.6579     77.128  36.061828     37.836      7.383   183.4822     4.0882     1.3333     0.0242      0.017      0.429      0.623         86 1.5363e+02 0.0000e+00
      0.434    22.6474     6.6390     76.912  36.057761     37.837      7.381   183.1036     4.0922     1.3871     0.0242      0.012      0.426      0.618         87 1.4827e+02 0.0000e+00
      0.429    22.6512     6.6069     76.542  36.058409     37.837      7.378   183.4822     4.0760     1.0648     0.0242      0.006      0.422      0.613         88 1.5502e+02 0.0000e+00
      0.429    22.6541     6.5844     76.282  36.061020     37.835      7.377   183.7472     4.0801     1.0648     0.0242     -0.000      0.422      0.612         89 1.5779e+02 0.0000e+00
      0.433    22.6565     6.5366     75.729  36.054512     37.832      7.375   183.5957     4.0841     1.0782     0.0242     -0.003      0.423      0.613         90 1.6219e+02 0.0000e+00
      0.430    22.6584     6.4941     75.239  36.066508     37.830      7.377   183.8607     4.1003     1.0916     0.0242     -0.005      0.421      0.611         91 1.8043e+02 0.0000e+00
      0.425    22.6590     6.4484     74.709  36.105408     37.886      7.382   183.8607     4.2054     1.3199     0.0242     -0.007      0.419      0.608         92 1.7677e+02 0.0000e+00
      0.427    22.6591     6.4119     74.286  36.065419     37.826      7.390   184.0879     4.2297     1.3333     0.0242     -0.006      0.420      0.609         93 1.6508e+02 0.0000e+00
      0.434    22.6593     6.3812     73.930  36.056954     37.826      7.393   184.2014     4.1933     1.2931     0.0242     -0.003      0.425      0.615         94 1.6516e+02 0.0000e+00
      0.437    22.6602     6.3487     73.555  36.056625     37.826      7.394   185.4886     4.2135     1.3602     0.0242      0.001      0.428      0.620         95 1.6469e+02 0.0000e+00
      0.437    22.6614     6.3240     73.269  36.006512     37.767      7.395   185.8293     4.2216     1.3333     0.0242      0.003      0.428      0.620         96 1.5541e+02 0.0000e+00
      0.435    22.6626     6.2927     72.906  36.060000     37.825      7.391   185.8672     4.2701     0.9976     0.0242      0.004      0.427      0.619         97 1.5117e+02 0.0000e+00
      0.434    22.6637     6.2693     72.637  36.108695     37.883      7.393   185.2236     4.2701     1.0379     0.0242      0.003      0.427      0.619         98 1.5228e+02 0.0000e+00
      0.435    22.6647     6.2469     72.377  36.064546     37.823      7.395   185.2236     4.2782     1.0111     0.0242      0.004      0.427      0.619         99 1.6899e+02 0.0000e+00
      0.435    22.6657     6.2258     72.134  36.055623     37.822      7.395   185.1479     4.2742     1.1185     0.0242      0.004      0.426      0.618        100 1.8126e+02 0.0000e+00
      0.434    22.6665     6.1959     71.788  36.060482     37.821      7.399   185.5643     4.2297     1.2528     0.0242      0.002      0.425      0.617        101 1.7895e+02 0.0000e+00
      0.433    22.6667     6.1715     71.505  36.058500     37.820      7.395   186.8514     4.2175     1.3065     0.0242     -0.001      0.425      0.617        102 1.8979e+02 0.0000e+00
      0.434    22.6665     6.1388     71.126  36.058089     37.820      7.392   187.0029     4.1812     1.3333     0.0242     -0.002      0.426      0.618        103 1.8669e+02 0.0000e+00
      0.435    22.6665     6.1165     70.867  36.060993     37.820      7.391   187.1164     4.1933     1.2393     0.0242     -0.001      0.426      0.618        104 1.7774e+02 0.0000e+00
      0.434    22.6669     6.0910     70.571  36.054886     37.820      7.389   187.2679     4.3389     1.1588     0.0242     -0.000      0.426      0.618        105 1.6690e+02 0.0000e+00
      0.434    22.6675     6.0641     70.258  36.065688     37.820      7.384   187.0029     4.3348     1.1185     0.0242     -0.000      0.426      0.618        106 1.4942e+02 0.0000e+00
      0.434    22.6678     6.0526     70.125  36.106868     37.878      7.382   187.6086     4.3308     1.0782     0.0242     -0.000      0.426      0.618        107 1.4274e+02 0.0000e+00
      0.435    22.6682     6.0342     69.912  36.062958     37.819      7.386   188.1386     4.3510     1.0916     0.0242      0.000      0.427      0.619        108 1.3929e+02 0.0000e+00
      0.436    22.6686     6.0169     69.712  36.061016     37.819      7.386   188.2900     4.2742     1.0916     0.0242      0.001      0.427      0.619        109 1.3773e+02 0.0000e+00
      0.435    22.6692     5.9988     69.502  36.109283     37.877      7.387   188.4793     4.2701     1.0514     0.0242      0.001      0.426      0.618        110 1.3848e+02 0.0000e+00
      0.432    22.6696     5.9918     69.420  36.062207     37.818      7.387   188.2900     4.3025     1.1588     0.0242     -0.000      0.425      0.616        111 1.4024e+02 0.0000e+00
      0.432    22.6695     5.9774     69.254  36.060285     37.818      7.387   188.4793     4.2580     1.1319     0.0242     -0.001      0.424      0.615        112 1.4185e+02 0.0000e+00
      0.433    22.6693     5.9612     69.065  36.052358     37.817      7.386   188.7443     4.2782     1.0782     0.0242     -0.001      0.424      0.615        113 1.4248e+02 0.0000e+00
      0.433    22.6689     5.9392     68.811  36.072070     37.817      7.384   189.0093     4.2822     1.1185     0.0242     -0.001      0.424      0.615        114 1.4280e+02 0.0000e+00
      0.433    22.6684     5.9272     68.673  36.095070     37.876      7.383   189.6150     4.2539     1.1722     0.0242     -0.002      0.424      0.616        115 1.4127e+02 0.0000e+00
      0.434    22.6678     5.9064     68.432  36.023734     37.759      7.383   189.9936     4.2984     1.0648     0.0242     -0.001      0.425      0.617        116 1.3814e+02 0.0000e+00
      0.435    22.6678     5.8869     68.207  36.042212     37.818      7.379   190.1072     4.2661     1.0379     0.0242     -0.000      0.426      0.618        117 1.3481e+02 0.0000e+00
      0.434    22.6682     5.8618     67.916  36.072075     37.819      7.383   190.2207     4.2216     1.3333     0.0242      0.001      0.425      0.617        118 1.3206e+02 0.0000e+00
      0.433    22.6683     5.8485     67.762  36.045888     37.819      7.377   190.4857     4.2216     1.3199     0.0242      0.001      0.425      0.617        119 1.3178e+02 0.0000e+00
      0.434    22.6681     5.8311     67.562  36.015486     37.760      7.375   190.0315     4.1933     1.3871     0.0242      0.001      0.426      0.618        120 1.3153e+02 0.0000e+00
      0.435    22.6678     5.8129     67.351  36.050593     37.818      7.377   190.2586     4.2054     1.2662     0.0242      0.001      0.427      0.619        121 1.3192e+02 0.0000e+00
      0.435    22.6676     5.7927     67.118  36.061514     37.819      7.376   190.2965     4.2661     1.0782     0.0242      0.001      0.427      0.619        122 1.3371e+02 0.0000e+00
      0.436    22.6675     5.7768     66.933  36.061212     37.819      7.378   190.0315     4.2863     1.1991     0.0242      0.001      0.427      0.620        123 1.3559e+02 0.0000e+00
      0.436    22.6677     5.7597     66.737  36.050969     37.819      7.377   190.7886     4.2903     1.0111     0.0242      0.001      0.428      0.620        124 1.3590e+02 0.0000e+00
      0.436    22.6684     5.7411     66.523  36.014945     37.760      7.378   191.6972     4.2742     1.0648     0.0242      0.001      0.428      0.620        125 1.3508e+02 0.0000e+00
      0.435    22.6688     5.7221     66.302  36.106043     37.877      7.379   191.7729     4.2580     1.3199     0.0242      0.001      0.428      0.620        126 1.3511e+02 0.0000e+00
      0.436    22.6689     5.7018     66.069  36.056233     37.818      7.381   191.9622     4.2580     1.2796     0.0242      0.001      0.429      0.621        127 1.3361e+02 0.0000e+00
      0.438    22.6691     5.6827     65.847  35.958299     37.701      7.379   192.2272     4.2984     1.3871     0.0241      0.001      0.429      0.622        128 1.3180e+02 0.0000e+00
      0.438    22.6694     5.6677     65.674  36.049969     37.818      7.380   192.4543     4.2903     1.3602     0.0242      0.001      0.429      0.622        129 1.3121e+02 0.0000e+00
      0.436    22.6700     5.6353     65.299  36.060785     37.818      7.379   192.4543     4.3469     1.0379     0.0242      0.001      0.428      0.621        130 1.3051e+02 0.0000e+00
      0.435    22.6705     5.6206     65.129  36.063472     37.818      7.380   192.5300     4.2984     1.0379     0.0242      0.000      0.427      0.620        131 1.3058e+02 0.0000e+00
      0.437    22.6707     5.6038     64.936  36.105942     37.876      7.380   192.6057     4.3267     1.1588     0.0242      0.000      0.428      0.622        132 1.3172e+02 0.0000e+00
      0.439    22.6710     5.5851     64.719  36.067248     37.817      7.383   193.2115     4.3389     1.0916     0.0242      0.001      0.429      0.623        133 1.3261e+02 0.0000e+00
      0.438    22.6720     5.5717     64.563  36.052307     37.816      7.379   193.0979     4.3510     1.3602     0.0242      0.001      0.429      0.623        134 1.3420e+02 0.0000e+00
      0.436    22.6727     5.5567     64.390  36.005901     37.758      7.376   194.0065     4.3348     1.1453     0.0242     -0.000      0.428      0.621        135 1.3615e+02 0.0000e+00
      0.436    22.6730     5.5459     64.265  36.006366     37.757      7.375   193.9308     4.3146     1.1453     0.0242     -0.001      0.428      0.621        136 1.3578e+02 0.0000e+00
      0.437    22.6736     5.5297     64.077  36.051729     37.815      7.374   194.5365     4.3348     1.3736     0.0242     -0.000      0.429      0.622        137 1.3558e+02 0.0000e+00
      0.437    22.6743     5.5135     63.890  36.068082     37.815      7.370   194.3850     4.3267     1.1856     0.0242      0.000      0.429      0.622        138 1.3553e+02 0.0000e+00
      0.438    22.6745     5.4982     63.714  36.045330     37.814      7.370   194.5743     4.2863     1.2662     0.0242      0.001      0.429      0.623        139 1.3415e+02 0.0000e+00
      0.438    22.6749     5.4832     63.541  36.020725     37.755      7.367   194.3850     4.2459     1.2796     0.0242      0.000      0.429      0.623        140 1.3272e+02 0.0000e+00
      0.437    22.6753     5.4657     63.339  36.039386     37.813      7.369   194.4986     4.2782     1.2528     0.0242     -0.000      0.429      0.622        141 1.3244e+02 0.0000e+00
      0.437    22.6757     5.4501     63.159  36.022107     37.755      7.369   194.3472     4.2782     1.3602     0.0242      0.000      0.429      0.622        142 1.3335e+02 0.0000e+00
      0.437    22.6756     5.4333     62.966  36.042228     37.813      7.370   194.3472     4.3267     1.8167     0.0242      0.000      0.429      0.622        143 1.3435e+02 0.0000e+00
      0.438    22.6754     5.4133     62.734  36.073663     37.812      7.374   194.3472     4.3429     1.7765     0.0242      0.000      0.430      0.623        144 1.3574e+02 0.0000e+00
      0.440    22.6755     5.3967     62.542  36.042305     37.812      7.373   194.7258     4.3348     1.7362     0.0242      0.001      0.431      0.625        145 1.3708e+02 0.0000e+00
      0.440    22.6758     5.3830     62.384  36.021935     37.754      7.374   195.4072     4.3106     1.6556     0.0242      0.001      0.432      0.626        146 1.3809e+02 0.0000e+00
      0.440    22.6763     5.3673     62.202  36.039695     37.813      7.371   195.7100     4.4197     1.3602     0.0242      0.002      0.432      0.626        147 1.3922e+02 0.0000e+00
      0.439    22.6770     5.3470     61.968  36.020203     37.754      7.369   196.1643     4.4116     1.2931     0.0242      0.002      0.431      0.625        148 1.4046e+02 0.0000e+00
      0.439    22.6777     5.3372     61.855  36.046193     37.812      7.367   196.0508     4.4076     1.3602     0.0242      0.001      0.431      0.625        149 1.4074e+02 0.0000e+00
      0.439    22.6786     5.3227     61.687  36.066670     37.811      7.367   196.3158     4.4036     1.3065     0.0242      0.001      0.431      0.625        150 1.4070e+02 0.0000e+00
      0.439    22.6792     5.3090     61.528  36.054037     37.811      7.368   196.2022     4.3833     1.2931     0.0242      0.001      0.431      0.625        151 1.4092e+02 0.0000e+00
      0.439    22.6799     5.3032     61.461  36.061911     37.810      7.370   196.3536     4.4238     1.2796     0.0242     -0.000      0.431      0.625        152 1.4179e+02 0.0000e+00
      0.439    22.6808     5.2856     61.257  36.056869     37.810      7.369   196.8079     4.4197     1.2662     0.0242     -0.001      0.431      0.625        153 1.4373e+02 0.0000e+00
      0.439    22.6814     5.2801     61.192  36.060313     37.809      7.370   196.8836     4.3874     1.3468     0.0242     -0.001      0.431      0.625        154 1.4577e+02 0.0000e+00
      0.440    22.6818     5.2820     61.214  36.057625     37.808      7.372   196.4293     4.4076     1.0648     0.0242     -0.000      0.431      0.626        155 1.4789e+02 0.0000e+00
      0.440    22.6823     5.2729     61.107  36.060214     37.808      7.368   197.0729     4.4076     1.1051     0.0242      0.000      0.431      0.626        156 1.5073e+02 0.0000e+00
      0.440    22.6828     5.2678     61.047  36.057091     37.808      7.372   196.8079     4.3955     1.0782     0.0242      0.001      0.431      0.626        157 1.5289e+02 0.0000e+00
      0.439    22.6830     5.2643     61.007  36.061511     37.807      7.372   197.2622     4.4238     1.1319     0.0242      0.000      0.431      0.626        158 1.5535e+02 0.0000e+00
      0.440    22.6834     5.2594     60.952  36.114031     37.865      7.370   197.4515     4.4036     1.0648     0.0242      0.000      0.431      0.626        159 1.5671e+02 0.0000e+00
      0.440    22.6838     5.2506     60.851  36.110365     37.865      7.369   197.6786     4.4723     1.2662     0.0242      0.001      0.432      0.626        160 1.6021e+02 0.0000e+00
      0.440    22.6837     5.2445     60.781  36.066072     37.806      7.368   198.1329     4.4521     1.2393     0.0242      0.000      0.432      0.626        161 1.6412e+02 0.0000e+00
      0.441    22.6835     5.2299     60.612  36.050518     37.806      7.370   197.5650     4.4642     1.3065     0.0242      0.001      0.433      0.628        162 1.8013e+02 0.0000e+00
      0.444    22.6830     5.2139     60.427  36.011087     37.748      7.371   197.6408     4.4561     1.2796     0.0242      0.001      0.435      0.631        163 1.9150e+02 0.0000e+00
      0.447    22.6823     5.2034     60.306  35.996508     37.748      7.370   198.3222     4.5451     1.2528     0.0242      0.003      0.438      0.636        164 1.9255e+02 0.0000e+00
      0.450    22.6820     5.1839     60.081  36.068662     37.807      7.369   197.9815     4.5815     1.2931     0.0242      0.005      0.441      0.641        165 1.9471e+02 0.0000e+00
      0.453    22.6813     5.1754     59.984  36.099247     37.866      7.369   197.9815     4.5208     1.3602     0.0242      0.007      0.445      0.646        166 2.0434e+02 0.0000e+00
      0.459    22.6806     5.1613     59.821  36.017764     37.749      7.371   198.5872     4.5289     1.3199     0.0242      0.009      0.449      0.651        167 2.0174e+02 0.0000e+00
      0.461    22.6810     5.1503     59.694  35.992114     37.750      7.368   199.1929     4.3995     1.4676     0.0242      0.011      0.451      0.653        168 1.7219e+02 0.0000e+00
      0.459    22.6820     5.1394     59.568  36.012534     37.750      7.357   199.2686     4.3874     1.3065     0.0242      0.011      0.449      0.651        169 1.9988e+02 0.0000e+00
      0.454    22.6828     5.1254     59.406  36.051667     37.808      7.348   198.4736     4.3874     1.2931     0.0242      0.009      0.447      0.648        170 2.3250e+02 0.0000e+00
      0.455    22.6833     5.1373     59.532  36.062045     37.807      7.344   197.8300     4.4197     1.3199     0.0242      0.006      0.447      0.648        171 2.2669e+02 0.0000e+00
      0.458    22.6839     5.3243     61.669  36.058935     37.807      7.341   198.1329     4.4804     1.3468     0.0242      0.004      0.448      0.650        172 2.3102e+02 0.0000e+00
      0.459    22.6846     5.8459     67.685  36.055538     37.806      7.339   198.4736     4.4723     1.2662     0.0242      0.002      0.449      0.651        173 2.4067e+02 0.0000e+00
      0.458    22.6855     6.5955     76.350  36.006956     37.747      7.338   198.7386     4.4642     1.2393     0.0242      0.001      0.448      0.651        174 2.3539e+02 0.0000e+00
      0.456    22.6863     7.3966     85.616  36.000760     37.747      7.337   199.0415     4.4602     1.2662     0.0242     -0.001      0.448      0.650        175 2.2811e+02 0.0000e+00
      0.457    22.6868     8.1663     94.522  36.003930     37.746      7.340   198.7008     4.5572     1.2796     0.0242     -0.001      0.448      0.650        176 2.3309e+02 0.0000e+00
      0.458    22.6873     8.8685    102.647  36.003011     37.745      7.342   199.4579     4.5168     1.3065     0.0242      0.001      0.449      0.652        177 2.2568e+02 0.0000e+00
      0.459    22.6876     9.3815    108.582  36.001906     37.745      7.340   199.9501     4.5491     1.3468     0.0242      0.002      0.450      0.652        178 2.1531e+02 0.0000e+00
      0.459    22.6883     9.7147    112.436  36.005306     37.745      7.340   199.8743     4.5330     1.3199     0.0242      0.001      0.450      0.652        179 2.0588e+02 0.0000e+00
      0.458    22.6885     9.8395    113.880  36.058095     37.803      7.343   200.0258     4.5330     1.2931     0.0242      0.000      0.449      0.652        180 1.9480e+02 0.0000e+00
      0.458    22.6773     9.8024    113.448  35.995526     37.744      7.343   200.6693     4.4763     1.3333     0.0242      0.000      0.449      0.652        181 1.8015e+02 0.0000e+00
      0.459    22.6526     9.6903    112.150  35.905221     37.627      7.341   200.3286     4.4359     1.2393     0.0241      0.001      0.449      0.652        182 1.8290e+02 0.0000e+00
      0.458    22.6331     9.5408    110.418  35.992529     37.752      7.343   200.0636     4.4804     1.2662     0.0242      0.001      0.449      0.652        183 1.8855e+02 0.0000e+00
      0.459    22.6235     9.3923    108.699  36.005512     37.773      7.342   199.7986     4.4642     1.2393     0.0242      0.001      0.450      0.653        184 1.9079e+02 0.0000e+00
      0.459    22.6187     9.2527    107.083  35.948390     37.729      7.345   200.1772     4.4642     1.3871     0.0241      0.000      0.450      0.653        185 1.9726e+02 0.0000e+00
      0.460    22.6167     9.1485    105.878  35.944992     37.737      7.344   200.2151     4.4561     1.3333     0.0241      0.000      0.450      0.653        186 1.9116e+02 0.0000e+00
      0.459    22.6153     9.0633    104.894  35.950431     37.740      7.346   200.1015     4.4683     1.3602     0.0241      0.001      0.450      0.653        187 1.8037e+02 0.0000e+00
      0.460    22.6139     9.0026    104.193  35.941626     37.742      7.344   200.4422     4.4278     1.2125     0.0241      0.001      0.451      0.654        188 1.6185e+02 0.0000e+00
      0.460    22.6129     8.9617    103.721  35.955951     37.743      7.345   200.8965     4.3267     1.2931     0.0241      0.001      0.451      0.654        189 1.5046e+02 0.0000e+00
      0.459    22.6123     8.9330    103.390  35.932603     37.744      7.346   200.8965     4.3672     1.3468     0.0241      0.001      0.451      0.654        190 1.4738e+02 0.0000e+00
      0.460    22.6118     8.9174    103.210  35.911364     37.686      7.349   201.0101     4.3348     1.2393     0.0241      0.001      0.451      0.654        191 1.4383e+02 0.0000e+00
      0.461    22.6112     8.9133    103.163  35.982384     37.804      7.348   201.0858     4.3227     1.2259     0.0242      0.001      0.452      0.655        192 1.4303e+02 0.0000e+00
      0.461    22.6104     8.9139    103.169  35.962856     37.746      7.347   201.3129     4.3267     1.1051     0.0241      0.001      0.452      0.655        193 1.4238e+02 0.0000e+00
      0.461    22.6100     8.9158    103.189  35.935664     37.746      7.347   201.6536     4.3429     1.0648     0.0241      0.001      0.452      0.656        194 1.4300e+02 0.0000e+00
      0.461    22.6101     8.9146    103.173  35.956905     37.747      7.348   201.4643     4.3591     1.1051     0.0241      0.001      0.452      0.656        195 1.4362e+02 0.0000e+00
      0.462    22.6106     8.9062    103.077  35.995741     37.806      7.344   201.3129     4.3429     1.0782     0.0242      0.001      0.453      0.657        196 1.4375e+02 0.0000e+00
      0.462    22.6111     8.8962    102.961  36.005968     37.806      7.346   201.2372     4.3186     1.0379     0.0242      0.001      0.453      0.657        197 1.4290e+02 0.0000e+00
      0.462    22.6120     8.8805    102.777  35.944178     37.747      7.345   201.9943     4.3389     1.0782     0.0241      0.001      0.453      0.657        198 1.4160e+02 0.0000e+00
      0.462    22.6130     8.8670    102.617  35.954006     37.746      7.343   201.9565     4.3753     1.1453     0.0241      0.001      0.453      0.657        199 1.4049e+02 0.0000e+00
      0.462    22.6136     8.8518    102.437  35.993738     37.804      7.341   202.1458     4.3510     1.0916     0.0242      0.001      0.453      0.656        200 1.3882e+02 0.0000e+00
      0.461    22.6139     8.8473    102.382  35.954048     37.745      7.341   202.6001     4.3146     1.1319     0.0241      0.000      0.452      0.656        201 1.3748e+02 0.0000e+00
      0.461    22.6143     8.8472    102.379  35.944080     37.744      7.342   202.0322     4.2661     1.0648     0.0241     -0.000      0.452      0.656        202 1.3645e+02 0.0000e+00
      0.462    22.6137     8.8503    102.414  35.946825     37.744      7.342   202.0701     4.2459     1.0648     0.0241     -0.000      0.453      0.657        203 1.3583e+02 0.0000e+00
      0.463    22.6121     8.8632    102.566  35.891316     37.685      7.346   202.7893     4.2822     1.0648     0.0241      0.000      0.453      0.658        204 1.3648e+02 0.0000e+00
      0.462    22.6115     8.8694    102.642  35.894527     37.686      7.345   203.0922     4.2903     1.0782     0.0241      0.000      0.453      0.658        205 1.3677e+02 0.0000e+00
      0.462    22.6118     8.8780    102.744  35.942828     37.746      7.343   203.1301     4.4036     1.3065     0.0241      0.000      0.453      0.657        206 1.3751e+02 0.0000e+00
      0.462    22.6120     8.8762    102.723  35.949840     37.746      7.346   203.2815     4.4036     1.2662     0.0241      0.000      0.453      0.657        207 1.3832e+02 0.0000e+00
      0.463    22.6110     8.8670    102.615  35.945118     37.746      7.343   203.2815     4.4036     1.2528     0.0241      0.001      0.454      0.658        208 1.3861e+02 0.0000e+00
      0.463    22.6091     8.8612    102.547  35.948704     37.746      7.346   203.5086     4.4116     1.3736     0.0241      0.001      0.454      0.658        209 1.3866e+02 0.0000e+00
      0.463    22.6072     8.8631    102.570  35.945378     37.746      7.344   204.1144     4.4238     8.2353     0.0241      0.001      0.454      0.658        210 1.3803e+02 0.0000e+00
      0.463    22.6055     8.8643    102.584  35.949259     37.748      7.346   204.0008     4.3995     8.3159     0.0241      0.001      0.454      0.659        211 1.3731e+02 0.0000e+00
      0.464    22.6040     8.8689    102.635  35.943874     37.750      7.349   204.0765     4.3955     8.2219     0.0241      0.001      0.455      0.659        212 1.3634e+02 0.0000e+00
      0.464    22.6037     8.8731    102.687  35.952079     37.751      7.350   204.3415     4.3955     8.0742     0.0241      0.001      0.455      0.659        213 1.3573e+02 0.0000e+00
      0.464    22.6052     8.8774    102.742  35.939049     37.752      7.349   204.5686     4.4561     5.7108     0.0241      0.001      0.455      0.659        214 1.3559e+02 0.0000e+00
      0.464    22.6074     8.8782    102.759  35.900773     37.694      7.352   204.3794     4.4723     5.6437     0.0241      0.001      0.455      0.660        215 1.3560e+02 0.0000e+00
      0.464    22.6088     8.8665    102.633  35.940396     37.751      7.350   204.6444     4.4844     5.6437     0.0241      0.001      0.455      0.660        216 1.3621e+02 0.0000e+00
      0.463    22.6087     8.8518    102.466  35.949055     37.749      7.353   204.9851     4.4561     5.7243     0.0241      0.000      0.455      0.660        217 1.3693e+02 0.0000e+00
      0.464    22.6077     8.8426    102.362  35.889997     37.690      7.353   205.1744     4.4602     1.3602     0.0241      0.000      0.455      0.660        218 1.3758e+02 0.0000e+00
      0.465    22.6074     8.8412    102.346  35.895260     37.690      7.354   205.0986     4.4844     1.3199     0.0241      0.000      0.456      0.661        219 1.3822e+02 0.0000e+00
      0.465    22.6079     8.8449    102.387  35.942506     37.749      7.356   205.5529     4.4723     1.3333     0.0241      0.001      0.456      0.661        220 1.3809e+02 0.0000e+00
      0.465    22.6078     8.8644    102.614  35.949834     37.749      7.354   205.9694     4.4521     1.1991     0.0241      0.001      0.456      0.661        221 1.3768e+02 0.0000e+00
      0.465    22.6072     8.8725    102.706  35.945456     37.749      7.354   206.0072     4.4723     1.3333     0.0241      0.001      0.456      0.661        222 1.3700e+02 0.0000e+00
      0.465    22.6086     8.8819    102.813  35.947953     37.749      7.353   205.8936     4.3146     1.3871     0.0241      0.001      0.456      0.661        223 1.3631e+02 0.0000e+00
      0.465    22.6114     8.8862    102.865  35.887410     37.691      7.354   206.1965     4.3348     1.3468     0.0241      0.001      0.456      0.661        224 1.3611e+02 0.0000e+00
      0.466    22.6153     8.8877    102.886  35.902168     37.690      7.356   206.2722     4.3510     1.3065     0.0241      0.001      0.457      0.662        225 1.3602e+02 0.0000e+00
      0.466    22.6198     8.8830    102.838  35.929587     37.746      7.353   206.2344     4.3389     1.2662     0.0241      0.001      0.457      0.663        226 1.3685e+02 0.0000e+00
      0.466    22.6218     8.8766    102.769  35.912602     37.685      7.356   206.3479     4.4036     1.0916     0.0241      0.001      0.457      0.663        227 1.3795e+02 0.0000e+00
      0.466    22.6227     8.8755    102.754  35.982620     37.798      7.355   206.8779     4.3995     1.0245     0.0242      0.001      0.457      0.663        228 1.3920e+02 0.0000e+00
      0.466    22.6227     8.8813    102.818  35.961083     37.738      7.354   207.0672     4.3874     1.1319     0.0241      0.001      0.457      0.663        229 1.4060e+02 0.0000e+00
      0.466    22.6224     8.8890    102.908  35.939403     37.737      7.354   207.0672     4.4197     1.0782     0.0241      0.001      0.457      0.664        230 1.4209e+02 0.0000e+00
      0.467    22.6225     8.8961    102.992  35.950284     37.737      7.354   207.0672     4.4683     1.2796     0.0241      0.001      0.458      0.664        231 1.4362e+02 0.0000e+00
      0.467    22.6216     8.9048    103.096  35.947542     37.738      7.353   207.5594     4.4723     1.2662     0.0241      0.001      0.458      0.664        232 1.4363e+02 0.0000e+00
      0.467    22.6210     8.9004    103.044  36.002132     37.796      7.339   207.3322     4.4804     1.2662     0.0242      0.001      0.458      0.664        233 1.4353e+02 0.0000e+00
      0.467    22.6216     8.8950    102.977  36.000983     37.797      7.326   207.6351     4.4723     1.2662     0.0242      0.001      0.458      0.664        234 1.4377e+02 0.0000e+00
      0.467    22.6238     8.8952    102.976  36.008289     37.797      7.318   207.9758     4.5289     1.0782     0.0242      0.001      0.458      0.665        235 1.4413e+02 0.0000e+00
      0.468    22.6274     8.8901    102.916  35.993039     37.797      7.322   207.7486     4.5410     1.0648     0.0242      0.001      0.459      0.665        236 1.4528e+02 0.0000e+00
      0.468    22.6296     8.8842    102.849  35.960644     37.736      7.321   207.6729     4.5653     1.0782     0.0241      0.001      0.459      0.665        237 1.4689e+02 0.0000e+00
      0.467    22.6288     8.8820    102.825  35.989286     37.792      7.325   207.5215     4.5370     1.0648     0.0242      0.001      0.459      0.665        238 1.4873e+02 0.0000e+00
      0.468    22.6274     8.8805    102.807  35.957393     37.732      7.325   207.5594     4.4642     1.0782     0.0241      0.000      0.459      0.666        239 1.5073e+02 0.0000e+00
      0.468    22.6274     8.8699    102.686  35.941015     37.732      7.326   207.8622     4.4642     1.0245     0.0241      0.001      0.459      0.666        240 1.5313e+02 0.0000e+00
      0.468    22.6284     8.8629    102.603  35.950351     37.734      7.327   208.1272     4.4723     1.0916     0.0241      0.000      0.459      0.666        241 1.5461e+02 0.0000e+00
      0.468    22.6297     8.8572    102.531  36.005094     37.792      7.326   208.3165     4.4642     1.1319     0.0242      0.000      0.459      0.666        242 1.5557e+02 0.0000e+00
      0.469    22.6296     8.8534    102.480  35.991523     37.791      7.327   208.3922     4.4561     1.1051     0.0242      0.000      0.460      0.667        243 1.5651e+02 0.0000e+00
      0.469    22.6277     8.8559    102.505  35.967238     37.732      7.330   208.4679     4.6583     1.0782     0.0241      0.000      0.460      0.667        244 1.5718e+02 0.0000e+00
      0.469    22.6258     8.8542    102.485  36.035316     37.849      7.335   208.5815     4.6866     1.0916     0.0242      0.001      0.460      0.667        245 1.5757e+02 0.0000e+00
      0.469    22.6251     8.8510    102.452  36.025436     37.792      7.335   208.7708     4.6785     1.0514     0.0242      0.001      0.460      0.667        246 1.5834e+02 0.0000e+00
      0.469    22.6257     8.8558    102.512  36.038851     37.852      7.335   208.5437     4.6664     1.0514     0.0242      0.001      0.460      0.668        247 1.5866e+02 0.0000e+00
      0.470    22.6263     8.8682    102.652  36.018622     37.794      7.336   208.5437     4.5936     1.2931     0.0242      0.001      0.461      0.668        248 1.6137e+02 0.0000e+00
      0.470    22.6266     8.8848    102.833  35.991294     37.794      7.334   208.6194     4.6017     1.3333     0.0242      0.001      0.461      0.668        249 1.6422e+02 0.0000e+00
      0.470    22.6268     8.8900    102.882  36.013543     37.793      7.334   208.6572     4.5936     1.2528     0.0242      0.001      0.461      0.668        250 1.6025e+02 0.0000e+00
      0.470    22.6258     8.8833    102.802  35.990932     37.793      7.334   209.2251     4.5734     1.2796     0.0242      0.001      0.460      0.667        251 1.5850e+02 0.0000e+00
      0.468    22.6228     8.8715    102.665  35.960116     37.734      7.328   208.6951     4.8039     1.1319     0.0241      0.000      0.459      0.666        252 1.7784e+02 0.0000e+00
      0.466    22.6192     8.8566    102.480  35.992578     37.794      7.330   208.6194     4.7917     1.1051     0.0242     -0.001      0.457      0.664        253 1.7754e+02 0.0000e+00
      0.466    22.6173     8.8361    102.244  36.009851     37.796      7.332   209.4901     4.7715     1.0514     0.0242     -0.002      0.456      0.662        254 1.9084e+02 0.0000e+00
      0.463    22.6171     8.8193    102.064  35.938622     37.740      7.323   209.2251     4.7837     1.0379     0.0241     -0.003      0.456      0.661        255 2.0142e+02 0.0000e+00
      0.465    22.6192     8.8163    102.040  35.962589     37.741      7.310   209.2629     4.5370     1.2393     0.0241     -0.003      0.457      0.663        256 1.9543e+02 0.0000e+00
      0.471    22.6211     8.8261    102.167  36.039341     37.859      7.293   209.4522     4.5370     1.3602     0.0242     -0.002      0.462      0.669        257 2.2836e+02 0.0000e+00
      0.475    22.6195     8.8337    102.269  35.961739     37.740      7.285   208.9979     4.5168     1.3333     0.0241      0.001      0.466      0.675        258 1.9454e+02 0.0000e+00
      0.479    22.6143     8.8550    102.529  35.940528     37.739      7.285   209.4522     4.5249     1.2796     0.0241      0.004      0.469      0.680        259 1.6053e+02 0.0000e+00
      0.481    22.6080     8.8622    102.621  35.947103     37.740      7.288   210.1337     4.5451     1.3333     0.0241      0.008      0.469      0.680        260 1.5622e+02 0.0000e+00
      0.473    22.6073     8.8733    102.755  35.953558     37.744      7.292   209.1872     4.5734     1.2259     0.0241      0.007      0.465      0.674        261 1.7079e+02 0.0000e+00
      0.469    22.6067     8.8804    102.843  35.991815     37.808      7.312   208.3165     4.5613     1.3871     0.0242      0.005      0.465      0.673        262 1.8853e+02 0.0000e+00
      0.481    22.6007     8.8836    102.888  35.899495     37.691      7.322   208.8087     4.5370     1.3468     0.0241      0.006      0.470      0.682        263 1.9564e+02 0.0000e+00
      0.488    22.6012     8.8899    102.969  35.890499     37.691      7.310   209.0737     4.5208     1.2528     0.0241      0.007      0.472      0.685        264 2.5803e+02 0.0000e+00
      0.475    22.6079     8.8872    102.944  35.943695     37.755      7.296   208.0894     4.6138     1.0379     0.0241      0.003      0.463      0.672        265 3.1913e+02 0.0000e+00
      0.455    22.6141     8.8935    103.022  35.951929     37.754      7.305   208.2787     4.6300     0.9574     0.0241     -0.005      0.445      0.646        266 3.3839e+02 0.0000e+00
      0.433    22.6211     8.8984    103.081  35.998885     37.808      7.312   208.6194     4.6300     1.1185     0.0242     -0.016      0.423      0.613        267 3.6637e+02 0.0000e+00
      0.405    22.6285     8.9065    103.174  36.003889     37.803      7.325   208.1272     4.5977     1.0514     0.0242     -0.030      0.395      0.572        268 4.1824e+02 0.0000e+00
      0.369    22.6348     8.9076    103.186  36.005014     37.797      7.329   208.0894     4.0720     1.0111     0.0242     -0.048      0.356      0.516        269 3.6089e+02 0.0000e+00
      0.315    22.6393     8.9054    103.159  35.997480     37.791      7.335   207.2565     4.0639     1.1051     0.0242     -0.076      0.302      0.437        270 4.2595e+02 0.0000e+00
      0.238    22.6423     8.8993    103.088  35.953943     37.728      7.323   206.4994     4.0841     1.1722     0.0241     -0.115      0.234      0.338        271 5.6341e+02 0.0000e+00
      0.162    22.6452     8.9056    103.161  35.940558     37.724      7.323   205.7422     4.0760     0.9976     0.0241     -0.154      0.162      0.234        272 6.7130e+02 0.0000e+00
      0.095    22.6488     8.9082    103.191  35.954818     37.722      7.332   205.4015     3.8819     1.1319     0.0241     -0.188      0.094      0.136        273 7.9244e+02 0.0000e+00
      0.027    22.6531     8.8932    103.017  35.936195     37.719      7.342   204.8715     3.8779     1.1319     0.0241     -0.218      0.029      0.042        274 8.3824e+02 0.0000e+00
     -0.035    22.6566     8.8788    102.850  35.904415     37.658      7.353   204.5686     3.8819     1.0648     0.0241     -0.242     -0.026     -0.039        275 7.0731e+02 0.0000e+00
     -0.074    22.6588     8.8816    102.882  35.935049     37.713      7.363   204.3794     3.9021     1.0782     0.0241     -0.251     -0.065     -0.095        276 5.6274e+02 0.0000e+00
     -0.091    22.6596     8.8810    102.876  35.898069     37.652      7.369   204.8336     3.5625     1.0379     0.0241     -0.241     -0.088     -0.128        277 7.3446e+02 0.0000e+00
     -0.107    22.6598     8.8881    102.956  35.891116     37.650      7.374   205.7044     3.5503     1.0514     0.0241     -0.214     -0.106     -0.154        278 8.7744e+02 0.0000e+00
     -0.128    22.6594     8.8758    102.813  35.943700     37.708      7.375   204.9851     3.5544     1.0245     0.0241     -0.179     -0.125     -0.180        279 6.7393e+02 0.0000e+00
     -0.146    22.6588     8.8713    102.759  35.951262     37.708      7.378   204.6444     3.5625     1.1319     0.0241     -0.146     -0.141     -0.203        280 5.4668e+02 0.0000e+00
     -0.156    22.6584     8.8649    102.683  35.941023     37.708      7.376   204.4172     3.3684     1.3602     0.0241     -0.114     -0.151     -0.218        281 7.3473e+02 0.0000e+00
     -0.159    22.6582     8.8644    102.676  35.897125     37.650      7.377   204.7201     3.3886     1.2796     0.0241     -0.084     -0.158     -0.228        282 7.7417e+02 0.0000e+00
     -0.168    22.6580     8.8650    102.678  35.887258     37.650      7.367   203.5844     3.3603     1.3468     0.0241     -0.063     -0.163     -0.236        283 8.0642e+02 0.0000e+00
     -0.170    22.6579     8.8592    102.604  35.893986     37.650      7.361   203.7358     3.3603     1.2393     0.0241     -0.049     -0.165     -0.239        284 8.3111e+02 0.0000e+00
     -0.166    22.6581     8.8642    102.656  35.948069     37.709      7.359   204.3415     3.2471     5.5094     0.0241     -0.038     -0.165     -0.238        285 7.9117e+02 0.0000e+00
     -0.167    22.6581     8.8686    102.702  35.938587     37.709      7.354   204.4929     3.1905     5.5631     0.0241     -0.027     -0.166     -0.240        286 8.1630e+02 0.0000e+00
     -0.174    22.6578     8.8750    102.773  35.905786     37.651      7.355   204.7201     3.1379     5.4289     0.0241     -0.018     -0.169     -0.245        287 8.0903e+02 0.0000e+00
     -0.175    22.6572     8.8710    102.725  35.929571     37.709      7.359   204.3794     3.1986     5.4826     0.0241     -0.012     -0.169     -0.245        288 8.2494e+02 0.0000e+00
     -0.169    22.6567     8.8692    102.704  35.908987     37.651      7.362   208.2029     3.1783     5.4154     0.0241     -0.007     -0.164     -0.238        289 8.1569e+02 0.0000e+00
     -0.160    22.6561     8.8655    102.666  35.931403     37.710      7.360   204.7201     3.2390     1.2931     0.0241     -0.002     -0.157     -0.228        290 8.0744e+02 0.0000e+00
     -0.151    22.6552     8.8619    102.630  35.931333     37.681      7.358   204.5686     3.2713     1.3736     0.0241      0.005     -0.148     -0.215        291 8.2851e+02 0.0000e+00
     -0.142    22.6543     8.8587    102.596  35.938734     37.711      7.351   204.4551     3.2673     1.2931     0.0241      0.011     -0.139     -0.201        292 8.1588e+02 0.0000e+00
     -0.132    22.6521     8.8626    102.640  35.951852     37.712      7.346   204.4929     3.2592     1.2931     0.0241      0.018     -0.126     -0.184        293 8.0895e+02 0.0000e+00
     -0.114    22.6486     8.8640    102.655  35.944667     37.712      7.341   204.4929     3.1177     1.0379     0.0241      0.028     -0.109     -0.159        294 8.2216e+02 0.0000e+00
     -0.091    22.6454     8.8654    102.669  35.947677     37.714      7.319   204.1522     3.0934     1.0514     0.0241      0.040     -0.089     -0.129        295 8.3136e+02 0.0000e+00
     -0.068    22.6430     8.8568    102.569  35.948107     37.717      7.303   204.3794     3.1136     1.1588     0.0241      0.051     -0.067     -0.097        296 8.4630e+02 0.0000e+00
     -0.047    22.6412     8.8398    102.369  35.944134     37.719      7.296   204.0008     3.0934     1.0111     0.0241      0.060     -0.047     -0.069        297 8.3806e+02 0.0000e+00
     -0.031    22.6401     8.8226    102.169  35.952624     37.721      7.293   204.1901     3.2754     1.0782     0.0241      0.067     -0.031     -0.045        298 8.4721e+02 0.0000e+00
     -0.017    22.6407     8.8091    102.013  35.937541     37.723      7.296   204.1522     3.3199     1.0782     0.0241      0.071     -0.017     -0.024        299 8.6531e+02 0.0000e+00
     -0.003    22.6428     8.8039    101.953  35.903587     37.665      7.300   204.3036     3.2996     1.0648     0.0241      0.073     -0.002     -0.003        300 8.6653e+02 0.0000e+00
      0.014    22.6454     8.8128    102.051  35.935564     37.723      7.302   204.2658     3.2996     1.0514     0.0241      0.072      0.014      0.020        301 8.7188e+02 0.0000e+00
      0.032    22.6472     8.8262    102.184  35.957063     37.721      7.297   205.2501     3.6878     1.0111     0.0241      0.069      0.031      0.044        302 8.5983e+02 0.0000e+00
      0.047    22.6470     8.8475    102.403  35.936147     37.719      7.295   205.1744     3.6878     1.0245     0.0241      0.065      0.046      0.067        303 8.6894e+02 0.0000e+00
      0.062    22.6458     8.8666    102.604  35.902277     37.659      7.301   205.4772     3.7121     1.0648     0.0241      0.063      0.062      0.090        304 8.4007e+02 0.0000e+00
      0.081    22.6451     8.8961    102.929  35.939898     37.718      7.299   205.9315     3.6757     1.0916     0.0241      0.062      0.080      0.115        305 8.7754e+02 0.0000e+00
      0.099    22.6443     8.9132    103.116  35.948646     37.719      7.297   206.1208     3.6757     1.1588     0.0241      0.064      0.096      0.139        306 8.6928e+02 0.0000e+00
      0.113    22.6432     8.9200    103.190  35.950706     37.719      7.305   206.1208     3.7000     1.2931     0.0241      0.065      0.111      0.161        307 6.9992e+02 0.0000e+00
      0.128    22.6430     8.9179    103.161  35.937334     37.720      7.316   206.4994     3.7000     1.3199     0.0241      0.065      0.125      0.182        308 7.1059e+02 0.0000e+00
      0.142    22.6428     8.9093    103.059  35.905972     37.662      7.321   206.1586     3.7242     1.2931     0.0241      0.063      0.138      0.200        309 7.4244e+02 0.0000e+00
      0.151    22.6428     8.8852    102.777  35.930420     37.721      7.325   206.1586     3.7081     1.3468     0.0241      0.060      0.148      0.216        310 7.0603e+02 0.0000e+00
      0.161    22.6398     8.8622    102.507  35.906909     37.663      7.334   206.0829     3.5625     1.2931     0.0241      0.057      0.159      0.232        311 7.9952e+02 0.0000e+00
      0.177    22.6289     8.8376    102.220  35.935231     37.721      7.341   206.2344     3.5544     1.3065     0.0241      0.054      0.174      0.253        312 6.9964e+02 0.0000e+00
      0.196    22.6153     8.8258    102.080  35.924833     37.694      7.342   206.4236     3.5625     1.3199     0.0241      0.053      0.192      0.279        313 5.2322e+02 0.0000e+00
      0.215    22.6046     8.8119    101.916  35.890192     37.674      7.344   206.9158     3.6070     1.2393     0.0241      0.054      0.210      0.305        314 6.6744e+02 0.0000e+00
      0.234    22.5966     8.8125    101.921  35.889370     37.685      7.338   206.7644     3.3360     1.1051     0.0241      0.057      0.230      0.332        315 5.4712e+02 0.0000e+00
      0.252    22.5911     8.8198    102.003  35.896204     37.693      7.335   207.4836     3.2996     1.1051     0.0241      0.061      0.250      0.361        316 3.7552e+02 0.0000e+00
      0.277    22.5880     8.8380    102.212  35.881693     37.699      7.331   207.6351     3.2956     1.2125     0.0241      0.067      0.273      0.396        317 4.7617e+02 0.0000e+00
      0.306    22.5861     8.8587    102.449  35.848116     37.645      7.327   208.2029     3.3279     1.0916     0.0241      0.076      0.301      0.436        318 4.7562e+02 0.0000e+00
      0.336    22.5847     8.8699    102.576  35.908335     37.735      7.324   208.5437     3.3846     1.3333     0.0241      0.084      0.331      0.479        319 4.9070e+02 0.0000e+00
      0.369    22.5831     8.8776    102.661  35.895730     37.708      7.328   208.8844     3.3886     1.3333     0.0241      0.092      0.361      0.523        320 4.4365e+02 0.0000e+00
      0.398    22.5812     8.8782    102.663  35.834146     37.650      7.330   209.3765     3.3724     1.2259     0.0241      0.100      0.390      0.566        321 4.1899e+02 0.0000e+00
      0.428    22.5797     8.8725    102.590  35.836682     37.651      7.330   209.6794     3.3765     1.2931     0.0241      0.107      0.419      0.608        322 4.7531e+02 0.0000e+00
      0.457    22.5782     8.8527    102.356  35.833258     37.653      7.332   210.0201     3.9507     1.3602     0.0241      0.113      0.449      0.651        323 4.2565e+02 0.0000e+00
      0.490    22.5765     8.8362    102.163  35.838410     37.654      7.334   210.5501     3.9709     1.2528     0.0241      0.118      0.480      0.696        324 3.7440e+02 0.0000e+00
      0.522    22.5753     8.8306    102.096  35.859930     37.684      7.339   210.6637     3.9709     1.2393     0.0241      0.120      0.511      0.741        325 3.3016e+02 0.0000e+00
      0.550    22.5743     8.8286    102.072  35.836136     37.656      7.341   210.9287     3.9790     1.2796     0.0241      0.120      0.539      0.783        326 3.2863e+02 0.0000e+00
      0.578    22.5732     8.8265    102.044  35.838365     37.657      7.347   211.2315     4.0113     1.5348     0.0241      0.119      0.566      0.822        327 3.2746e+02 0.0000e+00
      0.605    22.5721     8.8234    101.994  35.827499     37.658      7.349   211.2315     4.2054     1.4945     0.0241      0.117      0.592      0.858        328 2.6640e+02 0.0000e+00
      0.629    22.5707     8.8245    101.964  35.849660     37.659      7.349   211.3072     4.2216     1.4273     0.0241      0.115      0.616      0.893        329 2.3989e+02 0.0000e+00
      0.651    22.5687     8.8260    101.878  35.899763     37.748      7.355   211.5722     4.2216     1.5079     0.0241      0.111      0.638      0.925        330 2.4462e+02 0.0000e+00
      0.672    22.5662     8.8269    101.772  35.854124     37.661      7.354   211.6479     4.2297     1.5213     0.0241      0.105      0.658      0.955        331 2.4519e+02 0.0000e+00
      0.691    22.5628     8.7723    101.055  35.876799     37.721      7.356   211.7615     4.0558     1.2931     0.0241      0.098      0.678      0.984        332 2.3493e+02 0.0000e+00
      0.713    22.5600     8.6186     99.217  35.841885     37.665      7.357   212.5565     4.0841     1.2931     0.0241      0.093      0.696      1.010        333 2.3675e+02 0.0000e+00
      0.725    22.5585     8.3618     96.216  35.838258     37.667      7.354   212.6322     4.1003     1.3333     0.0241      0.086      0.711      1.031        334 2.1771e+02 0.0000e+00
      0.737    22.5577     8.0325     92.397  35.821999     37.670      7.357   212.0644     4.0639     1.1991     0.0241      0.079      0.727      1.055        335 2.1648e+02 0.0000e+00
      0.764    22.5574     7.7054     88.611  35.891779     37.700      7.356   212.4429     4.1003     1.3602     0.0241      0.075      0.749      1.086        336 2.4115e+02 0.0000e+00
      0.788    22.5551     7.4054     85.147  35.781077     37.671      7.353   212.4429     4.0962     1.2662     0.0241      0.075      0.772      1.120        337 2.2982e+02 0.0000e+00
      0.810    22.5484     7.1389     82.076  35.870793     37.613      7.354   212.4429     4.0841     1.4139     0.0241      0.075      0.796      1.155        338 2.1246e+02 0.0000e+00
      0.839    22.5251     6.9474     79.876  35.750472     37.732      7.352   213.0865     4.0679     1.2125     0.0241      0.079      0.824      1.195        339 2.0209e+02 0.0000e+00
      0.871    22.4731     6.8177     78.380  36.227399     37.855      7.347   213.1622     4.1569     1.2662     0.0242      0.086      0.853      1.236        340 1.9338e+02 0.0000e+00
      0.897    22.4137     6.7715     77.828  38.154300     40.372      7.345   213.2758     4.1731     1.3333     0.0252      0.093      0.880      1.276        341 1.9076e+02 0.0000e+00
      0.924    22.3677     6.7778     77.876  38.632029     40.535      7.341   213.5030     4.1448     1.2662     0.0253      0.101      0.905      1.313        342 1.8663e+02 0.0000e+00
      0.948    22.3327     6.8142     78.263  38.598960     40.792      7.338   213.9951     4.1529     1.2662     0.0253      0.105      0.927      1.346        343 1.8900e+02 0.0000e+00
      0.965    22.3079     6.8607     78.765  39.115021     41.215      7.335   214.0330     4.2054     1.2931     0.0255      0.103      0.946      1.372        344 1.9117e+02 0.0000e+00
      0.981    22.2910     6.8871     79.027  39.472972     41.748      7.334   213.7301     4.1933     1.2393     0.0257      0.099      0.962      1.397        345 1.8834e+02 0.0000e+00
      0.999    22.2779     6.9042     79.164  39.903657     42.124      7.335   213.8437     4.2095     1.3065     0.0259      0.093      0.981      1.423        346 1.8739e+02 0.0000e+00
      1.021    22.2688     6.9127     79.203  40.180911     42.523      7.325   213.5030     4.1933     1.2259     0.0260      0.086      1.001      1.452        347 1.8649e+02 0.0000e+00
      1.043    22.2645     6.9104     79.115  40.195863     42.476      7.309   213.9951     4.1609     1.3468     0.0260      0.081      1.021      1.482        348 1.8554e+02 0.0000e+00
      1.060    22.2651     6.8820     78.751  40.152037     42.484      7.302   213.7301     4.1124     1.3065     0.0260      0.078      1.039      1.508        349 1.8612e+02 0.0000e+00
      1.077    22.2620     6.8120     77.929  40.116798     42.429      7.298   213.8437     4.1448     1.2796     0.0260      0.075      1.057      1.533        350 1.8663e+02 0.0000e+00
      1.097    22.2488     6.6636     76.208  40.121060     42.428      7.292   214.1465     4.1448     1.2931     0.0260      0.074      1.076      1.561        351 1.8179e+02 0.0000e+00
      1.118    22.2317     6.4775     74.057  40.146734     42.490      7.281   214.3358     4.1609     1.2528     0.0260      0.076      1.098      1.593        352 1.7240e+02 0.0000e+00
      1.145    22.2114     6.2638     71.593  40.144178     42.443      7.265   214.9794     4.0315     1.2796     0.0260      0.078      1.123      1.629        353 1.7159e+02 0.0000e+00
      1.172    22.1903     6.0543     69.194  40.242904     42.636      7.246   216.0015     4.0275     1.1856     0.0261      0.082      1.150      1.669        354 1.6755e+02 0.0000e+00
      1.203    22.1625     5.8672     67.066  40.261200     42.595      7.228   216.9101     4.0032     1.2931     0.0260      0.087      1.179      1.712        355 1.5838e+02 0.0000e+00
      1.235    22.1248     5.7066     65.202  40.240082     42.673      7.215   217.1751     4.0275     1.3602     0.0261      0.094      1.209      1.753        356 1.5509e+02 0.0000e+00
      1.258    22.0853     5.6315     64.298  40.209867     42.579      7.209   217.1751     3.9588     1.2393     0.0260      0.100      1.234      1.789        357 1.5221e+02 0.0000e+00
      1.281    22.0453     5.6110     64.057  39.972505     42.466      7.196   218.5380     3.9507     1.2662     0.0260      0.104      1.255      1.819        358 1.4733e+02 0.0000e+00
      1.299    22.0193     5.6361     64.346  39.645563     42.026      7.188   218.6894     3.9183     1.3199     0.0258      0.104      1.271      1.844        359 1.4658e+02 0.0000e+00
      1.309    22.0053     5.6603     64.622  39.578515     42.122      7.181   218.8408     3.9588     1.2528     0.0258      0.098      1.284      1.863        360 1.4530e+02 0.0000e+00
      1.323    21.9894     5.6550     64.550  39.433021     41.877      7.179   218.7651     3.7283     1.3871     0.0257      0.089      1.297      1.882        361 1.4052e+02 0.0000e+00
      1.337    21.9738     5.6480     64.453  39.500339     42.038      7.175   219.1058     3.7242     1.3333     0.0257      0.079      1.309      1.899        362 1.3743e+02 0.0000e+00
      1.344    21.9585     5.6333     64.270  39.643066     42.172      7.168   219.4087     3.7081     1.2931     0.0258      0.067      1.316      1.909        363 1.3764e+02 0.0000e+00
      1.346    21.9557     5.6175     64.067  39.581710     42.126      7.158   219.5980     3.7000     1.2796     0.0258      0.055      1.319      1.913        364 1.3655e+02 0.0000e+00
      1.345    21.9626     5.5913     63.746  39.695359     42.259      7.149   219.7494     3.7606     1.6556     0.0258      0.043      1.321      1.915        365 1.3380e+02 0.0000e+00
      1.349    21.9407     5.5537     63.285  39.798278     42.381      7.145   219.6358     3.7849     1.7899     0.0259      0.033      1.328      1.925        366 1.3151e+02 0.0000e+00
      1.367    21.9057     5.5268     62.928  39.750273     42.314      7.143   219.3708     3.7687     1.8167     0.0259      0.029      1.343      1.948        367 1.2706e+02 0.0000e+00
      1.391    21.8974     5.5476     63.120  39.695775     42.275      7.138   219.6358     3.7768     1.7093     0.0258      0.032      1.364      1.979        368 1.2386e+02 0.0000e+00
      1.415    21.9001     5.6090     63.762  39.688125     42.308      7.133   219.5980     3.6757     1.4810     0.0258      0.038      1.387      2.012        369 1.2066e+02 0.0000e+00
      1.437    21.8994     5.7208     64.968  39.700479     42.314      7.122   220.1280     3.6919     1.3602     0.0258      0.047      1.407      2.040        370 1.1917e+02 0.0000e+00
      1.452    21.8907     5.8643     66.542  39.680408     42.312      7.108   220.0901     3.7404     1.5616     0.0258      0.058      1.422      2.063        371 1.1860e+02 0.0000e+00
      1.464    21.8769     6.0639     68.764  39.653777     42.252      7.097   220.2794     3.7000     1.4945     0.0258      0.067      1.435      2.082        372 1.1600e+02 0.0000e+00
      1.474    21.8645     6.2820     71.209  39.674292     42.320      7.089   220.2415     3.7121     1.4408     0.0258      0.070      1.447      2.100        373 1.1400e+02 0.0000e+00
      1.491    21.8468     6.5121     73.793  39.654881     42.273      7.081   220.5444     3.7606     1.5213     0.0258      0.070      1.465      2.125        374 1.1186e+02 0.0000e+00
      1.518    21.8281     6.7238     76.163  39.737270     42.403      7.072   220.2794     3.7606     1.5213     0.0259      0.069      1.487      2.158        375 1.0990e+02 0.0000e+00
      1.540    21.8009     6.8986     78.103  39.868409     42.539      7.063   220.3930     3.7727     1.4810     0.0259      0.068      1.509      2.188        376 1.0728e+02 0.0000e+00
      1.556    21.7610     7.0333     79.586  39.936654     42.645      7.056   220.9608     3.7687     1.5616     0.0260      0.068      1.525      2.211        377 1.0524e+02 0.0000e+00
      1.567    21.7226     7.0876     80.167  39.948996     42.669      7.048   220.5823     3.3320     2.9178     0.0260      0.067      1.538      2.230        378 1.0354e+02 0.0000e+00
      1.580    21.6775     7.0197     79.370  39.971722     42.737      7.041   220.5444     3.3199     2.9178     0.0260      0.068      1.553      2.252        379 1.0139e+02 0.0000e+00
      1.604    21.6265     6.7922     76.778  39.938056     42.741      7.034   221.3773     3.2835     2.8910     0.0260      0.070      1.574      2.282        380 9.9260e+01 0.0000e+00
      1.632    21.5834     6.4470     72.854  39.812930     42.633      7.023   221.8694     3.3037     2.8507     0.0259      0.073      1.597      2.316        381 9.7642e+01 0.0000e+00
      1.649    21.5515     6.0263     68.066  39.801157     42.680      7.003   221.9830     3.0611     4.1398     0.0259      0.074      1.614      2.342        382 9.7049e+01 0.0000e+00
      1.657    21.5303     5.5834     63.042  39.804412     42.720      6.991   222.2858     3.0530     3.9786     0.0259      0.070      1.627      2.360        383 9.6056e+01 0.0000e+00
      1.671    21.5134     5.1879     58.557  39.868231     42.809      6.989   222.5130     3.0247     3.9652     0.0259      0.068      1.642      2.381        384 9.4224e+01 0.0000e+00
      1.695    21.4936     4.8436     54.640  39.988733     42.978      6.986   221.4908     3.0692     3.9249     0.0260      0.070      1.663      2.413        385 9.1860e+01 0.0000e+00
      1.722    21.4674     4.5677     51.493  40.010434     42.994      6.981   221.4530     2.9195     4.5963     0.0260      0.074      1.688      2.448        386 8.8770e+01 0.0000e+00
      1.745    21.4406     4.3570     49.089  39.930228     42.952      6.975   221.8694     2.9559     4.6366     0.0260      0.076      1.710      2.480        387 8.6446e+01 0.0000e+00
      1.762    21.4185     4.1855     47.139  39.762252     42.766      6.973   221.7937     2.9155     4.6098     0.0259      0.076      1.728      2.507        388 8.4062e+01 0.0000e+00
      1.779    21.4003     4.0637     45.750  39.626204     42.670      6.970   222.5130     2.9357     4.6366     0.0259      0.076      1.747      2.534        389 8.0671e+01 0.0000e+00
      1.802    21.3868     3.9467     44.416  39.476605     42.510      6.966   222.5130     2.6567     4.6232     0.0258      0.079      1.768      2.564        390 7.7186e+01 0.0000e+00
      1.826    21.3704     3.8363     43.156  39.384825     42.436      6.959   223.0051     2.6891     4.6635     0.0257      0.083      1.790      2.595        391 7.2965e+01 0.0000e+00
      1.846    21.3467     3.7111     41.730  39.384468     42.449      6.955   222.8915     2.6931     4.5963     0.0257      0.084      1.810      2.625        392 6.9539e+01 0.0000e+00
      1.864    21.3278     3.5818     40.258  39.269412     42.343      6.954   222.9673     2.6365     4.4889     0.0257      0.082      1.830      2.653        393 6.6658e+01 0.0000e+00
      1.886    21.3112     3.4305     38.539  39.172057     42.244      6.949   223.3080     2.6688     4.5695     0.0256      0.080      1.850      2.683        394 6.3088e+01 0.0000e+00
      1.910    21.2826     3.2919     36.968  39.149674     42.261      6.946   223.0051     2.5354     4.7977     0.0256      0.081      1.872      2.715        395 5.9756e+01 0.0000e+00
      1.931    21.2471     3.1478     35.338  38.852331     41.944      6.942   223.8001     2.5314     4.8112     0.0255      0.083      1.892      2.744        396 5.7630e+01 0.0000e+00
      1.947    21.2189     2.9857     33.507  38.533566     41.608      6.938   223.9894     2.5637     4.8380     0.0254      0.083      1.909      2.769        397 5.6327e+01 0.0000e+00
      1.962    21.1989     2.7972     31.380  38.419201     41.550      6.936   223.6487     2.5394     4.7977     0.0253      0.080      1.926      2.793        398 5.4531e+01 0.0000e+00
      1.983    21.1797     2.5461     28.553  38.282775     41.393      6.934   223.9894     2.7254     4.8917     0.0253      0.078      1.946      2.822        399 5.2598e+01 0.0000e+00
      2.007    21.1596     2.2587     25.319  38.169443     41.320      6.927   224.1787     2.7174     4.8112     0.0252      0.078      1.969      2.855        400 5.1047e+01 0.0000e+00
      2.032    21.1389     1.9319     21.645  38.115323     41.247      6.917   224.3680     2.7416     4.8783     0.0252      0.079      1.992      2.889        401 4.9506e+01 0.0000e+00
      2.055    21.1173     1.5935     17.844  38.083179     41.265      6.907   224.5573     2.7093     4.7843     0.0252      0.081      2.015      2.924        402 4.7875e+01 0.0000e+00
      2.080    21.0942     1.2643     14.153  37.912838     41.071      6.894   224.9358     2.5880     5.1737     0.0251      0.083      2.040      2.959        403 4.6117e+01 0.0000e+00
      2.106    21.0698     0.9187     10.281  37.793411     40.969      6.884   225.0494     2.6001     5.2140     0.0250      0.087      2.063      2.992        404 4.4860e+01 0.0000e+00
      2.124    21.0504     0.6224      6.963  37.846214     41.050      6.874   225.0116     2.6082     5.2677     0.0251      0.090      2.083      3.021        405 4.4280e+01 0.0000e+00
      2.141    21.0340     0.3675      4.108  38.025108     41.254      6.868   224.9358     2.6001     5.3752     0.0251      0.091      2.102      3.049        406 4.2846e+01 0.0000e+00
      2.166    21.0159     0.1744      1.949  38.193689     41.484      6.862   225.2766     2.1674     5.1872     0.0252      0.090      2.124      3.081        407 4.1151e+01 0.0000e+00
      2.191    20.9980     0.0448      0.501  38.111016     41.377      6.853   225.5794     2.1351     5.1872     0.0252      0.089      2.147      3.115        408 4.0044e+01 0.0000e+00
      2.211    20.9792    -0.0392     -0.438  38.098339     41.394      6.850   225.7687     2.1634     5.4154     0.0252      0.087      2.169      3.147        409 3.8701e+01 0.0000e+00
      2.236    20.9571    -0.0849     -0.947  38.150150     41.470      6.844   226.3366     2.1634     5.2274     0.0252      0.087      2.192      3.180        410 3.7230e+01 0.0000e+00
      2.260    20.9316    -0.0959     -1.069  38.254183     41.579      6.835   226.3744     2.1674     5.0797     0.0253      0.087      2.216      3.215        411 3.5719e+01 0.0000e+00
      2.285    20.9060    -0.0856     -0.953  38.799428     42.207      6.827   226.5258     2.1391     5.0932     0.0255      0.089      2.240      3.248        412 3.4298e+01 0.0000e+00
      2.306    20.8873    -0.0629     -0.700  39.192044     42.687      6.817   226.3744     2.1270     5.0126     0.0257      0.091      2.261      3.279        413 3.3179e+01 0.0000e+00
      2.325    20.8738    -0.0289     -0.321  39.070756     42.528      6.809   227.0180     2.1472     5.0126     0.0256      0.091      2.281      3.309        414 3.2017e+01 0.0000e+00
      2.346    20.8509    -0.0043     -0.048  38.653750     42.150      6.800   227.1694     2.1634     5.0126     0.0255      0.089      2.303      3.340        415 3.0614e+01 0.0000e+00
      2.372    20.8212     0.0286      0.318  38.672805     42.070      6.787   226.3366     2.1634     4.9320     0.0254      0.089      2.328      3.376        416 2.8842e+01 0.0000e+00
      2.403    20.7963     0.0505      0.562  39.907309     43.554      6.773   226.8287     2.1553     4.7440     0.0261      0.091      2.354      3.414        417 2.7272e+01 0.0000e+00
      2.425    20.7750     0.0750      0.834  41.745107     45.505      6.756   227.0937     2.1432     4.8246     0.0269      0.092      2.376      3.447        418 2.6257e+01 0.0000e+00
      2.442    20.7511     0.0978      1.087  43.001197     47.025      6.742   226.9423     2.1593     4.8380     0.0275      0.091      2.396      3.475        419 2.5220e+01 0.0000e+00
      2.463    20.7214     0.1103      1.227  43.061226     46.985      6.730   226.9044     2.1472     4.1264     0.0275      0.090      2.416      3.505        420 2.3806e+01 0.0000e+00
      2.487    20.6860     0.1301      1.447  42.441773     46.430      6.718   226.6394     2.1674     4.2606     0.0272      0.090      2.439      3.537        421 2.2485e+01 0.0000e+00
      2.509    20.6510     0.1373      1.527  41.754668     45.604      6.702   226.5637     2.1553     4.2203     0.0269      0.090      2.460      3.568        422 2.1622e+01 0.0000e+00
      2.528    20.6187     0.1466      1.630  41.335234     45.272      6.693   226.0716     2.1593     4.0861     0.0267      0.088      2.481      3.598        423 2.0509e+01 0.0000e+00
      2.555    20.5845     0.1564      1.740  42.044079     45.950      6.672   226.1094     2.2119     3.4012     0.0270      0.086      2.505      3.633        424 1.9210e+01 0.0000e+00
      2.581    20.5580     0.1672      1.859  44.403131     48.709      6.658   226.3744     2.2079     3.3207     0.0282      0.086      2.527      3.666        425 1.8347e+01 0.0000e+00
      2.596    20.5471     0.1678      1.867  46.083952     50.586      6.641   225.8066     2.1998     3.2535     0.0290      0.086      2.543      3.688        426 1.7826e+01 0.0000e+00
      2.602    20.5449     0.1723      1.918  45.708509     50.156      6.622   225.7687     2.2240     3.3072     0.0288      0.083      2.552      3.700        427 1.7260e+01 0.0000e+00
      2.608    20.5441     0.1703      1.896  45.374778     49.768      6.613   225.3523     2.2200     3.3207     0.0286      0.075      2.558      3.710        428 1.6546e+01 0.0000e+00
      2.615    20.5432     0.1731      1.927  45.727781     50.231      6.608   224.4058     2.2079     3.3207     0.0288      0.065      2.564      3.719        429 1.5913e+01 0.0000e+00
      2.620    20.5488     0.1732      1.929  45.536259     49.986      6.603   223.7244     2.2443     3.3744     0.0287      0.055      2.569      3.726        430 1.5572e+01 0.0000e+00
      2.623    20.5556     0.1778      1.980  45.049344     49.435      6.594   223.0051     2.2159     3.3878     0.0285      0.043      2.572      3.729        431 1.5390e+01 0.0000e+00
      2.623    20.5546     0.1748      1.947  44.968803     49.367      6.593   221.6423     2.2766     3.5892     0.0284      0.030      2.573      3.731        432 1.5190e+01 0.0000e+00
      2.624    20.5520     0.1791      1.995  44.983698     49.360      6.591   219.5223     2.2847     3.6564     0.0284      0.020      2.574      3.733        433 1.4927e+01 0.0000e+00
      2.626    20.5564     0.1859      2.071  44.912118     49.300      6.590   217.2508     2.3009     3.5490     0.0284      0.015      2.575      3.735        434 1.4704e+01 0.0000e+00
      2.627    20.5658     0.1892      2.109  44.701821     49.057      6.587   215.1308     2.2726     3.6295     0.0283      0.012      2.576      3.737        435 1.4615e+01 0.0000e+00
      2.627    20.5794     0.1968      2.194  44.266248     48.592      6.583   213.5787     2.3453     3.5758     0.0281      0.008      2.576      3.737        436 1.4632e+01 0.0000e+00
      2.626    20.5942     0.2054      2.290  43.644247     47.876      6.582   212.9729     2.3292     3.5355     0.0278      0.005      2.576      3.737        437 1.4549e+01 0.0000e+00
      2.627    20.6047     0.2115      2.359  43.280270     47.464      6.578   211.9508     2.3251     3.5221     0.0276      0.003      2.577      3.738        438 1.4197e+01 0.0000e+00
      2.630    20.6137     0.2210      2.464  43.206032     47.386      6.574   209.7551     2.3656     3.6429     0.0276      0.003      2.579      3.741        439 1.3976e+01 0.0000e+00
      2.633    20.6192     0.2250      2.509  43.232242     47.376      6.572   209.7551     2.3736     3.5892     0.0276      0.004      2.581      3.743        440 1.3923e+01 0.0000e+00
      2.633    20.6218 -9.990e-29 -9.990e-29  43.128968     47.304      6.570   209.1115     2.2362     4.0189     0.0276      0.004      2.582      3.744        441 1.3891e+01 0.0000e+00
      2.633    20.6265 -9.990e-29 -9.990e-29  43.067527     47.146      6.569   208.9601     2.2079     3.9249     0.0275      0.004      2.582      3.744        442 1.3896e+01 0.0000e+00
      2.632    20.6355 -9.990e-29 -9.990e-29  43.160355     47.358      6.567   209.0737     2.2321     3.9786     0.0276      0.004      2.582      3.745        443 1.3835e+01 0.0000e+00
      2.634    20.6483 -9.990e-29 -9.990e-29  42.894769     46.955      6.565   208.2029     2.2321     3.9921     0.0274      0.004      2.583      3.746        444 1.3762e+01 0.0000e+00
      2.635    20.6598 -9.990e-29 -9.990e-29  42.893667     47.007      6.563   207.3322     2.2766     4.1532     0.0275      0.004      2.584      3.748        445 1.3581e+01 0.0000e+00
      2.636    20.6713 -9.990e-29 -9.990e-29  43.221058     47.331      6.564   206.2722     2.2685     4.2338     0.0276      0.003      2.585      3.749        446 1.3515e+01 0.0000e+00
      2.636    20.6797 -9.990e-29 -9.990e-29  43.051042     47.165      6.560   204.9851     2.2968     4.2069     0.0275      0.003      2.585      3.749        447 1.3646e+01 0.0000e+00
      2.636    20.6856 -9.990e-29 -9.990e-29  42.838219     46.848      6.558   204.1522     2.2968     4.1801     0.0274      0.002      2.585      3.749        448 1.3593e+01 0.0000e+00
      2.637    20.6899 -9.990e-29 -9.990e-29  42.744181     46.838      6.554   203.7358     2.2968     5.7243     0.0274      0.002      2.585      3.750        449 1.3568e+01 0.0000e+00
      2.636    20.6901 -9.990e-29 -9.990e-29  42.663697     46.619      6.553   202.9408     2.2847     5.6571     0.0273      0.002      2.585      3.750        450 1.3678e+01 0.0000e+00
      2.637 -9.990e-29 -9.990e-29 -9.990e-29  42.760366     46.858      6.552   202.4865     2.2766     5.6169     0.0274      0.002      2.586      3.750        451 1.3630e+01 0.0000e+00
      2.637 -9.990e-29 -9.990e-29 -9.990e-29  42.801887     46.768      6.547   202.1458     2.2928     5.7377     0.0274      0.001      2.586      3.750        452 1.3539e+01 0.0000e+00
