* Sea-Bird SBE19plus  Data File:
* FileName = C:\DATA\100818_fcr_0004.hex
* Software version 2.6.3.104
* Temperature SN = 7809
* Conductivity SN = 7809
* System UpLoad Time = Oct 08 2018 14:57:46
* <ApplicationData>
* <Seaterm232>
* <SoftwareVersion>2.6.3.104</SoftwareVersion>
* <BuildDate>30-Jun-2017</BuildDate>
* </Seaterm232>
* </ApplicationData>
* <InstrumentState>
* <HardwareData DeviceType='SBE19plus' SerialNumber='01907809'>
*
*    <Manufacturer>Sea-Bird Electronics, Inc.</Manufacturer>
*
*    <FirmwareVersion>3.1.8</FirmwareVersion>
*
*    <FirmwareDate>Mar  9 2016 16:22:29</FirmwareDate>
*
*    <CommandSetVersion>1.4</CommandSetVersion>
*
*    <PCBAssembly PCBSerialNum='120721' AssemblyNum='41054J'/>
*
*    <PCBAssembly PCBSerialNum='120715' AssemblyNum='41967A'/>
*
*    <PCBAssembly PCBSerialNum='116699' AssemblyNum='41606'/>
*
*    <PCBAssembly PCBSerialNum='120719' AssemblyNum='41059D'/>
*
*    <MfgDate>28-Apr-2017</MfgDate>
*
*    <InternalSensors>
*
*       <Sensor id='Main Temperature'>
*
*          <type>temperature0</type>
*
*          <SerialNumber>01907809</SerialNumber>
*
*       </Sensor>
*
*       <Sensor id='Main Conductivity'>
*
*          <type>conductivity-0</type>
*
*          <SerialNumber>01907809</SerialNumber>
*
*       </Sensor>
*
*       <Sensor id='Main Pressure'>
*
*          <type>strain-0</type>
*
*          <SerialNumber>10586018</SerialNumber>
*
*       </Sensor>
*
*    </InternalSensors>
*
*    <ExternalSensors>
*
*       <Sensor id='volt 0'>
*
*          <type>pH</type>
*
*          <SerialNumber>27-0363</SerialNumber>
*
*       </Sensor>
*
*       <Sensor id='volt 1'>
*
*          <type>ORP</type>
*
*          <SerialNumber>27-0363</SerialNumber>
*
*       </Sensor>
*
*       <Sensor id='volt 2'>
*
*          <type>OXY</type>
*
*          <SerialNumber>43-0434</SerialNumber>
*
*       </Sensor>
*
*       <Sensor id='volt 3'>
*
*          <type>PAR</type>
*
*          <SerialNumber>1122</SerialNumber>
*
*       </Sensor>
*
*       <Sensor id='volt 4'>
*
*          <type>ECO AFL/FL</type>
*
*          <SerialNumber>FLNTURT-2496</SerialNumber>
*
*       </Sensor>
*
*       <Sensor id='volt 5'>
*
*          <type>ECO-NTU</type>
*
*          <SerialNumber>FLNTURT-2496</SerialNumber>
*
*       </Sensor>
*
*       <Sensor id='serial'>
*
*          <type>not assigned</type>
*
*          <SerialNumber>not assigned</SerialNumber>
*
*       </Sensor>
*
*    </ExternalSensors>
*
* </HardwareData>
* <StatusData DeviceType='SBE19plus' SerialNumber='01907809'>
*
*    <DateTime>2018-10-08T18:56:32</DateTime>
*
*    <LoggingState>not logging</LoggingState>
*
*    <EventSummary numEvents='0'/>
*
*    <Power>
*
*       <vMain>12.4</vMain>
*
*       <vLith>8.8</vLith>
*
*       <iMain>63.2</iMain>
*
*       <iPump>50.0</iPump>
*
*       <iExt01>13.7</iExt01>
*
*       <iExt2345>43.2</iExt2345>
*
*    </Power>
*
*    <MemorySummary>
*
*       <Bytes>65366</Bytes>
*
*       <Samples>2842</Samples>
*
*       <SamplesFree>2857946</SamplesFree>
*
*       <SampleLength>23</SampleLength>
*
*       <Profiles>5</Profiles>
*
*    </MemorySummary>
*
* </StatusData>
* <ConfigurationData DeviceType='SBE19plus' SerialNumber='01907809'>
*
*    <ProfileMode>
*
*       <ScansToAverage>1</ScansToAverage>
*
*       <MinimumCondFreq>5</MinimumCondFreq>
*
*       <PumpDelay>45</PumpDelay>
*
*       <AutoRun>no</AutoRun>
*
*       <IgnoreSwitch>no</IgnoreSwitch>
*
*    </ProfileMode>
*
*    <Battery>
*
*       <Type>alkaline</Type>
*
*       <CutOff>7.5</CutOff>
*
*    </Battery>
*
*    <DataChannels>
*
*       <ExtVolt0>yes</ExtVolt0>
*
*       <ExtVolt1>yes</ExtVolt1>
*
*       <ExtVolt2>yes</ExtVolt2>
*
*       <ExtVolt3>yes</ExtVolt3>
*
*       <ExtVolt4>yes</ExtVolt4>
*
*       <ExtVolt5>yes</ExtVolt5>
*
*       <SBE38>no</SBE38>
*
*       <WETLABS>no</WETLABS>
*
*       <OPTODE>no</OPTODE>
*
*       <SBE63>no</SBE63>
*
*       <SeaFET>no</SeaFET>
*
*       <GTD>no</GTD>
*
*    </DataChannels>
*
*    <EchoCharacters>yes</EchoCharacters>
*
*    <OutputExecutedTag>yes</OutputExecutedTag>
*
*    <OutputFormat>raw HEX</OutputFormat>
*
* </ConfigurationData>
* <CalibrationCoefficients DeviceType='SBE19plus' SerialNumber='01907809'>
*
*    <Calibration format='TEMP1' id='Main Temperature'>
*
*       <SerialNum>01907809</SerialNum>
*
*       <CalDate>09-Mar-18</CalDate>
*
*       <TA0>1.210932e-03</TA0>
*
*       <TA1>2.843566e-04</TA1>
*
*       <TA2>-1.945074e-06</TA2>
*
*       <TA3>2.128067e-07</TA3>
*
*       <TOFFSET>0.000000e+00</TOFFSET>
*
*    </Calibration>
*
*    <Calibration format='WBCOND0' id='Main Conductivity'>
*
*       <SerialNum>01907809</SerialNum>
*
*       <CalDate>09-Mar-18</CalDate>
*
*       <G>-1.006721e+00</G>
*
*       <H>1.269065e-01</H>
*
*       <I>-1.405844e-04</I>
*
*       <J>2.478371e-05</J>
*
*       <CPCOR>-9.570000e-08</CPCOR>
*
*       <CTCOR>3.250000e-06</CTCOR>
*
*       <CSLOPE>1.000000e+00</CSLOPE>
*
*    </Calibration>
*
*    <Calibration format='STRAIN0' id='Main Pressure'>
*
*       <SerialNum>10586018</SerialNum>
*
*       <CalDate>07-Mar-18</CalDate>
*
*       <PA0>-4.081764e-02</PA0>
*
*       <PA1>4.851884e-04</PA1>
*
*       <PA2>-3.511682e-12</PA2>
*
*       <PTCA0>5.252134e+05</PTCA0>
*
*       <PTCA1>1.795324e+00</PTCA1>
*
*       <PTCA2>-2.843535e-01</PTCA2>
*
*       <PTCB0>2.516687e+01</PTCB0>
*
*       <PTCB1>3.750000e-04</PTCB1>
*
*       <PTCB2>0.000000e+00</PTCB2>
*
*       <PTEMPA0>-5.378069e+01</PTEMPA0>
*
*       <PTEMPA1>5.366207e+01</PTEMPA1>
*
*       <PTEMPA2>4.872143e-02</PTEMPA2>
*
*       <POFFSET>5.000000e-01</POFFSET>
*
*       <PRANGE>1.600000e+02</PRANGE>
*
*    </Calibration>
*
*    <Calibration format='VOLT0' id='Volt 0'>
*
*       <OFFSET>-4.920000e-02</OFFSET>
*
*       <SLOPE>1.248122e+00</SLOPE>
*
*    </Calibration>
*
*    <Calibration format='VOLT0' id='Volt 1'>
*
*       <OFFSET>-4.784000e-02</OFFSET>
*
*       <SLOPE>1.248871e+00</SLOPE>
*
*    </Calibration>
*
*    <Calibration format='VOLT0' id='Volt 2'>
*
*       <OFFSET>-4.864632e-02</OFFSET>
*
*       <SLOPE>1.248714e+00</SLOPE>
*
*    </Calibration>
*
*    <Calibration format='VOLT0' id='Volt 3'>
*
*       <OFFSET>-4.743790e-02</OFFSET>
*
*       <SLOPE>1.248571e+00</SLOPE>
*
*    </Calibration>
*
*    <Calibration format='VOLT0' id='Volt 4'>
*
*       <OFFSET>-4.671263e-02</OFFSET>
*
*       <SLOPE>1.248951e+00</SLOPE>
*
*    </Calibration>
*
*    <Calibration format='VOLT0' id='Volt 5'>
*
*       <OFFSET>-4.871053e-02</OFFSET>
*
*       <SLOPE>1.249136e+00</SLOPE>
*
*    </Calibration>
*
*    <Calibration format='FREQ0' id='external frequency channel'>
*
*       <EXTFREQSF>1.000014e+00</EXTFREQSF>
*
*    </Calibration>
*
* </CalibrationCoefficients>
* <EventCounters DeviceType='SBE19plus' SerialNumber='01907809'>
*
*    <EventSummary numEvents='0'/>
*
* </EventCounters></InstrumentState>
* <Headers>
*
* cast   4 08 Oct 2018 15:07:43 samples 1515 to 2114, avg = 1, stop = mag switch
*
# nquan = 17
# nvalues = 520                         
# units = specified
# name 0 = depFM: Depth [fresh water, m]
# name 1 = tv290C: Temperature [ITS-90, deg C]
# name 2 = sbeox0Mg/L: Oxygen, SBE 43 [mg/l]
# name 3 = sbeox0PS: Oxygen, SBE 43 [% saturation]
# name 4 = c0uS/cm: Conductivity [uS/cm]
# name 5 = specc: Specific Conductance [uS/cm]
# name 6 = ph: pH
# name 7 = orp: Oxidation Reduction Potential [mV]
# name 8 = flECO-AFL: Fluorescence, WET Labs ECO-AFL/FL [mg/m^3]
# name 9 = turbWETntu0: Turbidity, WET Labs ECO [NTU]
# name 10 = sal00: Salinity, Practical [PSU]
# name 11 = dz/dtM: Descent Rate [m/s]
# name 12 = prdM: Pressure, Strain Gauge [db]
# name 13 = prdE: Pressure, Strain Gauge [psi]
# name 14 = scan: Scan Count
# name 15 = par/sat/log: PAR/Logarithmic, Satlantic
# name 16 = flag:  0.000e+00
# span 0 =     -0.466,      7.607       
# span 1 =    14.0114,    23.6111       
# span 2 =     0.0760,     9.5064       
# span 3 =      0.836,    111.527       
# span 4 =   0.945380,  96.766066       
# span 5 =      0.954,    124.085       
# span 6 =      6.201,      7.884       
# span 7 =    41.1767,   214.9037       
# span 8 =    -0.1941,     7.3190       
# span 9 =    -0.2377,    96.9940       
# span 10 =     0.0113,     0.0598      
# span 11 =     -0.169,      0.241      
# span 12 =     -0.456,      7.459      
# span 13 =     -0.662,     10.819      
# span 14 =          1,        520      
# span 15 = 1.2339e-01, 4.4405e+02      
# span 16 = 0.0000e+00, 0.0000e+00      
# interval = seconds: 0.25
# start_time = Oct 08 2018 15:07:43 [Instrument's time stamp, header]
# bad_flag = -9.990e-29
# <Sensors count="9" >
#   <sensor Channel="1" >
#     <!-- Count, Temperature -->
#     <TemperatureSensor SensorID="58" >
#       <SerialNumber>7809</SerialNumber>
#       <CalibrationDate>09-Mar-18</CalibrationDate>
#       <A0>1.21093245e-003</A0>
#       <A1>2.84356597e-004</A1>
#       <A2>-1.94507398e-006</A2>
#       <A3>2.12806664e-007</A3>
#       <Slope>1.00000000</Slope>
#       <Offset>0.0000</Offset>
#     </TemperatureSensor>
#   </sensor>
#   <sensor Channel="2" >
#     <!-- Frequency 0, Conductivity -->
#     <ConductivitySensor SensorID="3" >
#       <SerialNumber>7809</SerialNumber>
#       <CalibrationDate>09-Mar-18</CalibrationDate>
#       <UseG_J>1</UseG_J>
#       <!-- Cell const and series R are applicable only for wide range sensors. -->
#       <SeriesR>0.0000</SeriesR>
#       <CellConst>2000.0000</CellConst>
#       <ConductivityType>0</ConductivityType>
#       <Coefficients equation="0" >
#         <A>0.00000000e+000</A>
#         <B>0.00000000e+000</B>
#         <C>0.00000000e+000</C>
#         <D>0.00000000e+000</D>
#         <M>0.0</M>
#         <CPcor>-9.57000000e-008</CPcor>
#       </Coefficients>
#       <Coefficients equation="1" >
#         <G>-1.00672082e+000</G>
#         <H>1.26906489e-001</H>
#         <I>-1.40584351e-004</I>
#         <J>2.47837121e-005</J>
#         <CPcor>-9.57000000e-008</CPcor>
#         <CTcor>3.2500e-006</CTcor>
#         <!-- WBOTC not applicable unless ConductivityType = 1. -->
#         <WBOTC>0.00000000e+000</WBOTC>
#       </Coefficients>
#       <Slope>1.00000000</Slope>
#       <Offset>0.00000</Offset>
#     </ConductivitySensor>
#   </sensor>
#   <sensor Channel="3" >
#     <!-- Count, Pressure, Strain Gauge -->
#     <PressureSensor SensorID="46" >
#       <SerialNumber>7809</SerialNumber>
#       <CalibrationDate>07-Mar-18</CalibrationDate>
#       <PA0>-4.08176359e-002</PA0>
#       <PA1>4.85188419e-004</PA1>
#       <PA2>-3.51168169e-012</PA2>
#       <PTEMPA0>-5.37806900e+001</PTEMPA0>
#       <PTEMPA1>5.36620721e+001</PTEMPA1>
#       <PTEMPA2>4.87214332e-002</PTEMPA2>
#       <PTCA0>5.25213435e+005</PTCA0>
#       <PTCA1>1.79532409e+000</PTCA1>
#       <PTCA2>-2.84353509e-001</PTCA2>
#       <PTCB0>2.51668750e+001</PTCB0>
#       <PTCB1>3.75000000e-004</PTCB1>
#       <PTCB2>0.00000000e+000</PTCB2>
#       <Offset>0.000000</Offset>
#     </PressureSensor>
#   </sensor>
#   <sensor Channel="4" >
#     <!-- A/D voltage 0, pH -->
#     <pH_Sensor SensorID="43" >
#       <SerialNumber>0363</SerialNumber>
#       <CalibrationDate>16-Mar-18</CalibrationDate>
#       <Slope>4.6194</Slope>
#       <Offset>2.5947</Offset>
#     </pH_Sensor>
#   </sensor>
#   <sensor Channel="5" >
#     <!-- A/D voltage 1, Oxidation Reduction Potential -->
#     <OxidationReductionPotentialSensor SensorID="41" >
#       <SerialNumber>0363</SerialNumber>
#       <CalibrationDate>16-Mar-18</CalibrationDate>
#       <B>2.499480</B>
#       <M>-0.496195</M>
#       <Offset>0.0</Offset>
#     </OxidationReductionPotentialSensor>
#   </sensor>
#   <sensor Channel="6" >
#     <!-- A/D voltage 2, Oxygen, SBE 43 -->
#     <OxygenSensor SensorID="38" >
#       <SerialNumber>0434</SerialNumber>
#       <CalibrationDate>13-Mar-18</CalibrationDate>
#       <Use2007Equation>1</Use2007Equation>
#       <CalibrationCoefficients equation="0" >
#         <!-- Coefficients for Owens-Millard equation. -->
#         <Boc>0.0000</Boc>
#         <Soc>0.0000e+000</Soc>
#         <offset>0.0000</offset>
#         <Pcor>0.00e+000</Pcor>
#         <Tcor>0.0000</Tcor>
#         <Tau>0.0</Tau>
#       </CalibrationCoefficients>
#       <CalibrationCoefficients equation="1" >
#         <!-- Coefficients for Sea-Bird equation - SBE calibration in 2007 and later. -->
#         <Soc>4.5718e-001</Soc>
#         <offset>-0.6113</offset>
#         <A>-4.0649e-003</A>
#         <B> 2.0945e-004</B>
#         <C>-3.3182e-006</C>
#         <D0> 2.5826e+000</D0>
#         <D1> 1.92634e-004</D1>
#         <D2>-4.64803e-002</D2>
#         <E> 3.6000e-002</E>
#         <Tau20> 1.2200</Tau20>
#         <H1>-3.3000e-002</H1>
#         <H2> 5.0000e+003</H2>
#         <H3> 1.4500e+003</H3>
#       </CalibrationCoefficients>
#     </OxygenSensor>
#   </sensor>
#   <sensor Channel="7" >
#     <!-- A/D voltage 3, PAR/Logarithmic, Satlantic -->
#     <PARLog_SatlanticSensor SensorID="76" >
#       <SerialNumber>1122</SerialNumber>
#       <CalibrationDate>22-Jun-2017</CalibrationDate>
#       <a0>9.6090e-001</a0>
#       <a1>8.0780e-001</a1>
#       <Im>1.3589e+000</Im>
#       <Multiplier>1.0000e+000</Multiplier>
#     </PARLog_SatlanticSensor>
#   </sensor>
#   <sensor Channel="8" >
#     <!-- A/D voltage 4, Fluorometer, WET Labs ECO-AFL/FL -->
#     <FluoroWetlabECO_AFL_FL_Sensor SensorID="20" >
#       <SerialNumber>FLNTURT-2496</SerialNumber>
#       <CalibrationDate>25-Jan-2017</CalibrationDate>
#       <ScaleFactor>5.30000000e+001</ScaleFactor>
#       <!-- Dark output -->
#       <Vblank>0.0560</Vblank>
#     </FluoroWetlabECO_AFL_FL_Sensor>
#   </sensor>
#   <sensor Channel="9" >
#     <!-- A/D voltage 5, Turbidity Meter, WET Labs, ECO-NTU -->
#     <TurbidityMeter SensorID="67" >
#       <SerialNumber>FLNTURT-2496</SerialNumber>
#       <CalibrationDate>25-Jan-2017</CalibrationDate>
#       <ScaleFactor>176.000000</ScaleFactor>
#       <!-- Dark output -->
#       <DarkVoltage>0.072000</DarkVoltage>
#     </TurbidityMeter>
#   </sensor>
# </Sensors>
# datcnv_date = Oct 08 2018 15:09:29, 7.26.7.114 [datcnv_vars = 16]
# datcnv_in = C:\DATA\100818_fcr45.hex C:\DATA\SBE19plusV2_7809.xmlcon
# datcnv_skipover = 0
# datcnv_ox_hysteresis_correction = yes
# datcnv_ox_tau_correction = yes
# filter_date = Oct 08 2018 15:09:45, 7.26.7.114
# filter_in = C:\DATA\100818_fcr45.cnv
# filter_low_pass_tc_A = 0.030
# filter_low_pass_tc_B = 0.150
# filter_low_pass_A_vars = tv290C c0uS/cm par/sat/log
# filter_low_pass_B_vars = prdM prdE
# alignctd_date = Oct 08 2018 15:10:08, 7.26.7.114
# alignctd_in = C:\DATA\100818_fcr45.cnv
# alignctd_adv = tv290C 0.500, sbeox0Mg/L 3.000, sbeox0PS 3.000                                                                                                                                                                      
# file_type = ascii
*END*
     -0.465    23.6111     8.3608     98.594   0.945380      0.954      6.202   194.1200    -0.1334    -0.1303     0.0113      0.000     -0.456     -0.662          1 2.5485e+02 0.0000e+00
     -0.466    23.6105     8.3586     98.568   1.195778      1.241      6.205   192.9465    -0.1415    -0.1974     0.0114     -0.000     -0.456     -0.662          2 2.6984e+02 0.0000e+00
     -0.465    23.6098     8.3598     98.579   1.523594      1.557      6.223   191.1672    -0.1860    -0.1840     0.0114      0.000     -0.456     -0.662          3 3.1163e+02 0.0000e+00
     -0.465    23.6094     8.3582     98.559   1.721715      1.787      6.229   194.9908    -0.1779     0.2188     0.0114      0.000     -0.456     -0.662          4 2.7840e+02 0.0000e+00
     -0.465    23.6089     8.3588     98.565   1.748627      1.787      6.213   194.1579    -0.1455     0.2188     0.0114      0.000     -0.456     -0.662          5 1.8593e+02 0.0000e+00
     -0.465    23.6084     8.3590     98.566   1.667750      1.729      6.204   192.4165    -0.1577     0.2322     0.0114      0.000     -0.456     -0.662          6 1.6021e+02 0.0000e+00
     -0.466    23.6080     8.3614     98.593   1.644717      1.672      6.201   194.0822    -0.1617     0.1785     0.0114     -0.000     -0.456     -0.662          7 1.6291e+02 0.0000e+00
     -0.465    23.6073     8.3641     98.623   1.718075      1.787      6.206   214.9037    -0.1698     0.2322     0.0114     -0.000     -0.456     -0.662          8 1.5782e+02 0.0000e+00
     -0.465    23.6065     8.3626     98.604   1.694890      1.729      6.210   130.7849    -0.1698     0.2188     0.0114      0.000     -0.456     -0.662          9 1.5229e+02 0.0000e+00
     -0.465    23.6058     8.3637     98.599   1.673570      1.729      6.203   198.2465    -0.1941     0.2054     0.0114      0.000     -0.456     -0.662         10 1.2845e+02 0.0000e+00
     -0.466    23.6050     8.3679     98.622   1.744606      1.787      6.205   198.3222    -0.1658     0.1651     0.0114     -0.000     -0.456     -0.662         11 1.2392e+02 0.0000e+00
     -0.465    23.6046     8.3759     98.698   1.784136      1.844      6.212   197.4893    -0.1334     0.1785     0.0114      0.000     -0.456     -0.662         12 1.3407e+02 0.0000e+00
     -0.465    23.6035     8.3847     98.789   1.683592      1.729      6.214   189.8043    -0.1617     0.1785     0.0114      0.000     -0.456     -0.662         13 1.4954e+02 0.0000e+00
     -0.465    23.6026     8.3949     98.902   1.692082      1.729      6.213   193.5900    -0.1658     0.2860     0.0114      0.000     -0.456     -0.662         14 2.0346e+02 0.0000e+00
     -0.465    23.6018     8.4100     99.070   1.832787      1.902      6.212   193.4386    -0.1819     0.1651     0.0114      0.000     -0.456     -0.662         15 2.4701e+02 0.0000e+00
     -0.465    23.6010     8.4327     99.333   1.804569      1.844      6.218   187.2679    -0.1415     0.2994     0.0114     -0.000     -0.456     -0.662         16 2.6003e+02 0.0000e+00
     -0.465    23.6000     8.4525     99.562   1.667984      1.730      6.215   192.4543    -0.1375    -0.1840     0.0114     -0.000     -0.456     -0.662         17 2.7045e+02 0.0000e+00
     -0.466    23.5997     8.4792     99.876   1.706684      1.730      6.218   196.7700    -0.1455    -0.2109     0.0114     -0.000     -0.456     -0.662         18 2.8995e+02 0.0000e+00
     -0.465    23.5984     8.4717     99.783   1.578760      1.672      6.220   197.7543    -0.1819    -0.1706     0.0114     -0.000     -0.455     -0.661         19 3.1807e+02 0.0000e+00
     -0.465    23.5874     8.4225     99.187   1.531105      1.500      6.221   199.3822    -0.1577    -0.1437     0.0114     -0.000     -0.448     -0.650         20 3.4313e+02 0.0000e+00
     -0.442    23.5713     8.3246     98.007   4.845468      4.887      6.306   212.9351    -0.1617    -0.2243     0.0121      0.006     -0.421     -0.610         21 3.7709e+02 0.0000e+00
     -0.377    23.5610     8.1835     96.322  18.542416     18.734      6.843   149.5242    -0.1698    -0.2377     0.0168      0.027     -0.368     -0.533         22 4.1407e+02 0.0000e+00
     -0.310    23.5548     8.0211     94.393  33.343590     35.044      7.422   140.3249    -0.1577    -0.1974     0.0233      0.061     -0.301     -0.436         23 4.3051e+02 0.0000e+00
     -0.232    23.5497     7.8390     92.243  36.158630     36.835      7.747   142.2177    -0.1253    -0.1034     0.0240      0.105     -0.229     -0.332         24 4.4105e+02 0.0000e+00
     -0.159    23.5454     7.6697     90.246  35.880624     37.185      7.884   133.0563     0.4287     6.3688     0.0242      0.152     -0.161     -0.234         25 4.4000e+02 0.0000e+00
     -0.102    23.5423     7.5175     88.435  36.447706     37.390      7.884   134.9492     0.4246     6.2480     0.0242      0.194     -0.106     -0.154         26 4.4405e+02 0.0000e+00
     -0.066    23.5403     7.3880     86.891  36.283351     37.452      7.855   128.8920     0.4125     6.2480     0.0243      0.222     -0.060     -0.087         27 4.1483e+02 0.0000e+00
     -0.012    23.5396     7.2903     85.734  36.470731     37.511      7.815   108.1841     0.4287     6.3151     0.0243      0.238     -0.009     -0.012         28 3.4801e+02 0.0000e+00
      0.053    23.5376     7.2478     85.242  36.392474     37.513      7.759   141.7256     0.4287     6.3822     0.0243      0.241      0.048      0.070         29 2.9347e+02 0.0000e+00
      0.105    23.5284     7.2841     85.680  36.499379     37.571      7.710   108.9034     2.4060     0.8634     0.0243      0.232      0.101      0.146         30 2.0204e+02 0.0000e+00
      0.149    23.5140     7.3458     86.417  36.485986     37.602      7.664   111.3262     2.3898     0.8634     0.0243      0.220      0.147      0.213         31 1.3463e+02 0.0000e+00
      0.195    23.5010     7.3931     86.982  36.438802     37.522      7.630   133.5106     2.4181     0.7962     0.0243      0.207      0.189      0.274         32 1.2129e+02 0.0000e+00
      0.234    23.4913     7.4105     87.192  36.409808     37.534      7.586   133.2834     2.3939     0.9036     0.0243      0.197      0.222      0.322         33 1.3068e+02 0.0000e+00
      0.248    23.4874     7.4109     87.200  36.373779     37.486      7.542   128.7784     2.5435     0.9842     0.0243      0.184      0.240      0.348         34 1.3450e+02 0.0000e+00
      0.253    23.4839     7.3890     86.946  36.365009     37.493      7.517   132.7156     2.5394     0.8768     0.0243      0.164      0.247      0.357         35 1.3525e+02 0.0000e+00
      0.252    23.4724     7.3432     86.414  36.391069     37.525      7.504   133.7377     2.5718     0.8634     0.0243      0.133      0.247      0.358         36 1.3917e+02 0.0000e+00
      0.249    23.4596     7.2843     85.726  36.371011     37.499      7.500   134.9492     2.5475     0.7962     0.0243      0.097      0.243      0.353         37 1.3144e+02 0.0000e+00
      0.242    23.4549     7.2298     85.087  36.360314     37.508      7.501   134.9870     2.5394     0.8768     0.0243      0.064      0.237      0.344         38 1.3709e+02 0.0000e+00
      0.234    23.4595     7.1695     84.380  36.374725     37.518      7.503   134.7220     2.5354     0.7694     0.0243      0.034      0.232      0.336         39 1.3265e+02 0.0000e+00
      0.233    23.4670     7.1135     83.724  36.412399     37.579      7.504   137.2963     2.5192     0.8768     0.0243      0.009      0.228      0.331         40 1.3194e+02 0.0000e+00
      0.229    23.4735     7.0479     82.954  36.432068     37.576      7.507   136.6149     2.5314     0.8231     0.0243     -0.007      0.225      0.327         41 1.4328e+02 0.0000e+00
      0.227    23.4785     6.9825     82.188  36.439224     37.599      7.502   117.9512     2.4545     0.9171     0.0243     -0.014      0.225      0.327         42 1.3127e+02 0.0000e+00
      0.233    23.4819     6.9458     81.757  36.433150     37.565      7.504   137.9020     2.4950     0.9036     0.0243     -0.013      0.229      0.332         43 1.2955e+02 0.0000e+00
      0.241    23.4840     6.9216     81.472  36.469282     37.619      7.502   137.5613     2.4747     0.8634     0.0243     -0.008      0.235      0.341         44 1.3243e+02 0.0000e+00
      0.245    23.4862     6.9144     81.385  36.483233     37.616      7.496   136.6149     2.4747     0.9976     0.0243     -0.002      0.240      0.348         45 1.1573e+02 0.0000e+00
      0.248    23.4899     6.9477     81.775  36.475106     37.614      7.492   136.5392     2.4626     0.8902     0.0243      0.005      0.244      0.354         46 1.1720e+02 0.0000e+00
      0.254    23.4933     7.0006     82.396  36.538715     37.670      7.490   137.5613     2.4828     0.8499     0.0243      0.011      0.248      0.359         47 1.2654e+02 0.0000e+00
      0.257    23.4952     7.0561     83.050  36.611687     37.754      7.491   136.7663     2.4869     0.8902     0.0244      0.015      0.251      0.363         48 1.1738e+02 0.0000e+00
      0.256    23.4967     7.1230     83.840  36.680885     37.809      7.489   136.6906     2.4545     0.8768     0.0244      0.016      0.251      0.363         49 1.1913e+02 0.0000e+00
      0.255    23.4983     7.1687     84.382  36.778851     37.923      7.487   136.0092     2.4545     0.8499     0.0245      0.014      0.250      0.362         50 1.3475e+02 0.0000e+00
      0.253    23.5001     7.2104     84.880  36.845683     37.979      7.484   133.8892     2.5394     0.9036     0.0245      0.010      0.249      0.361         51 1.2176e+02 0.0000e+00
      0.255    23.5019     7.2349     85.179  36.953630     38.093      7.481   130.1034     2.5637     0.8634     0.0245      0.006      0.250      0.363         52 1.1370e+02 0.0000e+00
      0.258    23.5027     7.2493     85.359  37.148731     38.293      7.475   140.1735     2.5314     0.9171     0.0246      0.004      0.251      0.365         53 1.1556e+02 0.0000e+00
      0.255    23.5023     7.2422     85.285  37.196081     38.350      7.472   138.3563     2.5718     0.8365     0.0246      0.002      0.249      0.362         54 1.1700e+02 0.0000e+00
      0.249    23.5012     7.2388     85.250  37.220962     38.349      7.470   123.3648     2.5556     0.8634     0.0246     -0.001      0.248      0.359         55 1.2317e+02 0.0000e+00
      0.252    23.5002     7.2427     85.301  37.414370     38.580      7.473   122.2291     2.5314     0.9708     0.0247     -0.002      0.250      0.362         56 1.1060e+02 0.0000e+00
      0.261    23.4995     7.2557     85.459  37.489277     38.638      7.462   121.8884     2.5435     0.8097     0.0247      0.001      0.253      0.367         57 1.1342e+02 0.0000e+00
      0.259    23.4998     7.2758     85.700  37.483670     38.639      7.463   139.1135     2.5394     0.8097     0.0247      0.002      0.253      0.367         58 1.2291e+02 0.0000e+00
      0.253    23.5011     7.2855     85.816  37.480670     38.639      7.462   138.6213     2.5394     0.8768     0.0247      0.001      0.248      0.361         59 1.2043e+02 0.0000e+00
      0.249    23.5035     7.2910     85.881  37.493009     38.639      7.460   129.6870     2.5394     0.8231     0.0247     -0.001      0.243      0.354         60 1.2806e+02 0.0000e+00
      0.243    23.5082     7.2779     85.726  37.675939     38.840      7.456   140.7413     2.5435     0.8634     0.0248     -0.004      0.238      0.346         61 1.3754e+02 0.0000e+00
      0.236    23.5147     7.2488     85.380  37.846233     39.011      7.446   128.8920     2.5273     0.9976     0.0249     -0.007      0.233      0.338         62 1.3441e+02 0.0000e+00
      0.234    23.5215     7.1923     84.712  38.052266     39.209      7.440   138.6970     2.5314     0.9036     0.0250     -0.010      0.231      0.335         63 1.2991e+02 0.0000e+00
      0.237    23.5270     7.1308     83.986  38.279713     39.463      7.448   141.2713     2.5233     0.8365     0.0251     -0.013      0.233      0.337         64 1.3189e+02 0.0000e+00
      0.240    23.5306     7.0784     83.367  38.334378     39.486      7.450   141.5363     2.5273     0.8768     0.0251     -0.013      0.235      0.341         65 1.2467e+02 0.0000e+00
      0.242    23.5337     7.0448     82.969  38.369834     39.539      7.452   142.2935     2.5637     0.8902     0.0251     -0.009      0.237      0.344         66 1.2470e+02 0.0000e+00
      0.243    23.5365     7.0339     82.839  38.383895     39.536      7.456   142.0285     2.6324     0.7828     0.0251     -0.004      0.238      0.346         67 1.2921e+02 0.0000e+00
      0.244    23.5390     7.0553     83.090  38.376203     39.534      7.458   142.5963     2.5920     0.8634     0.0251     -0.000      0.238      0.346         68 1.1181e+02 0.0000e+00
      0.243    23.5403     7.0870     83.463  38.438730     39.589      7.460   143.5806     2.5880     0.8634     0.0252      0.003      0.237      0.345         69 1.1700e+02 0.0000e+00
      0.241    23.5405     7.1163     83.807  38.543375     39.702      7.460   143.7320     2.5920     0.7962     0.0252      0.004      0.236      0.343         70 1.3779e+02 0.0000e+00
      0.240    23.5399     7.1434     84.127  38.631580     39.787      7.461   144.1485     2.6244     0.8499     0.0252      0.003      0.236      0.342         71 1.2731e+02 0.0000e+00
      0.240    23.5383     7.1542     84.252  38.625583     39.787      7.461   144.2620     2.5758     0.8902     0.0252      0.001      0.236      0.342         72 1.2720e+02 0.0000e+00
      0.242    23.5366     7.1439     84.130  38.580500     39.730      7.462   144.3756     2.6082     0.7828     0.0252     -0.001      0.237      0.344         73 1.3640e+02 0.0000e+00
      0.244    23.5354     7.1341     84.012  38.569036     39.732      7.462   143.6563     2.6082     0.8499     0.0252     -0.000      0.239      0.348         74 1.1881e+02 0.0000e+00
      0.246    23.5338     7.1096     83.721  38.550864     39.704      7.461   143.9213     2.6001     0.8634     0.0252      0.001      0.241      0.350         75 1.1587e+02 0.0000e+00
      0.248    23.5324     7.0797     83.368  38.514130     39.676      7.462   143.9970     2.6203     0.8365     0.0252      0.002      0.243      0.352         76 1.3597e+02 0.0000e+00
      0.248    23.5315     7.0503     83.021  38.525766     39.678      7.460   143.3535     2.6203     0.8902     0.0252      0.004      0.243      0.353         77 1.1779e+02 0.0000e+00
      0.249    23.5306     7.0190     82.653  38.566046     39.736      7.460   145.0192     2.5718     0.8097     0.0252      0.005      0.244      0.354         78 1.0491e+02 0.0000e+00
      0.249    23.5302     6.9866     82.272  38.582651     39.737      7.459   145.6628     2.5758     0.9439     0.0252      0.005      0.244      0.354         79 1.4006e+02 0.0000e+00
      0.250    23.5299     6.9548     81.898  38.594088     39.767      7.459   145.8520     2.6446     0.8902     0.0252      0.005      0.244      0.354         80 1.2898e+02 0.0000e+00
      0.249    23.5299     6.9144     81.421  38.581476     39.738      7.457   146.0035     2.6769     0.8902     0.0252      0.003      0.244      0.354         81 1.0204e+02 0.0000e+00
      0.249    23.5297     6.8733     80.938  38.568684     39.738      7.457   146.2306     2.6446     0.8902     0.0252      0.002      0.244      0.355         82 1.3019e+02 0.0000e+00
      0.250    23.5289     6.8319     80.451  38.580345     39.738      7.454   146.8742     2.6769     0.7559     0.0252      0.001      0.245      0.356         83 1.3304e+02 0.0000e+00
      0.252    23.5274     6.7882     79.937  38.566965     39.739      7.454   145.5113     2.6729     0.8365     0.0252      0.002      0.246      0.357         84 1.1246e+02 0.0000e+00
      0.251    23.5259     6.7503     79.492  38.585335     39.739      7.454   145.9278     2.6607     0.8365     0.0252      0.002      0.246      0.357         85 1.2648e+02 0.0000e+00
      0.252    23.5250     6.7080     78.994  38.646470     39.827      7.453   147.8963     2.6891     0.8902     0.0252      0.001      0.247      0.358         86 1.2698e+02 0.0000e+00
      0.253    23.5247     6.6702     78.548  38.639197     39.799      7.454   148.0099     2.6648     0.8097     0.0252      0.002      0.248      0.359         87 1.1301e+02 0.0000e+00
      0.253    23.5249     6.6316     78.093  38.624049     39.800      7.455   148.5778     2.6729     0.7559     0.0252      0.002      0.248      0.360         88 1.2425e+02 0.0000e+00
      0.253    23.5252     6.5932     77.642  38.635660     39.800      7.451   149.0321     2.6810     0.8768     0.0252      0.002      0.248      0.360         89 1.1070e+02 0.0000e+00
      0.252    23.5250     6.5427     77.047  38.565425     39.742      7.452   149.0699     2.6810     0.9708     0.0252      0.002      0.247      0.358         90 1.1072e+02 0.0000e+00
      0.249    23.5251     6.4960     76.497  38.503818     39.656      7.453   147.8206     2.6769     0.8634     0.0252      0.000      0.245      0.355         91 1.3305e+02 0.0000e+00
      0.247    23.5254     6.4452     75.898  38.564016     39.742      7.454   149.5242     2.6769     0.8634     0.0252     -0.001      0.243      0.352         92 1.1540e+02 0.0000e+00
      0.246    23.5256     6.3876     75.219  38.638821     39.800      7.455   149.9406     2.6648     0.9171     0.0252     -0.003      0.242      0.351         93 1.2306e+02 0.0000e+00
      0.246    23.5260     6.3405     74.665  38.677686     39.857      7.457   150.0163     2.6607     0.8365     0.0253     -0.004      0.242      0.351         94 1.3692e+02 0.0000e+00
      0.248    23.5266     6.2804     73.956  38.634298     39.799      7.460   149.7135     2.6486     0.8634     0.0252     -0.004      0.243      0.353         95 1.2171e+02 0.0000e+00
      0.250    23.5269     6.2327     73.394  38.633491     39.799      7.460   150.6599     2.6527     0.8231     0.0252     -0.003      0.245      0.355         96 1.2668e+02 0.0000e+00
      0.251    23.5269     6.1897     72.888  38.649028     39.827      7.460   151.2278     2.6810     0.7962     0.0252     -0.001      0.246      0.357         97 1.2747e+02 0.0000e+00
      0.251    23.5267     6.1482     72.399  38.585300     39.741      7.460   151.7956     2.6527     0.8634     0.0252      0.000      0.246      0.357         98 1.1553e+02 0.0000e+00
      0.251    23.5265     6.1124     71.978  38.623812     39.798      7.461   151.9849     2.6688     0.8365     0.0252      0.002      0.246      0.357         99 1.2097e+02 0.0000e+00
      0.251    23.5264     6.0704     71.483  38.630762     39.799      7.460   152.3256     2.6688     0.8902     0.0252      0.003      0.246      0.357        100 1.1825e+02 0.0000e+00
      0.251    23.5263     6.0339     71.054  38.576651     39.741      7.459   152.0606     2.6527     0.9036     0.0252      0.002      0.245      0.356        101 1.1443e+02 0.0000e+00
      0.249    23.5259     5.9969     70.617  38.602167     39.770      7.463   152.0228     2.6527     0.9171     0.0252      0.001      0.244      0.354        102 1.3378e+02 0.0000e+00
      0.248    23.5258     5.9604     70.187  38.628670     39.799      7.464   152.1742     2.6688     0.8768     0.0252     -0.000      0.244      0.353        103 1.3091e+02 0.0000e+00
      0.249    23.5257     5.9188     69.698  38.632655     39.799      7.462   152.9313     2.6769     0.8634     0.0252     -0.001      0.244      0.353        104 1.1893e+02 0.0000e+00
      0.249    23.5256     5.8863     69.314  38.626870     39.799      7.457   152.9313     2.6527     0.7291     0.0252     -0.002      0.244      0.353        105 1.2930e+02 0.0000e+00
      0.248    23.5257     5.8491     68.877  38.635868     39.799      7.452   153.7642     2.6769     0.8634     0.0252     -0.002      0.243      0.353        106 1.1512e+02 0.0000e+00
      0.248    23.5256     5.8192     68.524  38.651119     39.828      7.444   153.8399     2.6769     0.8097     0.0252     -0.002      0.243      0.353        107 1.0534e+02 0.0000e+00
      0.249    23.5255     5.7907     68.187  38.637553     39.799      7.442   153.8399     2.6688     0.9036     0.0252     -0.001      0.244      0.354        108 1.2240e+02 0.0000e+00
      0.250    23.5253     5.7610     67.837  38.623088     39.799      7.439   153.9914     2.7497     0.8634     0.0252     -0.000      0.245      0.355        109 1.1630e+02 0.0000e+00
      0.251    23.5253     5.7331     67.510  38.580134     39.742      7.437   154.2942     2.7295     0.8365     0.0252      0.001      0.245      0.356        110 1.1284e+02 0.0000e+00
      0.250    23.5252     5.7001     67.121  38.572360     39.742      7.436   155.1271     2.7295     0.8365     0.0252      0.001      0.244      0.354        111 1.1962e+02 0.0000e+00
      0.247    23.5250     5.6767     66.845  38.573438     39.742      7.436   154.8621     2.7457     0.9305     0.0252      0.000      0.243      0.352        112 1.0819e+02 0.0000e+00
      0.246    23.5249     5.6502     66.532  38.549131     39.713      7.434   155.0135     2.7335     0.8499     0.0252     -0.001      0.241      0.350        113 1.1257e+02 0.0000e+00
      0.244    23.5246     5.6212     66.191  38.572948     39.742      7.434   154.8242     2.7497     0.9708     0.0252     -0.002      0.240      0.349        114 1.2961e+02 0.0000e+00
      0.245    23.5244     5.5979     65.917  38.573461     39.742      7.435   155.2028     2.7174     0.8499     0.0252     -0.002      0.241      0.349        115 1.1553e+02 0.0000e+00
      0.246    23.5244     5.5701     65.589  38.578156     39.743      7.438   155.1649     2.7295     0.8365     0.0252     -0.003      0.242      0.351        116 1.1067e+02 0.0000e+00
      0.249    23.5243     5.5466     65.312  38.567105     39.743      7.441   155.7328     2.7457     0.8365     0.0252     -0.002      0.244      0.353        117 1.3055e+02 0.0000e+00
      0.248    23.5238     5.5182     64.978  38.557549     39.714      7.443   156.0735     2.7538     0.8365     0.0252     -0.001      0.244      0.353        118 1.1682e+02 0.0000e+00
      0.249    23.5237     5.4987     64.747  38.560386     39.743      7.444   156.0735     2.7416     0.8231     0.0252      0.001      0.244      0.353        119 1.0211e+02 0.0000e+00
      0.248    23.5237     5.4809     64.538  38.533914     39.686      7.445   156.2628     2.7416     0.8231     0.0252      0.002      0.243      0.352        120 1.1928e+02 0.0000e+00
      0.247    23.5235     5.4597     64.289  38.560831     39.743      7.442   155.9978     2.7174     0.8634     0.0252      0.002      0.242      0.351        121 1.2510e+02 0.0000e+00
      0.247    23.5232     5.4420     64.080  38.526888     39.686      7.443   156.0735     2.7497     0.8902     0.0252      0.001      0.241      0.350        122 1.2587e+02 0.0000e+00
      0.244    23.5230     5.4180     63.796  38.516833     39.686      7.439   155.8464     2.7457     0.8634     0.0252     -0.001      0.240      0.347        123 1.2051e+02 0.0000e+00
      0.242    23.5231     5.4009     63.595  38.543682     39.715      7.437   156.6035     2.7659     0.9439     0.0252     -0.002      0.239      0.346        124 1.2091e+02 0.0000e+00
      0.243    23.5231     5.3818     63.370  38.523134     39.686      7.439   156.7549     2.7497     0.8097     0.0252     -0.003      0.239      0.347        125 1.3729e+02 0.0000e+00
      0.244    23.5230     5.3650     63.172  38.572067     39.744      7.439   157.1335     2.7052     0.9171     0.0252     -0.003      0.240      0.348        126 1.2433e+02 0.0000e+00
      0.246    23.5227     5.3433     62.917  38.631099     39.802      7.439   157.2471     2.7618     0.9171     0.0252     -0.002      0.242      0.350        127 1.1248e+02 0.0000e+00
      0.247    23.5225     5.3245     62.695  38.627644     39.802      7.443   157.0578     2.7457     0.7828     0.0252     -0.001      0.243      0.352        128 1.2578e+02 0.0000e+00
      0.249    23.5222     5.3129     62.558  38.606027     39.773      7.443   157.0578     2.7659     0.7962     0.0252      0.001      0.244      0.354        129 1.2195e+02 0.0000e+00
      0.249    23.5220     5.2968     62.368  38.569013     39.744      7.443   157.3985     2.7295     0.8365     0.0252      0.003      0.244      0.354        130 1.1273e+02 0.0000e+00
      0.249    23.5221     5.2861     62.242  38.584721     39.745      7.445   157.3228     2.7254     0.8902     0.0252      0.004      0.244      0.354        131 1.1934e+02 0.0000e+00
      0.249    23.5220     5.2710     62.064  38.616142     39.802      7.444   157.4742     2.7497     0.9305     0.0252      0.004      0.244      0.354        132 1.1984e+02 0.0000e+00
      0.249    23.5216     5.2601     61.936  38.589235     39.745      7.444   157.9664     2.7457     0.8634     0.0252      0.003      0.244      0.353        133 1.1748e+02 0.0000e+00
      0.247    23.5215     5.2433     61.738  38.499558     39.687      7.444   158.6478     2.7295     0.8634     0.0252      0.002      0.243      0.352        134 1.1403e+02 0.0000e+00
      0.246    23.5215     5.2319     61.603  38.460785     39.601      7.443   158.7992     2.7052     0.8499     0.0252     -0.000      0.243      0.352        135 1.1310e+02 0.0000e+00
      0.248    23.5212     5.2226     61.495  38.548500     39.745      7.450   158.6099     2.7497     0.9171     0.0252     -0.001      0.244      0.353        136 1.2488e+02 0.0000e+00
      0.250    23.5211     5.2104     61.350  38.598032     39.745      7.454   158.5342     2.7376     0.8499     0.0252     -0.001      0.245      0.355        137 1.2324e+02 0.0000e+00
      0.250    23.5211     5.2027     61.260  38.606779     39.803      7.459   158.8749     2.7376     0.7962     0.0252     -0.000      0.245      0.355        138 1.1290e+02 0.0000e+00
      0.250    23.5209     5.2041     61.276  38.596940     39.745      7.461   159.5564     2.7052     0.8231     0.0252      0.000      0.245      0.354        139 1.1602e+02 0.0000e+00
      0.248    23.5207     5.2057     61.295  38.580614     39.774      7.461   159.8214     2.7012     0.8231     0.0252      0.001      0.244      0.353        140 1.1419e+02 0.0000e+00
      0.247    23.5207     5.2145     61.398  38.538109     39.688      7.461   159.7078     2.7335     0.7694     0.0252      0.000      0.243      0.353        141 1.1235e+02 0.0000e+00
      0.248    23.5205     5.2059     61.297  38.560850     39.746      7.465   159.9728     2.7457     0.8365     0.0252      0.000      0.243      0.353        142 1.1581e+02 0.0000e+00
      0.248    23.5207     5.2069     61.309  38.581976     39.746      7.467   160.5028     2.5960     0.8231     0.0252      0.000      0.243      0.353        143 1.1349e+02 0.0000e+00
      0.247    23.5205     5.1941     61.157  38.571144     39.746      7.469   161.0328     2.6001     0.8902     0.0252     -0.001      0.243      0.352        144 1.1760e+02 0.0000e+00
      0.247    23.5204     5.1816     61.010  38.603993     39.775      7.466   161.1085     2.6001     0.8097     0.0252     -0.001      0.242      0.352        145 1.1929e+02 0.0000e+00
      0.247    23.5203     5.1622     60.782  38.630081     39.804      7.471   161.1085     2.5799     0.9574     0.0252     -0.001      0.242      0.351        146 1.1241e+02 0.0000e+00
      0.246    23.5202     5.1433     60.559  38.627663     39.804      7.469   161.6007     2.6648     0.8634     0.0252     -0.001      0.241      0.349        147 1.1857e+02 0.0000e+00
      0.243    23.5203     5.1274     60.372  38.518016     39.689      7.463   162.2821     2.6688     0.8634     0.0252     -0.002      0.238      0.345        148 1.2421e+02 0.0000e+00
      0.238    23.5202     5.1120     60.190  38.440251     39.602      7.463   160.3892     2.6688     0.7559     0.0252     -0.004      0.235      0.340        149 1.2074e+02 0.0000e+00
      0.235    23.5202     5.1049     60.105  38.516805     39.689      7.457   161.4492     2.6850     0.8097     0.0252     -0.006      0.232      0.336        150 1.2489e+02 0.0000e+00
      0.235    23.5199     5.0950     59.988  38.600719     39.775      7.455   161.6385     2.6244     0.9171     0.0252     -0.007      0.231      0.335        151 1.2261e+02 0.0000e+00
      0.237    23.5198     5.0886     59.913  38.573120     39.746      7.455   162.2064     2.5960     0.8902     0.0252     -0.007      0.232      0.336        152 1.1373e+02 0.0000e+00
      0.237    23.5198     5.0831     59.847  38.580815     39.747      7.453   162.6607     2.6001     0.8768     0.0252     -0.007      0.233      0.337        153 1.1666e+02 0.0000e+00
      0.238    23.5196     5.0760     59.763  38.620805     39.804      7.453   162.5849     2.6244     0.8365     0.0252     -0.005      0.234      0.339        154 1.2376e+02 0.0000e+00
      0.239    23.5196     5.0642     59.624  38.642001     39.804      7.455   163.1149     2.6688     0.9305     0.0252     -0.003      0.235      0.340        155 1.1608e+02 0.0000e+00
      0.241    23.5195     5.0551     59.516  38.643423     39.833      7.455   162.9257     2.6688     0.9171     0.0252      0.000      0.237      0.344        156 1.1260e+02 0.0000e+00
      0.245    23.5189     5.0461     59.411  38.589375     39.747      7.456   163.0771     2.6810     0.8365     0.0252      0.004      0.240      0.349        157 1.2360e+02 0.0000e+00
      0.248    23.5185     5.0433     59.379  38.620277     39.804      7.458   164.0614     2.6527     0.7694     0.0252      0.006      0.241      0.351        158 1.2056e+02 0.0000e+00
      0.245    23.5183     5.0406     59.345  38.575303     39.747      7.452   156.4899     2.6971     0.9036     0.0252      0.006      0.240      0.349        159 1.2141e+02 0.0000e+00
      0.243    23.5177     5.0393     59.331  38.526694     39.690      7.449   158.4206     2.7335     0.8902     0.0252      0.005      0.239      0.348        160 1.3231e+02 0.0000e+00
      0.244    23.5171     5.0371     59.305  38.562120     39.748      7.447   163.9857     2.7133     0.8499     0.0252      0.004      0.240      0.349        161 1.1671e+02 0.0000e+00
      0.248    23.5169     5.0433     59.378  38.560880     39.720      7.446   164.6292     2.7376     0.8768     0.0252      0.004      0.242      0.352        162 1.1638e+02 0.0000e+00
      0.249    23.5166     5.0544     59.509  38.557901     39.749      7.448   164.2507     2.7214     0.8902     0.0252      0.003      0.244      0.353        163 1.2702e+02 0.0000e+00
      0.249    23.5162     5.0707     59.700  38.536165     39.691      7.450   164.7050     2.6850     0.9305     0.0252      0.002      0.245      0.355        164 1.2020e+02 0.0000e+00
      0.252    23.5160     5.0876     59.900  38.558268     39.749      7.447   165.6135     2.6891     0.8768     0.0252      0.003      0.246      0.357        165 1.1557e+02 0.0000e+00
      0.252    23.5159     5.0953     59.990  38.530395     39.692      7.443   165.9921     2.6729     0.7694     0.0252      0.003      0.246      0.357        166 1.1701e+02 0.0000e+00
      0.249    23.5161     5.0969     60.009  38.541190     39.721      7.437   166.1057     2.6688     0.8365     0.0252      0.004      0.244      0.354        167 1.2302e+02 0.0000e+00
      0.245    23.5160     5.0975     60.016  38.515170     39.692      7.437   165.6514     2.6729     0.7828     0.0252      0.002      0.242      0.352        168 1.1034e+02 0.0000e+00
      0.249    23.5155     5.0935     59.969  38.533115     39.692      7.442   166.4085     2.6971     0.9842     0.0252      0.001      0.244      0.354        169 1.1342e+02 0.0000e+00
      0.253    23.5153     5.0821     59.834  38.548520     39.750      7.441   166.4085     2.6891     0.8231     0.0252      0.001      0.246      0.357        170 1.2278e+02 0.0000e+00
      0.251    23.5156     5.0880     59.875  38.466335     39.606      7.436   167.1278     2.6324     0.7962     0.0252      0.001      0.245      0.355        171 1.1177e+02 0.0000e+00
      0.245    23.5160     5.2647     61.884  38.457420     39.664      7.431   167.0521     2.6729     0.8097     0.0252     -0.001      0.241      0.349        172 1.1963e+02 0.0000e+00
      0.240    23.5161     5.7741     67.820  38.411305     39.548      7.429   166.6357     2.6810     0.7828     0.0251     -0.004      0.237      0.343        173 1.2702e+02 0.0000e+00
      0.240    23.5159     6.4928     76.236  38.405077     39.606      7.430   167.2035     2.6607     0.8634     0.0252     -0.005      0.234      0.340        174 1.2479e+02 0.0000e+00
      0.238    23.5158     7.2704     85.369  38.465171     39.606      7.430   167.1657     2.6931     0.9439     0.0252     -0.005      0.233      0.338        175 1.3114e+02 0.0000e+00
      0.236    23.5157     8.0003     93.951  38.484829     39.692      7.431   167.0521     2.6850     0.7962     0.0252     -0.007      0.233      0.337        176 1.1693e+02 0.0000e+00
      0.238    23.5157     8.6544    101.624  38.469598     39.606      7.432   167.0521     2.6527     0.8365     0.0252     -0.008      0.234      0.339        177 1.1361e+02 0.0000e+00
      0.240    23.5158     9.1154    107.019  38.513787     39.721      7.432   167.8471     2.6729     0.8231     0.0252     -0.007      0.234      0.340        178 1.2634e+02 0.0000e+00
      0.238    23.5159     9.4061    110.404  38.459499     39.606      7.431   167.6957     2.6769     0.9439     0.0252     -0.005      0.232      0.336        179 1.0845e+02 0.0000e+00
      0.231    23.5158     9.5064    111.527  38.507496     39.692      7.429   168.4907     2.6688     0.7828     0.0252     -0.004      0.225      0.326        180 1.2207e+02 0.0000e+00
      0.217    23.4890     9.4488    110.790  38.365069     39.548      7.423   167.8092     2.6446     0.8097     0.0251     -0.007      0.212      0.306        181 1.4279e+02 0.0000e+00
      0.198    23.4314     9.3293    109.351  37.361309     38.511      7.417   164.0235     2.6810     0.8365     0.0247     -0.016      0.197      0.286        182 1.2229e+02 0.0000e+00
      0.190    23.3891     9.1952    107.776  36.434650     37.523      7.419   168.6800     2.6688     0.8097     0.0243     -0.023      0.189      0.274        183 1.4055e+02 0.0000e+00
      0.190    23.3725     9.0819    106.491  36.403964     37.598      7.409   168.7557     2.6648     0.8768     0.0243     -0.029      0.189      0.274        184 1.4552e+02 0.0000e+00
      0.198    23.3735     8.9920    105.515  36.539384     37.746      7.408   168.7935     2.6931     0.8634     0.0243     -0.029      0.195      0.284        185 1.1999e+02 0.0000e+00
      0.210    23.3798     8.9233    104.788  36.592393     37.817      7.411   168.6043     2.6446     0.7828     0.0244     -0.023      0.205      0.298        186 1.2664e+02 0.0000e+00
      0.220    23.3754     8.8801    104.352  36.664256     37.902      7.413   169.1721     2.6486     0.8902     0.0244     -0.012      0.215      0.311        187 1.1740e+02 0.0000e+00
      0.225    23.3662     8.8286    103.802  36.598250     37.811      7.418   169.5885     2.6850     0.9036     0.0244      0.001      0.221      0.320        188 1.0754e+02 0.0000e+00
      0.228    23.3526     8.7799    103.262  36.555899     37.785      7.422   161.9414     2.7982     0.8634     0.0244      0.014      0.227      0.329        189 1.1079e+02 0.0000e+00
      0.241    23.3271     8.7301    102.711  36.420371     37.648      7.419   159.6321     2.7821     0.8634     0.0243      0.025      0.241      0.350        190 9.1610e+01 0.0000e+00
      0.271    23.2985     8.6768    102.106  36.262711     37.485      7.416   159.4049     2.8063     0.8768     0.0242      0.036      0.263      0.382        191 7.1461e+01 0.0000e+00
      0.294    23.2803     8.6207    101.462  36.247908     37.505      7.416   160.1621     2.7861     0.9171     0.0242      0.046      0.280      0.407        192 7.8311e+01 0.0000e+00
      0.294    23.2784     8.5848    101.052  36.260852     37.527      7.402   159.0642     2.7821     0.9574     0.0242      0.049      0.278      0.403        193 9.1302e+01 0.0000e+00
      0.263    23.2994     8.5635    100.808  36.335592     37.628      7.402   158.6857     2.7497     0.8634     0.0243      0.040      0.250      0.363        194 7.7516e+01 0.0000e+00
      0.209    23.3383     8.5529    100.689  36.421834     37.717      7.399   159.3671     2.7457     0.8902     0.0243      0.016      0.206      0.298        195 1.1745e+02 0.0000e+00
      0.160    23.3787     8.5527    100.687  36.479774     37.758      7.395   159.3292     2.7376     0.8097     0.0243     -0.017      0.159      0.231        196 2.0979e+02 0.0000e+00
      0.117    23.4151     8.5602    100.760  36.530407     37.785      7.396   159.7457     2.5920     0.8499     0.0244     -0.055      0.118      0.171        197 2.2935e+02 0.0000e+00
      0.082    23.4428     8.5695    100.852  36.596078     37.811      7.398   159.9349     2.6324     0.8902     0.0244     -0.095      0.081      0.118        198 2.2905e+02 0.0000e+00
      0.048    23.4606     8.5830    101.005  36.664962     37.870      7.398   160.2378     2.6082     0.8365     0.0244     -0.129      0.044      0.063        199 2.5806e+02 0.0000e+00
      0.000    23.4772     8.5909    101.097  36.622620     37.790      7.388   160.3135     2.6324     0.7425     0.0244     -0.155     -0.001     -0.002        200 2.8441e+02 0.0000e+00
     -0.052    23.4892     8.5920    101.109  36.589439     37.748      7.382   161.7899     2.6163     0.8231     0.0244     -0.168     -0.048     -0.069        201 3.0501e+02 0.0000e+00
     -0.092    23.4976     8.5889    101.070  36.587607     37.735      7.384   163.4557     2.6082     0.8902     0.0244     -0.169     -0.089     -0.129        202 2.9846e+02 0.0000e+00
     -0.129    23.5048     8.5735    100.886  36.595231     37.726      7.386   186.5107     2.6203     0.9439     0.0244     -0.165     -0.124     -0.181        203 2.9685e+02 0.0000e+00
     -0.159    23.5077     8.5506    100.613  36.579943     37.719      7.384   164.7807     2.5960     0.8097     0.0244     -0.161     -0.152     -0.222        204 3.1395e+02 0.0000e+00
     -0.179    23.5109     8.5364    100.444  36.547310     37.656      7.391   165.4242     2.6082     0.7828     0.0243     -0.154     -0.172     -0.250        205 3.0908e+02 0.0000e+00
     -0.191    23.5113     8.5326    100.400  36.546862     37.682      7.398   165.1592     2.4747     1.0111     0.0244     -0.142     -0.182     -0.264        206 3.0863e+02 0.0000e+00
     -0.187    23.5031     8.5311    100.395  36.491520     37.593      7.407   164.7428     2.5071     1.1185     0.0243     -0.120     -0.179     -0.259        207 3.1711e+02 0.0000e+00
     -0.169    23.4943     8.5266    100.349  36.527202     37.650      7.410   165.5378     2.4869     1.1319     0.0243     -0.087     -0.167     -0.243        208 3.1259e+02 0.0000e+00
     -0.159    23.4908     8.5151    100.208  36.532115     37.657      7.406   165.6135     2.4788     1.0379     0.0243     -0.053     -0.157     -0.227        209 3.0812e+02 0.0000e+00
     -0.151    23.4901     8.5121    100.157  36.544728     37.664      7.405   165.6892     2.1998    96.9134     0.0243     -0.023     -0.148     -0.214        210 3.1125e+02 0.0000e+00
     -0.140    23.4897     8.5131    100.152  36.600488     37.753      7.409   166.2950     2.2281    96.8328     0.0244      0.003     -0.142     -0.205        211 3.0809e+02 0.0000e+00
     -0.142    23.4884     8.5319    100.346  36.551703     37.667      7.395   165.9164     2.2159    96.9940     0.0243      0.019     -0.142     -0.207        212 3.0804e+02 0.0000e+00
     -0.154    23.4869     8.5419    100.408  36.516464     37.667      7.395   165.8407     2.2079    96.8328     0.0243      0.023     -0.148     -0.215        213 3.0970e+02 0.0000e+00
     -0.155    23.4852     8.5526    100.477  36.496046     37.611      7.398   165.5378     2.4707     0.8365     0.0243      0.021     -0.149     -0.216        214 3.1214e+02 0.0000e+00
     -0.146    23.4837     8.5575    100.497  36.517793     37.670      7.404   165.6892     2.4505     0.8902     0.0243      0.014     -0.143     -0.206        215 3.1335e+02 0.0000e+00
     -0.136    23.4850     8.5609    100.469  36.548721     37.671      7.412   165.5757     2.4828     0.9842     0.0243      0.009     -0.131     -0.189        216 3.0822e+02 0.0000e+00
     -0.116    23.4911     8.5592    100.382  36.546537     37.701      7.414   165.6135     2.4586     0.9305     0.0244      0.012     -0.113     -0.164        217 3.1605e+02 0.0000e+00
     -0.093    23.4955     8.5584    100.330  36.490852     37.614      7.410   165.5757     2.5394     0.8365     0.0243      0.021     -0.092     -0.133        218 3.1610e+02 0.0000e+00
     -0.071    23.4918     8.5622    100.350  36.469722     37.609      7.402   165.0835     2.5314     0.7828     0.0243      0.034     -0.070     -0.102        219 3.1299e+02 0.0000e+00
     -0.050    23.4836     8.5776    100.511  36.483852     37.605      7.395   164.9321     2.5556     0.8634     0.0243      0.050     -0.050     -0.072        220 3.1152e+02 0.0000e+00
     -0.031    23.4750     8.5949    100.694  36.591904     37.723      7.396   164.7428     2.5435     0.9305     0.0244      0.065     -0.030     -0.043        221 3.1305e+02 0.0000e+00
     -0.011    23.4602     8.6293    101.040  36.661507     37.816      7.395   165.1214     2.7254     0.8634     0.0244      0.074     -0.008     -0.012        222 3.0642e+02 0.0000e+00
      0.017    23.4307     8.6607    101.335  36.545531     37.679      7.386   165.1971     2.6607     0.8902     0.0243      0.081      0.019      0.026        223 2.8761e+02 0.0000e+00
      0.050    23.4017     8.6835    101.524  36.409988     37.575      7.375   165.8028     2.6527     0.8231     0.0243      0.088      0.049      0.070        224 2.7453e+02 0.0000e+00
      0.080    23.3799     8.6993    101.638  36.385310     37.540      7.376   165.7271     2.6607     0.9305     0.0243      0.094      0.079      0.115        225 2.7091e+02 0.0000e+00
      0.112    23.3461     8.7084    101.692  36.398301     37.621      7.383   165.9164     2.6850     0.8365     0.0243      0.100      0.112      0.163        226 2.5418e+02 0.0000e+00
      0.150    23.3098     8.7108    101.622  36.334517     37.521      7.392   165.9164     2.6729     1.0648     0.0243      0.108      0.147      0.214        227 2.0677e+02 0.0000e+00
      0.188    23.2879     8.7145    101.504  36.316406     37.577      7.400   165.9921     2.6769     1.0916     0.0243      0.118      0.183      0.266        228 1.7240e+02 0.0000e+00
      0.223    23.2741     8.7235    101.462  36.272561     37.518      7.406   166.1435     2.6527     1.1185     0.0242      0.127      0.218      0.317        229 1.5983e+02 0.0000e+00
      0.256    23.2648     8.7337    101.449  36.300122     37.594      7.408   166.2950     2.7012     1.0782     0.0243      0.133      0.253      0.367        230 1.4942e+02 0.0000e+00
      0.295    23.2530     8.7345    101.339  36.311777     37.604      7.407   166.4842     2.8144     0.9305     0.0243      0.137      0.288      0.418        231 1.3753e+02 0.0000e+00
      0.330    23.2246     8.7260    101.140  36.258064     37.554      7.406   166.4842     2.8144     0.8097     0.0242      0.139      0.321      0.466        232 1.3068e+02 0.0000e+00
      0.357    23.1861     8.6976    100.746  36.248338     37.562      7.404   166.6735     2.8184     0.8768     0.0242      0.138      0.350      0.507        233 1.2252e+02 0.0000e+00
      0.385    23.1457     8.6805    100.511  36.175594     37.498      7.404   167.0521     2.8225     0.8634     0.0242      0.135      0.378      0.547        234 1.1267e+02 0.0000e+00
      0.415    23.1094     8.6761    100.422  36.111336     37.470      7.404   167.3171     2.7174     0.9305     0.0242      0.130      0.404      0.587        235 1.0913e+02 0.0000e+00
      0.437    23.0814     8.6723    100.344  36.061397     37.443      7.406   167.7714     2.7538     0.8634     0.0242      0.124      0.429      0.622        236 1.0392e+02 0.0000e+00
      0.460    23.0299     8.6597    100.173  36.059811     37.472      7.403   168.0364     2.7376     0.8097     0.0242      0.117      0.453      0.657        237 1.0104e+02 0.0000e+00
      0.487    22.9483     8.6339     99.858  35.994693     37.435      7.402   168.1121     2.7335     0.7828     0.0241      0.110      0.480      0.697        238 9.4324e+01 0.0000e+00
      0.523    22.8709     8.5833     99.257  35.875526     37.329      7.402   168.6800     2.9034     0.9439     0.0241      0.107      0.514      0.746        239 8.6617e+01 0.0000e+00
      0.564    22.8037     8.5227     98.544  35.822578     37.365      7.396   169.0964     2.8670     0.9171     0.0241      0.110      0.554      0.803        240 8.5671e+01 0.0000e+00
      0.608    22.7413     8.4662     97.861  35.734382     37.308      7.396   169.7400     2.9034     0.7828     0.0240      0.118      0.596      0.864        241 8.1630e+01 0.0000e+00
      0.653    22.6895     8.4156     97.275  35.718401     37.361      7.396   170.2321     2.8468     0.7828     0.0240      0.129      0.637      0.924        242 7.4740e+01 0.0000e+00
      0.687    22.6559     8.3789     96.833  35.723867     37.409      7.397   170.2700     3.1258     1.0916     0.0240      0.138      0.670      0.972        243 7.1914e+01 0.0000e+00
      0.708    22.6355     8.3567     96.541  35.727608     37.450      7.398   170.3457     3.1055     1.0782     0.0240      0.143      0.695      1.008        244 6.8461e+01 0.0000e+00
      0.730    22.6166     8.3564     96.503  35.743428     37.506      7.400   170.8757     3.1339     1.0648     0.0240      0.142      0.715      1.038        245 6.4397e+01 0.0000e+00
      0.752    22.5986     8.3675     96.586  35.793172     37.551      7.398   171.1407     3.1177     1.1051     0.0241      0.134      0.734      1.065        246 6.2681e+01 0.0000e+00
      0.764    22.5861     8.3869     96.716  35.814006     37.625      7.395   171.1785     3.1379     1.0111     0.0241      0.120      0.750      1.088        247 5.9566e+01 0.0000e+00
      0.780    22.5762     8.4017     96.768  35.806487     37.580      7.399   171.4057     3.2107     0.8902     0.0241      0.103      0.768      1.114        248 5.7947e+01 0.0000e+00
      0.807    22.5695     8.4236     96.926  35.802538     37.649      7.400   172.0114     3.1824     0.9305     0.0241      0.090      0.792      1.149        249 5.7566e+01 0.0000e+00
      0.836    22.5607     8.4340     96.974  35.759609     37.539      7.394   172.3143     3.1905     0.8365     0.0240      0.083      0.817      1.184        250 5.5854e+01 0.0000e+00
      0.855    22.5474     8.4283     96.901  35.711625     37.575      7.385   172.8821     3.2066     0.9708     0.0240      0.081      0.837      1.214        251 5.6167e+01 0.0000e+00
      0.869    22.5443     8.4069     96.623  35.624993     37.403      7.384   172.9957     3.1096     0.8365     0.0240      0.080      0.854      1.238        252 5.6899e+01 0.0000e+00
      0.888    22.5358     8.3798     96.231  35.689478     37.563      7.383   172.9957     3.1379     0.8902     0.0240      0.080      0.873      1.266        253 5.6099e+01 0.0000e+00
      0.913    22.5164     8.3401     95.758  35.661038     37.475      7.378   173.6393     3.1136     0.9036     0.0240      0.081      0.897      1.302        254 5.5464e+01 0.0000e+00
      0.944    22.4983     8.3174     95.430  35.571415     37.424      7.373   173.6393     3.1217     0.9036     0.0240      0.086      0.927      1.345        255 5.4475e+01 0.0000e+00
      0.979    22.4726     8.3148     95.312  35.593410     37.439      7.372   173.9421     3.0570     1.0916     0.0240      0.091      0.962      1.396        256 5.3080e+01 0.0000e+00
      1.022    22.4219     8.3284     95.361  35.574357     37.454      7.369   174.6614     3.0692     1.1051     0.0240      0.099      1.001      1.451        257 5.1942e+01 0.0000e+00
      1.060    22.3594     8.3556     95.614  35.476505     37.356      7.364   175.3428     3.0894     1.0514     0.0239      0.109      1.038      1.504        258 5.0854e+01 0.0000e+00
      1.092    22.3075     8.3960     95.985  35.418621     37.337      7.356   175.4186     3.0732     1.1319     0.0239      0.121      1.068      1.549        259 5.0491e+01 0.0000e+00
      1.115    22.2703     8.4241     96.155  35.409153     37.387      7.351   175.5321     3.2511     1.0648     0.0239      0.129      1.090      1.582        260 4.9752e+01 0.0000e+00
      1.129    22.2657     8.4386     96.195  35.369687     37.368      7.348   175.9486     3.2633     1.0514     0.0239      0.127      1.106      1.605        261 4.9472e+01 0.0000e+00
      1.142    22.2461     8.4217     95.919  35.408447     37.458      7.347   176.3650     3.2430     1.0379     0.0239      0.118      1.120      1.625        262 4.9549e+01 0.0000e+00
      1.156    22.2081     8.3485     95.015  35.360933     37.402      7.343   176.7814     3.2390     1.1319     0.0239      0.105      1.131      1.640        263 4.8965e+01 0.0000e+00
      1.160    22.1919     8.2102     93.395  35.310195     37.356      7.342   176.9707     3.5180     1.0648     0.0239      0.087      1.138      1.650        264 4.8960e+01 0.0000e+00
      1.164    22.1604     8.0210     91.177  35.293653     37.391      7.336   177.1221     3.4937     1.0648     0.0239      0.067      1.145      1.661        265 4.9234e+01 0.0000e+00
      1.180    22.1081     7.7889     88.479  35.173929     37.250      7.336   177.3493     3.5261     1.1185     0.0238      0.053      1.163      1.687        266 4.9374e+01 0.0000e+00
      1.215    22.0544     7.5689     85.926  35.103311     37.220      7.332   178.4093     3.5463     1.1051     0.0238      0.051      1.193      1.730        267 4.8132e+01 0.0000e+00
      1.253    22.0190     7.3286     83.148  35.114636     37.258      7.323   178.4471     3.6353     1.4139     0.0238      0.059      1.227      1.779        268 4.7148e+01 0.0000e+00
      1.282    21.9706     7.1183     80.674  35.100547     37.304      7.322   178.5607     3.6393     1.2796     0.0238      0.071      1.259      1.826        269 4.6883e+01 0.0000e+00
      1.317    21.8895     6.9203     78.333  35.002242     37.210      7.314   179.4314     3.6110     1.3065     0.0237      0.086      1.293      1.875        270 4.6031e+01 0.0000e+00
      1.356    21.8232     6.7248     76.047  34.940424     37.190      7.309   179.9614     3.6312     1.3199     0.0237      0.103      1.330      1.929        271 4.4680e+01 0.0000e+00
      1.394    21.7765     6.5089     73.548  34.999560     37.314      7.303   180.6807     3.6555     1.2796     0.0237      0.121      1.368      1.984        272 4.3236e+01 0.0000e+00
      1.435    21.7403     6.2299     70.330  35.047311     37.428      7.295   180.7186     3.5908     1.2796     0.0238      0.136      1.406      2.039        273 4.2223e+01 0.0000e+00
      1.470    21.7119     5.9426     67.053  35.058973     37.463      7.287   181.0214     3.5948     1.2796     0.0238      0.142      1.441      2.090        274 4.0936e+01 0.0000e+00
      1.503    21.6767     5.6232     63.434  34.985070     37.435      7.276   182.0057     3.5827     1.2662     0.0238      0.143      1.474      2.139        275 3.9754e+01 0.0000e+00
      1.538    21.6400     5.2889     59.651  34.961357     37.395      7.265   182.4600     3.5625     1.3065     0.0237      0.143      1.507      2.186        276 3.8810e+01 0.0000e+00
      1.569    21.6095     4.9777     56.099  35.029185     37.545      7.256   182.8386     4.2135     1.2528     0.0238      0.143      1.538      2.231        277 3.8002e+01 0.0000e+00
      1.599    21.5758     4.7022     52.954  34.959991     37.453      7.243   182.9521     4.2216     1.3602     0.0237      0.139      1.568      2.274        278 3.7261e+01 0.0000e+00
      1.630    21.5219     4.4567     50.151  34.928856     37.479      7.238   183.4443     4.1771     1.2931     0.0237      0.134      1.599      2.319        279 3.6209e+01 0.0000e+00
      1.663    21.4572     4.2682     47.991  34.890005     37.445      7.229   183.6336     4.1973     1.2662     0.0237      0.130      1.630      2.364        280 3.5423e+01 0.0000e+00
      1.695    21.4090     4.0976     46.042  34.830417     37.429      7.220   184.0500     6.0129     1.5616     0.0237      0.126      1.660      2.407        281 3.4832e+01 0.0000e+00
      1.720    21.3669     3.9167     43.985  34.884409     37.541      7.214   184.2772     6.0412     1.5885     0.0237      0.123      1.685      2.444        282 3.4185e+01 0.0000e+00
      1.741    21.3223     3.7113     41.659  34.882156     37.581      7.210   184.5800     6.0331     1.5348     0.0237      0.118      1.705      2.474        283 3.3811e+01 0.0000e+00
      1.757    21.2943     3.4964     39.227  34.892560     37.613      7.199   184.7693     6.0291     1.4676     0.0237      0.111      1.724      2.500        284 3.3373e+01 0.0000e+00
      1.776    21.2840     3.2376     36.305  34.930796     37.712      7.192   184.5800     6.3566     1.4810     0.0237      0.103      1.746      2.531        285 3.2789e+01 0.0000e+00
      1.807    21.2700     3.0019     33.644  34.893904     37.673      7.188   184.9964     6.3526     1.5348     0.0237      0.098      1.774      2.572        286 3.1974e+01 0.0000e+00
      1.842    21.2347     2.7998     31.367  34.879170     37.683      7.178   185.3372     6.3728     1.4408     0.0237      0.097      1.806      2.620        287 3.0998e+01 0.0000e+00
      1.877    21.1949     2.6324     29.480  34.889827     37.692      7.171   185.4886     6.3647     1.5079     0.0237      0.099      1.839      2.668        288 3.0260e+01 0.0000e+00
      1.908    21.1562     2.5027     28.022  34.880652     37.723      7.161   186.0564     6.3526     1.4676     0.0237      0.103      1.870      2.713        289 2.9499e+01 0.0000e+00
      1.939    21.1143     2.4131     27.011  34.890604     37.754      7.149   186.3593     5.5964     1.4945     0.0237      0.110      1.900      2.755        290 2.8881e+01 0.0000e+00
      1.964    21.0802     2.3363     26.142  34.936775     37.847      7.139   186.6243     5.5762     1.5750     0.0237      0.116      1.925      2.792        291 2.8359e+01 0.0000e+00
      1.986    21.0521     2.3012     25.740  34.941841     37.881      7.126   186.5864     5.6126     1.5616     0.0238      0.118      1.947      2.824        292 2.7694e+01 0.0000e+00
      2.007    21.0272     2.2757     25.448  34.884319     37.849      7.115   187.0786     5.5843     1.5348     0.0237      0.116      1.970      2.857        293 2.7155e+01 0.0000e+00
      2.033    21.0024     2.2514     25.168  34.889749     37.872      7.103   187.4950     5.3498     1.5079     0.0237      0.110      1.996      2.895        294 2.6395e+01 0.0000e+00
      2.067    20.9749     2.2337     24.962  34.935097     37.953      7.089   187.8357     5.3296     1.4945     0.0238      0.105      2.026      2.938        295 2.5677e+01 0.0000e+00
      2.096    20.9498     2.2105     24.695  34.946524     37.973      7.076   187.7222     5.3417     1.5482     0.0238      0.104      2.054      2.979        296 2.5143e+01 0.0000e+00
      2.121    20.9289     2.1972     24.540  34.994169     38.057      7.063   188.4036     5.3417     1.5616     0.0238      0.103      2.081      3.018        297 2.4441e+01 0.0000e+00
      2.150    20.9101     2.1754     24.288  34.994446     38.078      7.046   189.1229     5.0222     1.4945     0.0238      0.104      2.108      3.058        298 2.3881e+01 0.0000e+00
      2.178    20.8982     2.1472     23.962  34.946193     38.034      7.034   189.8043     5.0465     1.5348     0.0238      0.107      2.136      3.098        299 2.3331e+01 0.0000e+00
      2.207    20.8858     2.1173     23.621  34.935602     38.050      7.023   189.8043     5.0546     1.5482     0.0238      0.110      2.164      3.138        300 2.2754e+01 0.0000e+00
      2.235    20.8654     2.0737     23.128  34.948321     38.059      7.009   189.8422     5.0465     1.5616     0.0238      0.112      2.190      3.177        301 2.2247e+01 0.0000e+00
      2.258    20.8478     2.0079     22.387  34.989686     38.130      6.999   190.2586     4.8120     1.4408     0.0238      0.110      2.213      3.211        302 2.1791e+01 0.0000e+00
      2.279    20.8343     1.9507     21.744  35.002760     38.148      6.983   190.2207     4.7513     1.5213     0.0238      0.106      2.235      3.243        303 2.1426e+01 0.0000e+00
      2.302    20.8180     1.8940     21.110  34.991373     38.162      6.973   190.4100     4.7756     1.4139     0.0238      0.103      2.258      3.275        304 2.1050e+01 0.0000e+00
      2.327    20.8014     1.8399     20.507  35.003865     38.173      6.964   190.7507     4.8201     1.5616     0.0238      0.100      2.282      3.310        305 2.0573e+01 0.0000e+00
      2.351    20.7862     1.7889     19.934  34.987221     38.187      6.949   190.8265     4.5330     1.6690     0.0238      0.097      2.306      3.346        306 2.0159e+01 0.0000e+00
      2.379    20.7715     1.7412     19.393  34.952779     38.140      6.941   191.5457     4.5127     1.4945     0.0238      0.096      2.334      3.386        307 1.9558e+01 0.0000e+00
      2.412    20.7529     1.6941     18.861  34.987422     38.214      6.925   191.9622     4.5249     1.5616     0.0238      0.097      2.364      3.430        308 1.8874e+01 0.0000e+00
      2.443    20.7318     1.6679     18.567  35.003432     38.226      6.908   191.8865     4.5410     1.4676     0.0238      0.101      2.392      3.470        309 1.8477e+01 0.0000e+00
      2.464    20.7147     1.6579     18.456  34.992177     38.241      6.898   191.9622     4.4157     1.5750     0.0238      0.104      2.416      3.505        310 1.8109e+01 0.0000e+00
      2.487    20.6997     1.6609     18.486  35.001437     38.259      6.885   192.3029     4.4197     1.5616     0.0238      0.105      2.439      3.537        311 1.7774e+01 0.0000e+00
      2.510    20.6846     1.6806     18.701  34.991918     38.273      6.878   192.6436     4.4399     1.5213     0.0238      0.105      2.463      3.572        312 1.7333e+01 0.0000e+00
      2.538    20.6730     1.6975     18.883  35.004032     38.286      6.866   193.0222     4.3955     1.5348     0.0238      0.104      2.490      3.610        313 1.6807e+01 0.0000e+00
      2.567    20.6682     1.7266     19.200  35.045684     38.360      6.854   192.7572     4.4116     1.4676     0.0238      0.103      2.516      3.648        314 1.6333e+01 0.0000e+00
      2.589    20.6666     1.7523     19.480  34.999406     38.309      6.848   193.2493     3.9062     1.6019     0.0238      0.101      2.537      3.680        315 1.6096e+01 0.0000e+00
      2.605    20.6556     1.7682     19.655  34.943000     38.251      6.839   193.1357     3.8819     1.5348     0.0238      0.096      2.556      3.707        316 1.5790e+01 0.0000e+00
      2.627    20.6313     1.7614     19.580  34.997253     38.314      6.832   193.3250     3.9143     1.4945     0.0238      0.093      2.576      3.736        317 1.5342e+01 0.0000e+00
      2.649    20.6109     1.7384     19.322  35.050521     38.384      6.818   193.2115     3.8779     1.4945     0.0238      0.092      2.594      3.762        318 1.5243e+01 0.0000e+00
      2.657    20.6054     1.7061     18.957  35.054660     38.405      6.805   193.4008     3.9183     1.5079     0.0238      0.086      2.606      3.781        319 1.5058e+01 0.0000e+00
      2.669    20.6050     1.6578     18.414  35.051426     38.422      6.801   193.6658     3.8941     1.5079     0.0238      0.078      2.616      3.795        320 1.4834e+01 0.0000e+00
      2.678    20.5977     1.6063     17.834  35.054553     38.427      6.793   193.4765     3.8900     1.5348     0.0238      0.068      2.624      3.807        321 1.4800e+01 0.0000e+00
      2.681    20.5841     1.5451     17.147  35.050774     38.427      6.783   193.3629     3.8738     1.4676     0.0238      0.057      2.630      3.815        322 1.4732e+01 0.0000e+00
      2.686    20.5674     1.4697     16.303  35.056132     38.433      6.780   193.1736     3.7323     1.4676     0.0238      0.048      2.637      3.826        323 1.4511e+01 0.0000e+00
      2.702    20.5496     1.3659     15.147  35.047889     38.444      6.777   193.6279     3.7525     1.5885     0.0238      0.043      2.650      3.843        324 1.4208e+01 0.0000e+00
      2.716    20.5366     1.2214     13.541  35.061038     38.458      6.769   193.5143     3.7768     1.4945     0.0238      0.038      2.661      3.859        325 1.4125e+01 0.0000e+00
      2.720    20.5319     1.0498     11.637  35.099091     38.535      6.757   193.4386     3.7768     1.5750     0.0239      0.035      2.668      3.869        326 1.4088e+01 0.0000e+00
      2.725    20.5308     0.8735      9.680  35.059855     38.485      6.752   193.5143     3.7647     1.4408     0.0238      0.034      2.675      3.879        327 1.3899e+01 0.0000e+00
      2.737    20.5251     0.7233      8.014  35.050558     38.489      6.750   193.8172     3.7525     1.5348     0.0238      0.034      2.688      3.898        328 1.3605e+01 0.0000e+00
      2.760    20.5106     0.6152      6.814  35.051351     38.489      6.748   193.8172     3.7768     1.5885     0.0238      0.038      2.709      3.928        329 1.3210e+01 0.0000e+00
      2.788    20.4909     0.5599      6.199  35.058870     38.494      6.742   194.0822     3.7930     1.5079     0.0238      0.047      2.736      3.967        330 1.2778e+01 0.0000e+00
      2.820    20.4700     0.5436      6.017  35.100519     38.568      6.733   194.4229     3.5867     1.5885     0.0239      0.058      2.766      4.011        331 1.2378e+01 0.0000e+00
      2.854    20.4480     0.5685      6.291  35.058842     38.523      6.729   194.7636     3.5625     1.4676     0.0238      0.071      2.799      4.058        332 1.1984e+01 0.0000e+00
      2.887    20.4262     0.6137      6.790  35.051429     38.541      6.717   195.1800     3.5867     1.4810     0.0238      0.087      2.829      4.102        333 1.1658e+01 0.0000e+00
      2.911    20.4079     0.6572      7.270  35.050438     38.560      6.707   195.2179     3.5706     1.5079     0.0238      0.101      2.854      4.140        334 1.1406e+01 0.0000e+00
      2.934    20.3963     0.6806      7.526  35.060086     38.578      6.695   195.5208     3.5948     1.5482     0.0238      0.110      2.879      4.175        335 1.1125e+01 0.0000e+00
      2.962    20.3880     0.6739      7.448  35.098747     38.655      6.685   195.5586     3.0813     1.7362     0.0239      0.114      2.907      4.215        336 1.0785e+01 0.0000e+00
      2.995    20.3772     0.6470      7.148  35.061649     38.604      6.673   196.2779     3.0530     1.6959     0.0238      0.114      2.937      4.260        337 1.0443e+01 0.0000e+00
      3.028    20.3636     0.5973      6.597  35.046947     38.610      6.665   196.5050     3.0611     1.7496     0.0238      0.114      2.968      4.304        338 1.0142e+01 0.0000e+00
      3.056    20.3485     0.5306      5.858  35.057733     38.620      6.657   196.4293     3.0570     1.7899     0.0238      0.113      2.993      4.342        339 9.9064e+00 0.0000e+00
      3.074    20.3337     0.4532      5.001  35.048230     38.631      6.655   196.6186     2.7982     1.7362     0.0238      0.110      3.012      4.369        340 9.8303e+00 0.0000e+00
      3.086    20.3185     0.3683      4.063  35.058781     38.644      6.651   196.5429     2.8023     1.7093     0.0238      0.104      3.029      4.394        341 9.6430e+00 0.0000e+00
      3.108    20.3037     0.2818      3.108  35.103927     38.718      6.648   196.6565     2.8063     1.7362     0.0239      0.100      3.050      4.424        342 9.3622e+00 0.0000e+00
      3.137    20.2931     0.2166      2.388  35.110685     38.731      6.646   196.8458     2.7901     1.6690     0.0239      0.096      3.076      4.461        343 9.1182e+00 0.0000e+00
      3.163    20.2814     0.1593      1.756  35.109693     38.744      6.641   196.8079     2.3575     1.7765     0.0239      0.093      3.102      4.499        344 8.8328e+00 0.0000e+00
      3.190    20.2602     0.1186      1.307  35.105167     38.753      6.636   197.1108     2.3211     1.6825     0.0239      0.090      3.128      4.537        345 8.6185e+00 0.0000e+00
      3.216    20.2355     0.0895      0.986  35.057009     38.701      6.633   197.1865     2.3413     1.7630     0.0238      0.091      3.154      4.575        346 8.3687e+00 0.0000e+00
      3.244    20.2174     0.0784      0.863  35.051003     38.720      6.624   197.1865     2.3494     1.8167     0.0238      0.094      3.180      4.612        347 8.1341e+00 0.0000e+00
      3.267    20.2021     0.0760      0.836  35.053336     38.741      6.621   197.3000     2.3130     1.7228     0.0238      0.099      3.203      4.646        348 7.9883e+00 0.0000e+00
      3.288    20.1832     0.0826      0.908  35.054116     38.756      6.616   197.1865     2.2645     1.7630     0.0238      0.102      3.225      4.679        349 7.8026e+00 0.0000e+00
      3.312    20.1613     0.0940      1.033  35.109356     38.831      6.608   197.1486     2.2766     1.7630     0.0239      0.100      3.250      4.714        350 7.5814e+00 0.0000e+00
      3.341    20.1451     0.0974      1.070  35.103229     38.847      6.602   197.4136     2.3009     1.6690     0.0239      0.099      3.279      4.755        351 7.2977e+00 0.0000e+00
      3.377    20.1343     0.1084      1.190  35.061751     38.805      6.594   198.0193     2.2200     1.7362     0.0238      0.101      3.309      4.800        352 7.0818e+00 0.0000e+00
      3.405    20.1133     0.1207      1.325  35.101669     38.881      6.587   198.1329     2.2443     1.6690     0.0239      0.103      3.337      4.840        353 6.9957e+00 0.0000e+00
      3.426    20.0864     0.1276      1.401  35.053560     38.827      6.582   198.1329     2.2281     1.7362     0.0238      0.104      3.359      4.872        354 6.8583e+00 0.0000e+00
      3.446    20.0659     0.1366      1.497  35.002999     38.784      6.577   198.2465     2.2159     1.7630     0.0238      0.104      3.380      4.902        355 6.7328e+00 0.0000e+00
      3.467    20.0461     0.1402      1.536  35.045971     38.869      6.574   197.7543     2.2079     1.6690     0.0239      0.102      3.403      4.935        356 6.5482e+00 0.0000e+00
      3.495    20.0218     0.1495      1.637  35.059410     38.886      6.564   198.1329     2.1674     2.0047     0.0239      0.101      3.429      4.973        357 6.3252e+00 0.0000e+00
      3.526    19.9911     0.1515      1.657  35.164230     39.028      6.559   198.5493     2.1472     1.9779     0.0239      0.101      3.459      5.016        358 6.0692e+00 0.0000e+00
      3.559    19.9634     0.1545      1.689  35.360399     39.266      6.552   199.1172     2.1229     1.9645     0.0240      0.101      3.489      5.061        359 5.8409e+00 0.0000e+00
      3.590    19.9400     0.1535      1.677  35.467765     39.417      6.547   198.8143     2.1634     1.9913     0.0241      0.102      3.519      5.103        360 5.7239e+00 0.0000e+00
      3.615    19.9108     0.1505      1.642  35.653446     39.628      6.542   198.6251     3.7727     2.1927     0.0241      0.105      3.544      5.140        361 5.5433e+00 0.0000e+00
      3.638    19.8913     0.1469      1.601  35.870791     39.928      6.535   198.7008     3.7727     2.3002     0.0243      0.109      3.565      5.171        362 5.4502e+00 0.0000e+00
      3.653    19.8864     0.1445      1.575  35.849780     39.892      6.534   198.8901     3.7525     2.1390     0.0242      0.107      3.584      5.198        363 5.3618e+00 0.0000e+00
      3.674    19.8751     0.1463      1.593  35.827900     39.910      6.530   198.8901     3.7566     2.0450     0.0242      0.103      3.605      5.229        364 5.2069e+00 0.0000e+00
      3.701    19.8429     0.1422      1.547  36.075984     40.163      6.524   199.0793     6.4375     2.3941     0.0243      0.098      3.631      5.266        365 5.0820e+00 0.0000e+00
      3.731    19.8011     0.1405      1.527  36.608775     40.796      6.516   199.7229     6.4092     2.3270     0.0246      0.095      3.661      5.310        366 4.8744e+00 0.0000e+00
      3.767    19.7719     0.1424      1.546  37.330007     41.604      6.507   199.6472     6.4173     2.3673     0.0249      0.096      3.694      5.357        367 4.6818e+00 0.0000e+00
      3.798    19.7331     0.1388      1.506  37.877524     42.299      6.500   199.6851     6.4092     2.1659     0.0252      0.100      3.725      5.403        368 4.5436e+00 0.0000e+00
      3.830    19.6768     0.1385      1.501  38.745239     43.199      6.492   199.8365     7.2665     2.2867     0.0256      0.107      3.756      5.448        369 4.3571e+00 0.0000e+00
      3.863    19.6328     0.1398      1.514  39.661356     44.424      6.480   199.5336     7.3028     2.3136     0.0261      0.114      3.788      5.493        370 4.1728e+00 0.0000e+00
      3.893    19.5935     0.1345      1.457  39.822430     44.481      6.471   200.6315     7.2745     2.3404     0.0261      0.121      3.819      5.538        371 4.0474e+00 0.0000e+00
      3.926    19.5566     0.1366      1.480  40.502647     45.401      6.464   199.9501     7.3190     2.3539     0.0265      0.125      3.850      5.584        372 3.9222e+00 0.0000e+00
      3.960    19.5259     0.1369      1.483  41.099086     46.099      6.456   200.3665     7.1532     2.2464     0.0268      0.126      3.883      5.632        373 3.7393e+00 0.0000e+00
      3.992    19.4908     0.1326      1.437  41.423783     46.420      6.449   200.0258     7.1694     2.2196     0.0269      0.127      3.915      5.679        374 3.6044e+00 0.0000e+00
      4.024    19.4535     0.1313      1.424  41.937917     47.173      6.443   199.8365     7.1775     2.2464     0.0272      0.126      3.948      5.726        375 3.4623e+00 0.0000e+00
      4.061    19.4116     0.1314      1.426  42.595323     47.746      6.434   199.3822     7.1532     2.3404     0.0274      0.128      3.982      5.776        376 3.3112e+00 0.0000e+00
      4.097    19.3713     0.1286      1.397  43.631856     49.200      6.426   200.7451     7.1735     2.2330     0.0280      0.130      4.018      5.827        377 3.2063e+00 0.0000e+00
      4.133    19.3261     0.1320      1.433  44.505019     49.971      6.419   199.9122     4.4561     2.2062     0.0284      0.133      4.053      5.879        378 3.0398e+00 0.0000e+00
      4.170    19.2709     0.1273      1.382  45.840666     51.749      6.412   199.1172     4.4844     2.0987     0.0291      0.135      4.085      5.926        379 2.9105e+00 0.0000e+00
      4.197    19.2329     0.1274      1.384  46.954676     52.905      6.406   198.2086     4.4723     2.1524     0.0296      0.135      4.110      5.962        380 2.8683e+00 0.0000e+00
      4.209    19.2217     0.1259      1.366  47.213633     53.383      6.401   197.3000     4.4885     2.0450     0.0298      0.129      4.124      5.982        381 2.8739e+00 0.0000e+00
      4.212    19.2214     0.1264      1.370  46.794430     52.859      6.404   196.9215     2.6810     2.4613     0.0295      0.116      4.130      5.989        382 2.8746e+00 0.0000e+00
      4.214    19.2263     0.1228      1.329  46.675166     52.747      6.407   196.5429     2.6486     2.4479     0.0295      0.098      4.132      5.993        383 2.8633e+00 0.0000e+00
      4.216    19.2492     0.1263      1.364  46.590516     52.746      6.411   196.1265     2.6769     2.4479     0.0295      0.076      4.133      5.995        384 2.8886e+00 0.0000e+00
      4.214    19.2890     0.1216      1.313  45.772166     51.667      6.410   195.5586     2.6931     2.5821     0.0290      0.054      4.132      5.993        385 2.8871e+00 0.0000e+00
      4.211    19.3250     0.1222      1.319  45.438376     51.386      6.414   194.5743     2.2038     2.7701     0.0289      0.032      4.131      5.992        386 2.8713e+00 0.0000e+00
      4.214    19.3441     0.1194      1.287  44.988115     50.772      6.417   193.8550     2.2079     2.7164     0.0287      0.015      4.134      5.996        387 2.8671e+00 0.0000e+00
      4.220    19.3469     0.1264      1.361  44.463133     50.131      6.421   193.0979     2.1998     2.7298     0.0284      0.007      4.141      6.007        388 2.8356e+00 0.0000e+00
      4.235    19.3475     0.1239      1.333  44.578415     50.268      6.425   192.8329     2.2079     2.6090     0.0285      0.008      4.156      6.028        389 2.7663e+00 0.0000e+00
      4.259    19.3476     0.1285      1.381  44.814961     50.516      6.427   192.7950     2.2159     2.9715     0.0286      0.017      4.176      6.057        390 2.7136e+00 0.0000e+00
      4.279    19.3173     0.1266      1.359  44.880871     50.612      6.429   192.3029     2.2321     2.9447     0.0286      0.029      4.198      6.089        391 2.6745e+00 0.0000e+00
      4.305    19.2588     0.1254      1.344  46.009687     51.775      6.425   193.0222     2.2119     2.9178     0.0291      0.044      4.223      6.125        392 2.5846e+00 0.0000e+00
      4.334    19.1835     0.1245      1.332  47.920597     54.178      6.419   192.9843     2.2079     2.9044     0.0301      0.061      4.248      6.161        393 2.5237e+00 0.0000e+00
      4.356    19.1065     0.1291      1.379  49.565499     55.861      6.414   192.4543     2.4181     3.5490     0.0308      0.075      4.272      6.196        394 2.4738e+00 0.0000e+00
      4.381    19.0582     0.1305      1.392  50.788444     57.633      6.407   192.2272     2.4060     3.5624     0.0316      0.086      4.296      6.231        395 2.3836e+00 0.0000e+00
      4.405    19.0235     0.1335      1.422  51.177050     57.863      6.402   191.5836     2.4424     3.5355     0.0317      0.093      4.321      6.266        396 2.3403e+00 0.0000e+00
      4.430    18.9748     0.1366      1.454  52.050001     59.162      6.395   191.8486     2.4383     3.4952     0.0322      0.096      4.348      6.305        397 2.2867e+00 0.0000e+00
      4.464    18.9154     0.1374      1.462  53.590515     60.766      6.390   192.3786     2.4262     3.4415     0.0329      0.100      4.379      6.351        398 2.1839e+00 0.0000e+00
      4.501    18.8714     0.1374      1.460  54.840499     62.454      6.387   191.7729     2.5354     3.7907     0.0336      0.105      4.413      6.400        399 2.1153e+00 0.0000e+00
      4.533    18.8309     0.1382      1.467  55.333139     62.923      6.384   191.8865     2.5354     3.6832     0.0338      0.110      4.444      6.446        400 2.0619e+00 0.0000e+00
      4.561    18.7685     0.1372      1.454  56.628968     64.516      6.382   191.1293     2.5556     3.8444     0.0345      0.114      4.472      6.486        401 1.9951e+00 0.0000e+00
      4.587    18.6911     0.1335      1.413  58.779790     67.095      6.379   191.6593     2.5637     3.7638     0.0356      0.117      4.500      6.526        402 1.9514e+00 0.0000e+00
      4.618    18.6102     0.1284      1.359  60.405855     68.950      6.374   191.6215     2.3939     4.0189     0.0364      0.119      4.530      6.569        403 1.8850e+00 0.0000e+00
      4.651    18.5410     0.1295      1.370  61.909953     70.897      6.369   190.6750     2.3939     4.0055     0.0373      0.121      4.562      6.616        404 1.8028e+00 0.0000e+00
      4.685    18.4775     0.1278      1.350  62.758048     71.928      6.363   189.9557     2.3898     3.9921     0.0377      0.122      4.595      6.664        405 1.7396e+00 0.0000e+00
      4.718    18.4162     0.1267      1.337  63.478386     72.877      6.354   190.5615     2.3979     3.9384     0.0381      0.122      4.627      6.711        406 1.7052e+00 0.0000e+00
      4.751    18.3673     0.1292      1.362  64.191336     73.853      6.346   189.1986     2.2321     4.2069     0.0385      0.122      4.661      6.760        407 1.6494e+00 0.0000e+00
      4.788    18.3228     0.1267      1.334  64.870533     74.635      6.338   189.8422     2.2079     4.2069     0.0388      0.126      4.696      6.811        408 1.5429e+00 0.0000e+00
      4.827    18.2683     0.1294      1.361  65.781500     75.912      6.334   189.0472     2.2321     4.1264     0.0394      0.131      4.733      6.865        409 1.4775e+00 0.0000e+00
      4.863    18.2004     0.1281      1.346  66.711068     76.895      6.331   189.5393     2.1876     4.2606     0.0398      0.135      4.770      6.918        410 1.4097e+00 0.0000e+00
      4.901    18.1385     0.1272      1.335  67.961366     78.608      6.328   189.7286     2.2766     4.5560     0.0405      0.139      4.805      6.970        411 1.3414e+00 0.0000e+00
      4.938    18.1022     0.1291      1.353  68.384250     79.121      6.326   189.5015     2.2928     4.6098     0.0407      0.141      4.839      7.020        412 1.3052e+00 0.0000e+00
      4.966    18.0790     0.1279      1.339  68.056289     78.879      6.330   187.3436     2.2968     4.5560     0.0406      0.141      4.869      7.062        413 1.2669e+00 0.0000e+00
      4.990    18.0493     0.1293      1.353  68.191325     79.075      6.335   186.7000     2.2806     4.6366     0.0407      0.138      4.895      7.100        414 1.2135e+00 0.0000e+00
      5.018    18.0095     0.1282      1.339  68.780666     79.831      6.339   185.2614     2.5556     4.2606     0.0410      0.132      4.923      7.140        415 1.1394e+00 0.0000e+00
      5.052    17.9515     0.1299      1.355  69.610338     80.830      6.345   183.7850     2.5192     4.1801     0.0415      0.127      4.956      7.187        416 1.0935e+00 0.0000e+00
      5.089    17.8870     0.1336      1.392  70.307874     81.750      6.346   182.6493     2.5233     4.2069     0.0419      0.124      4.991      7.239        417 1.0298e+00 0.0000e+00
      5.128    17.8381     0.1331      1.385  70.824091     82.415      6.352   181.8921     2.5314     4.2338     0.0421      0.124      5.026      7.290        418 9.4327e-01 0.0000e+00
      5.158    17.7884     0.1298      1.349  70.869377     82.671      6.353   180.6807     2.6769     3.8578     0.0422      0.125      5.058      7.336        419 9.1582e-01 0.0000e+00
      5.187    17.7273     0.1310      1.360  71.083455     82.862      6.358   179.8100     2.6607     3.8041     0.0423      0.125      5.087      7.378        420 8.5640e-01 0.0000e+00
      5.216    17.6700     0.1287      1.335  72.310691     84.561      6.359   178.8257     2.6729     3.7235     0.0431      0.127      5.115      7.418        421 8.1622e-01 0.0000e+00
      5.243    17.6094     0.1302      1.349  72.788701     85.175      6.358   177.8793     2.6688     3.8175     0.0433      0.127      5.141      7.456        422 7.9027e-01 0.0000e+00
      5.268    17.5554     0.1364      1.410  72.241628     84.632      6.360   177.2736     2.6850     3.6967     0.0431      0.123      5.166      7.492        423 7.4234e-01 0.0000e+00
      5.293    17.5146     0.1325      1.368  72.070485     84.555      6.359   176.5921     2.9317     3.2535     0.0430      0.117      5.193      7.531        424 7.2180e-01 0.0000e+00
      5.324    17.4561     0.1306      1.347  72.199507     84.830      6.358   175.5700     2.9438     3.2267     0.0431      0.112      5.223      7.576        425 6.7865e-01 0.0000e+00
      5.362    17.3832     0.1296      1.334  72.378239     85.103      6.355   175.2293     2.9357     3.1730     0.0432      0.111      5.258      7.627        426 6.4426e-01 0.0000e+00
      5.399    17.3152     0.1337      1.374  72.650341     85.554      6.350   172.8064     2.9519     3.1730     0.0434      0.115      5.293      7.678        427 6.0798e-01 0.0000e+00
      5.432    17.2596     0.1317      1.352  72.960311     86.063      6.348   170.5728     2.9842     3.3744     0.0436      0.119      5.325      7.724        428 5.8464e-01 0.0000e+00
      5.461    17.2063     0.1303      1.337  73.240508     86.534      6.346   166.1435     3.0004     3.3072     0.0438      0.123      5.354      7.766        429 5.5892e-01 0.0000e+00
      5.487    17.1496     0.1313      1.347  73.430824     86.878      6.349   160.0485     2.9802     3.3878     0.0439      0.125      5.381      7.806        430 5.2812e-01 0.0000e+00
      5.515    17.0917     0.1299      1.332  73.436657     86.988      6.350   156.4142     3.0045     3.3744     0.0440      0.125      5.410      7.846        431 4.9677e-01 0.0000e+00
      5.546    17.0209     0.1298      1.330  73.619586     87.305      6.350   154.0671     3.2673     2.9447     0.0441      0.124      5.440      7.889        432 4.6748e-01 0.0000e+00
      5.579    16.9519     0.1300      1.331  73.827230     87.723      6.354   152.2878     3.2592     2.8776     0.0443      0.122      5.472      7.936        433 4.5658e-01 0.0000e+00
      5.614    16.8892     0.1281      1.308  74.010316     88.005      6.353   150.0921     3.2552     2.9044     0.0444      0.120      5.505      7.985        434 4.4653e-01 0.0000e+00
      5.648    16.8183     0.1266      1.291  74.342685     88.652      6.354   146.6849     3.2471     2.9984     0.0446      0.120      5.538      8.033        435 4.1809e-01 0.0000e+00
      5.681    16.7476     0.1283      1.307  74.542851     88.915      6.358   143.9213     3.3603     2.7164     0.0447      0.123      5.569      8.078        436 4.1201e-01 0.0000e+00
      5.709    16.6800     0.1306      1.329  74.771610     89.438      6.360   141.1577     3.3846     2.7701     0.0449      0.125      5.596      8.117        437 4.0640e-01 0.0000e+00
      5.729    16.6260     0.1293      1.315  75.157562     89.956      6.361   137.7127     3.3967     2.7298     0.0452      0.123      5.618      8.149        438 3.7326e-01 0.0000e+00
      5.750    16.5896     0.1294      1.314  75.697024     90.842      6.366   134.8356     3.3805     2.7433     0.0455      0.118      5.641      8.182        439 3.8682e-01 0.0000e+00
      5.777    16.5697     0.1249      1.267  75.972499     91.229      6.370   131.7313     3.3724     2.7030     0.0457      0.113      5.667      8.219        440 3.5124e-01 0.0000e+00
      5.808    16.5564     0.1268      1.286  75.736029     91.072      6.370   129.0813     3.3724     2.7701     0.0456      0.108      5.696      8.261        441 3.3779e-01 0.0000e+00
      5.839    16.5256     0.1228      1.244  75.842758     91.152      6.372   126.8477     3.3967     2.7030     0.0456      0.106      5.727      8.306        442 3.1397e-01 0.0000e+00
      5.872    16.4641     0.1260      1.275  76.226036     91.783      6.372   124.2734     3.3563     2.7433     0.0459      0.106      5.758      8.352        443 2.7350e-01 0.0000e+00
      5.905    16.3677     0.1225      1.237  76.507224     92.024      6.376   121.5855     3.4007     2.7298     0.0460      0.109      5.790      8.398        444 3.0388e-01 0.0000e+00
      5.937    16.2819     0.1272      1.283  76.978786     92.898      6.377   118.5570     3.3805     2.6896     0.0464      0.114      5.821      8.444        445 2.8937e-01 0.0000e+00
      5.969    16.2332     0.1271      1.280  77.006322     93.019      6.378   116.5127     3.3886     2.7433     0.0464      0.120      5.851      8.486        446 3.0263e-01 0.0000e+00
      5.995    16.1962     0.1255      1.263  76.948549     93.211      6.380   114.5062     3.3684     2.6896     0.0465      0.123      5.877      8.523        447 3.0170e-01 0.0000e+00
      6.014    16.1597     0.1301      1.307  77.110208     93.491      6.384   112.0455     3.4169     2.5956     0.0466      0.120      5.898      8.555        448 2.6936e-01 0.0000e+00
      6.037    16.1202     0.1326      1.331  77.518472     94.050      6.387   109.8877     3.4452     2.6493     0.0468      0.114      5.923      8.591        449 2.6691e-01 0.0000e+00
      6.071    16.0674     0.1366      1.368  77.540149     94.270      6.390   107.5784     3.4452     2.7701     0.0469      0.111      5.953      8.635        450 2.3969e-01 0.0000e+00
      6.104    16.0119     0.1345      1.347  77.558791     94.155      6.391   105.9884     3.4654     2.7701     0.0469      0.109      5.984      8.680        451 2.3049e-01 0.0000e+00
      6.132    15.9733     0.1347      1.348  77.970850     95.095      6.392   103.7169     3.4573     2.6627     0.0473      0.108      6.013      8.721        452 2.0967e-01 0.0000e+00
      6.159    15.9186     0.1304      1.305  77.948741     94.850      6.394   102.1648     3.4210     2.7298     0.0471      0.108      6.040      8.761        453 1.8777e-01 0.0000e+00
      6.187    15.8370     0.1272      1.272  78.596878     96.031      6.396   100.7262     3.4169     2.6627     0.0477      0.109      6.069      8.803        454 2.0550e-01 0.0000e+00
      6.221    15.7665     0.1222      1.222  79.393431     96.910      6.399    98.8333     3.4654     2.7164     0.0480      0.113      6.101      8.849        455 1.8094e-01 0.0000e+00
      6.257    15.7109     0.1215      1.214  79.305542     97.212      6.402    96.8269     3.4493     2.7701     0.0481      0.119      6.135      8.898        456 1.7940e-01 0.0000e+00
      6.289    15.6537     0.1201      1.200  80.251928     98.201      6.403    95.4640     3.5989     2.5419     0.0486      0.121      6.166      8.943        457 2.1004e-01 0.0000e+00
      6.315    15.5909     0.1126      1.124  82.466421    101.503      6.406    94.2526     3.5584     2.4479     0.0500      0.121      6.193      8.982        458 1.9473e-01 0.0000e+00
      6.341    15.5249     0.1160      1.157  83.119097    102.089      6.405    92.5112     3.5625     2.5553     0.0503      0.120      6.219      9.020        459 1.7346e-01 0.0000e+00
      6.370    15.4656     0.1167      1.163  83.393390    102.770      6.408    91.2997     3.5544     2.4881     0.0506      0.119      6.244      9.056        460 1.9356e-01 0.0000e+00
      6.388    15.4249     0.1151      1.147  83.998051    103.624      6.411    89.4826     3.5746     2.5016     0.0509      0.115      6.263      9.083        461 1.7659e-01 0.0000e+00
      6.400    15.3947     0.1082      1.077  83.912594    103.678      6.413    88.2712     3.5706     2.5016     0.0509      0.107      6.275      9.102        462 1.5688e-01 0.0000e+00
      6.410    15.3848     0.1158      1.152  83.856554    103.708      6.419    86.9840     3.5584     2.4613     0.0509      0.094      6.285      9.115        463 1.7064e-01 0.0000e+00
      6.415    15.3952     0.1148      1.141  83.830006    103.754      6.422    85.3940     3.5625     2.4881     0.0510      0.079      6.291      9.125        464 1.6612e-01 0.0000e+00
      6.421    15.3868     0.1174      1.167  83.915937    103.882      6.426    83.9933     3.5180     2.2599     0.0510      0.065      6.298      9.135        465 1.8898e-01 0.0000e+00
      6.432    15.3625     0.1117      1.109  84.403684    104.444      6.431    82.6304     3.5018     2.2330     0.0513      0.054      6.307      9.148        466 1.8512e-01 0.0000e+00
      6.442    15.3317     0.1130      1.122  84.947366    105.192      6.433    81.3811     3.5463     2.3002     0.0516      0.044      6.316      9.161        467 1.4712e-01 0.0000e+00
      6.449    15.2898     0.1130      1.121  85.052905    105.330      6.436    80.2454     3.5059     2.3404     0.0517      0.036      6.324      9.173        468 1.5090e-01 0.0000e+00
      6.457    15.2596     0.1127      1.118  85.342684    105.786      6.440    78.9961     3.5099     2.2464     0.0519      0.033      6.333      9.186        469 1.6646e-01 0.0000e+00
      6.468    15.2420     0.1117      1.106  85.776048    106.460      6.445    77.8983     3.4978     2.2330     0.0522      0.033      6.346      9.203        470 1.6163e-01 0.0000e+00
      6.486    15.2145     0.1067      1.055  85.643446    106.361      6.446    76.9897     3.4897     2.2464     0.0521      0.036      6.362      9.227        471 1.7440e-01 0.0000e+00
      6.508    15.1714     0.1135      1.121  85.864526    106.619      6.451    75.7783     3.5059     2.3673     0.0522      0.043      6.381      9.254        472 1.4815e-01 0.0000e+00
      6.524    15.1319     0.1103      1.088  86.541598    107.663      6.451    74.8697     3.5140     2.5821     0.0527      0.049      6.396      9.278        473 1.3033e-01 0.0000e+00
      6.536    15.1010     0.1198      1.181  86.525385    107.644      6.459    73.4690     3.4897     2.5419     0.0527      0.053      6.411      9.300        474 1.3428e-01 0.0000e+00
      6.555    15.0736     0.1161      1.143  86.330737    107.573      6.456    72.5983     3.5261     2.4210     0.0526      0.058      6.430      9.326        475 1.2968e-01 0.0000e+00
      6.580    15.0509     0.1125      1.107  85.445902    106.574      6.460    71.9547     3.5099     2.5150     0.0521      0.065      6.453      9.358        476 1.4521e-01 0.0000e+00
      6.603    15.0256     0.1141      1.122  84.266871    105.039      6.461    70.7811     3.5180     2.5016     0.0514      0.071      6.476      9.393        477 1.2962e-01 0.0000e+00
      6.629    14.9995     0.1151      1.132  84.081629    105.028      6.462    70.0997     3.5140     2.4881     0.0514      0.077      6.501      9.429        478 1.2339e-01 0.0000e+00
      6.656    14.9752     0.1175      1.154  84.279105    105.199      6.460    69.2290     3.5059     2.5150     0.0515      0.081      6.528      9.468        479 1.2693e-01 0.0000e+00
      6.686    14.9334     0.1116      1.095  83.158994    104.113      6.462    69.1532     3.5018     2.5016     0.0510      0.088      6.558      9.511        480 1.2490e-01 0.0000e+00
      6.720    14.8685     0.1222      1.198  81.194771    101.337      6.461    68.4340     3.5423     2.4747     0.0497      0.097      6.592      9.561        481 1.2580e-01 0.0000e+00
      6.763    14.8029     0.1223      1.198  82.353586    103.125      6.458    67.7525     3.5625     2.4210     0.0505      0.109      6.629      9.615        482 1.2741e-01 0.0000e+00
      6.798    14.7441     0.1205      1.179  84.184320    105.685      6.458    67.2604     3.5867     2.4613     0.0517      0.118      6.663      9.665        483 1.2955e-01 0.0000e+00
      6.825    14.6952     0.1216      1.189  84.624355    106.139      6.460    66.2004     3.5827     2.5150     0.0518      0.124      6.693      9.707        484 1.2661e-01 0.0000e+00
      6.853    14.6589     0.1238      1.210  84.749254    106.826      6.464    65.2161     3.5584     2.4479     0.0521      0.127      6.721      9.748        485 1.3472e-01 0.0000e+00
      6.882    14.6250     0.1221      1.193  85.664159    107.558      6.463    64.3075     3.5544     2.5687     0.0525      0.128      6.749      9.788        486 1.3574e-01 0.0000e+00
      6.911    14.5946     0.1110      1.084  88.302629    111.647      6.466    63.0961     3.5706     2.5687     0.0543      0.127      6.777      9.828        487 1.2620e-01 0.0000e+00
      6.936    14.5792     0.1135      1.108  88.631665    111.672      6.468    62.1497     3.5948     2.5419     0.0543      0.122      6.802      9.865        488 1.2514e-01 0.0000e+00
      6.961    14.5538     0.1142      1.115  88.198378    111.405      6.472    61.3925     3.5908     2.5016     0.0542      0.116      6.829      9.904        489 1.2586e-01 0.0000e+00
      6.992    14.4971     0.1085      1.059  89.496108    113.005      6.472    60.1811     3.7000     2.7164     0.0549      0.111      6.860      9.949        490 1.2555e-01 0.0000e+00
      7.033    14.4368     0.1106      1.079  89.901204    113.747      6.470    59.7268     3.7242     2.5956     0.0552      0.112      6.897     10.003        491 1.2569e-01 0.0000e+00
      7.073    14.3887     0.1027      1.001  89.062197    112.639      6.471    59.5375     3.7081     2.6493     0.0547      0.118      6.934     10.057        492 1.2548e-01 0.0000e+00
      7.106    14.3538     0.1048      1.021  88.785777    112.595      6.469    58.6668     3.7323     2.7164     0.0547      0.123      6.968     10.106        493 1.2559e-01 0.0000e+00
      7.138    14.3278     0.1044      1.017  89.085500    113.055      6.472    57.9475     3.6555     2.3673     0.0549      0.128      6.999     10.151        494 1.2564e-01 0.0000e+00
      7.165    14.3035     0.1035      1.008  89.105578    113.225      6.476    57.7582     3.6636     2.3136     0.0549      0.130      7.027     10.191        495 1.2558e-01 0.0000e+00
      7.192    14.2820     0.1017      0.990  89.206894    113.371      6.479    57.0389     3.6312     2.2464     0.0550      0.131      7.052     10.228        496 1.2558e-01 0.0000e+00
      7.217    14.2647     0.1021      0.993  89.256823    113.584      6.486    56.0546     3.6514     2.2599     0.0551      0.127      7.076     10.262        497 1.2555e-01 0.0000e+00
      7.237    14.2523     0.1056      1.027  89.340846    113.646      6.490    55.4489     3.7202     2.0987     0.0551      0.119      7.098     10.294        498 1.2549e-01 0.0000e+00
      7.259    14.2417     0.1081      1.051  89.488946    114.018      6.496    54.5404     3.7081     2.1390     0.0553      0.109      7.119     10.326        499 1.2562e-01 0.0000e+00
      7.283    14.2295     0.1071      1.040  89.726771    114.197      6.496    53.6696     3.7000     2.1927     0.0553      0.101      7.143     10.360        500 1.2551e-01 0.0000e+00
      7.308    14.2173     0.1039      1.009  90.115472    114.905      6.502    53.2532     3.7040     2.2464     0.0556      0.096      7.168     10.395        501 1.2551e-01 0.0000e+00
      7.335    14.2036     0.1086      1.055  90.402945    115.120      6.504    52.5339     3.6555     2.2196     0.0557      0.094      7.193     10.433        502 1.2550e-01 0.0000e+00
      7.360    14.1843     0.1057      1.026  90.915467    115.977      6.506    51.5875     3.6393     2.2464     0.0561      0.094      7.217     10.468        503 1.2540e-01 0.0000e+00
      7.381    14.1635     0.1050      1.019  91.321525    116.411      6.507    51.0575     3.6434     2.1390     0.0563      0.094      7.239     10.500        504 1.2557e-01 0.0000e+00
      7.404    14.1472     0.1035      1.005  91.206191    116.433      6.511    50.2625     3.6312     2.1122     0.0563      0.094      7.261     10.531        505 1.2561e-01 0.0000e+00
      7.427    14.1319     0.1021      0.991  91.534868    116.746      6.513    49.5811     3.6150     2.0853     0.0565      0.094      7.283     10.563        506 1.2563e-01 0.0000e+00
      7.449    14.1137     0.0981      0.952  92.072419    117.725      6.517    49.0510     3.7000     2.1793     0.0569      0.093      7.304     10.594        507 1.2564e-01 0.0000e+00
      7.468    14.0953     0.0932      0.905  91.399738    116.696      6.515    48.4832     3.7283     2.1659     0.0564      0.091      7.323     10.622        508 1.2550e-01 0.0000e+00
      7.485    14.0749 -9.990e-29 -9.990e-29  90.647066    115.891      6.518    47.6882     3.7040     2.2196     0.0561      0.087      7.342     10.650        509 1.2567e-01 0.0000e+00
      7.509    14.0501 -9.990e-29 -9.990e-29  90.689364    115.946      6.524    47.2339     3.7202     2.1659     0.0561      0.084      7.365     10.682        510 1.2573e-01 0.0000e+00
      7.536    14.0312 -9.990e-29 -9.990e-29  90.782058    116.185      6.525    47.0446     3.7889     2.1390     0.0562      0.084      7.388     10.716        511 1.2553e-01 0.0000e+00
      7.557    14.0231 -9.990e-29 -9.990e-29  91.959280    117.623      6.524    46.1739     3.7687     2.1256     0.0568      0.085      7.408     10.744        512 1.2559e-01 0.0000e+00
      7.568    14.0196 -9.990e-29 -9.990e-29  93.447654    119.871      6.527    45.6060     3.7687     2.1927     0.0578      0.082      7.420     10.761        513 1.2567e-01 0.0000e+00
      7.573    14.0189 -9.990e-29 -9.990e-29  93.004478    119.069      6.530    44.6596     3.7525     2.1390     0.0575      0.076      7.426     10.771        514 1.2555e-01 0.0000e+00
      7.578    14.0151 -9.990e-29 -9.990e-29  93.046151    119.187      6.533    44.3567     3.7727     1.9510     0.0575      0.068      7.432     10.780        515 1.2552e-01 0.0000e+00
      7.587    14.0114 -9.990e-29 -9.990e-29  95.210246    121.991      6.536    43.5996     3.7525     1.9107     0.0588      0.060      7.440     10.792        516 1.2550e-01 0.0000e+00
      7.597    14.0166 -9.990e-29 -9.990e-29  96.766066    124.085      6.536    43.1453     3.7930     1.9645     0.0598      0.051      7.449     10.803        517 1.2554e-01 0.0000e+00
      7.603    14.0211 -9.990e-29 -9.990e-29  95.809838    122.806      6.537    42.3125     3.7606     1.9376     0.0592      0.041      7.455     10.812        518 1.2567e-01 0.0000e+00
      7.606 -9.990e-29 -9.990e-29 -9.990e-29  94.704665    121.243      6.542    42.0853     3.7161     1.9242     0.0585      0.032      7.458     10.817        519 1.2566e-01 0.0000e+00
      7.607 -9.990e-29 -9.990e-29 -9.990e-29  94.780028    121.553      6.547    41.1767     3.7161     1.8705     0.0586      0.026      7.459     10.819        520 1.2565e-01 0.0000e+00
