* Sea-Bird SBE19plus  Data File:
* FileName = C:\R\Reservoirs\Data\DataNotYetUploadedToEDI\Raw_CTD\RawDownloads\100923_bvr50_S8188_0004.hex
* Software version 2.8.0.119
* Temperature SN = 8188
* Conductivity SN = 8188
* System UpLoad Time = Oct 10 2023 15:52:59
* <ApplicationData>
* <Seaterm232>
* <SoftwareVersion>2.8.0.119</SoftwareVersion>
* <BuildDate>07-Nov-2018</BuildDate>
* </Seaterm232>
* </ApplicationData>
* <InstrumentState>
* <HardwareData DeviceType='SBE19plus' SerialNumber='01908188'>
*
*    <Manufacturer>Sea-Bird Electronics, Inc.</Manufacturer>
*
*    <FirmwareVersion>3.1.8</FirmwareVersion>
*
*    <FirmwareDate>Mar  9 2016 16:22:29</FirmwareDate>
*
*    <CommandSetVersion>1.4</CommandSetVersion>
*
*    <PCBAssembly PCBSerialNum='260079' AssemblyNum='41054K'/>
*
*    <PCBAssembly PCBSerialNum='260083' AssemblyNum='41059E'/>
*
*    <PCBAssembly PCBSerialNum='260085' AssemblyNum='41606B'/>
*
*    <PCBAssembly PCBSerialNum='260081' AssemblyNum='41967C'/>
*
*    <MfgDate>30 Mar 2022</MfgDate>
*
*    <InternalSensors>
*
*       <Sensor id='Main Temperature'>
*
*          <type>temperature0</type>
*
*          <SerialNumber>01908188</SerialNumber>
*
*       </Sensor>
*
*       <Sensor id='Main Conductivity'>
*
*          <type>conductivity-0</type>
*
*          <SerialNumber>01908188</SerialNumber>
*
*       </Sensor>
*
*       <Sensor id='Main Pressure'>
*
*          <type>strain-0</type>
*
*          <SerialNumber>12220741</SerialNumber>
*
*       </Sensor>
*
*    </InternalSensors>
*
*    <ExternalSensors>
*
*       <Sensor id='volt 0'>
*
*          <type>CHL</type>
*
*          <SerialNumber>FLNTURT-7096</SerialNumber>
*
*       </Sensor>
*
*       <Sensor id='volt 1'>
*
*          <type>NTU</type>
*
*          <SerialNumber>FLNTURT-7096</SerialNumber>
*
*       </Sensor>
*
*       <Sensor id='volt 2'>
*
*          <type>OXY</type>
*
*          <SerialNumber>43-4269</SerialNumber>
*
*       </Sensor>
*
*       <Sensor id='volt 3'>
*
*          <type>not assigned</type>
*
*          <SerialNumber>not assigned</SerialNumber>
*
*       </Sensor>
*
*       <Sensor id='volt 4'>
*
*          <type>PAR</type>
*
*          <SerialNumber>PARLOGICSW-2209</SerialNumber>
*
*       </Sensor>
*
*       <Sensor id='volt 5'>
*
*          <type>not assigned</type>
*
*          <SerialNumber>not assigned</SerialNumber>
*
*       </Sensor>
*
*       <Sensor id='serial'>
*
*          <type>WETLABS</type>
*
*          <SerialNumber>FL3-7350</SerialNumber>
*
*       </Sensor>
*
*    </ExternalSensors>
*
* </HardwareData>
* <StatusData DeviceType='SBE19plus' SerialNumber='01908188'>
*
*    <DateTime>2023-10-10T15:50:27</DateTime>
*
*    <LoggingState>not logging</LoggingState>
*
*    <EventSummary numEvents='0'/>
*
*    <Power>
*
*       <vMain>12.3</vMain>
*
*       <vLith>8.5</vLith>
*
*       <iMain>61.8</iMain>
*
*       <iPump>47.0</iPump>
*
*       <iExt01>22.4</iExt01>
*
*       <iExt2345>20.3</iExt2345>
*
*       <iSerial>46.2</iSerial>
*
*    </Power>
*
*    <MemorySummary>
*
*       <Bytes>188800</Bytes>
*
*       <Samples>7552</Samples>
*
*       <SamplesFree>2624373</SamplesFree>
*
*       <SampleLength>25</SampleLength>
*
*       <Profiles>5</Profiles>
*
*    </MemorySummary>
*
* </StatusData>
* <ConfigurationData DeviceType='SBE19plus' SerialNumber='01908188'>
*
*    <ProfileMode>
*
*       <ScansToAverage>1</ScansToAverage>
*
*       <MinimumCondFreq>5</MinimumCondFreq>
*
*       <PumpDelay>40</PumpDelay>
*
*       <AutoRun>no</AutoRun>
*
*       <IgnoreSwitch>no</IgnoreSwitch>
*
*    </ProfileMode>
*
*    <Battery>
*
*       <Type>alkaline</Type>
*
*       <CutOff>7.5</CutOff>
*
*    </Battery>
*
*    <DataChannels>
*
*       <ExtVolt0>yes</ExtVolt0>
*
*       <ExtVolt1>yes</ExtVolt1>
*
*       <ExtVolt2>yes</ExtVolt2>
*
*       <ExtVolt3>no</ExtVolt3>
*
*       <ExtVolt4>yes</ExtVolt4>
*
*       <ExtVolt5>no</ExtVolt5>
*
*       <SBE38>no</SBE38>
*
*       <WETLABS>yes</WETLABS>
*
*       <OPTODE>no</OPTODE>
*
*       <SBE63>no</SBE63>
*
*       <SeaFET>no</SeaFET>
*
*       <GTD>no</GTD>
*
*    </DataChannels>
*
*    <EchoCharacters>yes</EchoCharacters>
*
*    <OutputExecutedTag>yes</OutputExecutedTag>
*
*    <OutputFormat>raw HEX</OutputFormat>
*
* </ConfigurationData>
* <CalibrationCoefficients DeviceType='SBE19plus' SerialNumber='01908188'>
*
*    <Calibration format='TEMP1' id='Main Temperature'>
*
*       <SerialNum>01908188</SerialNum>
*
*       <CalDate>21-Aug-22</CalDate>
*
*       <TA0>1.265284e-03</TA0>
*
*       <TA1>2.691806e-04</TA1>
*
*       <TA2>-5.655711e-07</TA2>
*
*       <TA3>1.602369e-07</TA3>
*
*       <TOFFSET>0.000000e+00</TOFFSET>
*
*    </Calibration>
*
*    <Calibration format='WBCOND0' id='Main Conductivity'>
*
*       <SerialNum>01908188</SerialNum>
*
*       <CalDate>21-Aug-22</CalDate>
*
*       <G>-1.009562e+00</G>
*
*       <H>1.439229e-01</H>
*
*       <I>-4.343583e-04</I>
*
*       <J>5.328694e-05</J>
*
*       <CPCOR>-9.570000e-08</CPCOR>
*
*       <CTCOR>3.250000e-06</CTCOR>
*
*       <CSLOPE>1.000000e+00</CSLOPE>
*
*    </Calibration>
*
*    <Calibration format='STRAIN0' id='Main Pressure'>
*
*       <SerialNum>12220741</SerialNum>
*
*       <CalDate>11-Aug-22</CalDate>
*
*       <PA0>1.627942e-01</PA0>
*
*       <PA1>4.835849e-04</PA1>
*
*       <PA2>-3.975488e-12</PA2>
*
*       <PTCA0>5.244803e+05</PTCA0>
*
*       <PTCA1>2.817194e+01</PTCA1>
*
*       <PTCA2>-5.842684e-01</PTCA2>
*
*       <PTCB0>2.522087e+01</PTCB0>
*
*       <PTCB1>5.750000e-04</PTCB1>
*
*       <PTCB2>0.000000e+00</PTCB2>
*
*       <PTEMPA0>-5.709556e+01</PTEMPA0>
*
*       <PTEMPA1>5.248567e+01</PTEMPA1>
*
*       <PTEMPA2>-2.281498e-01</PTEMPA2>
*
*       <POFFSET>-4.700000e-02</POFFSET>
*
*       <PRANGE>1.600000e+02</PRANGE>
*
*    </Calibration>
*
*    <Calibration format='VOLT0' id='Volt 0'>
*
*       <OFFSET>-4.657200e-02</OFFSET>
*
*       <SLOPE>1.248989e+00</SLOPE>
*
*    </Calibration>
*
*    <Calibration format='VOLT0' id='Volt 1'>
*
*       <OFFSET>-4.600800e-02</OFFSET>
*
*       <SLOPE>1.249849e+00</SLOPE>
*
*    </Calibration>
*
*    <Calibration format='VOLT0' id='Volt 2'>
*
*       <OFFSET>-4.668000e-02</OFFSET>
*
*       <SLOPE>1.250379e+00</SLOPE>
*
*    </Calibration>
*
*    <Calibration format='VOLT0' id='Volt 3'>
*
*       <OFFSET>-4.643200e-02</OFFSET>
*
*       <SLOPE>1.251002e+00</SLOPE>
*
*    </Calibration>
*
*    <Calibration format='VOLT0' id='Volt 4'>
*
*       <OFFSET>-4.606100e-02</OFFSET>
*
*       <SLOPE>1.249962e+00</SLOPE>
*
*    </Calibration>
*
*    <Calibration format='VOLT0' id='Volt 5'>
*
*       <OFFSET>-4.642700e-02</OFFSET>
*
*       <SLOPE>1.248530e+00</SLOPE>
*
*    </Calibration>
*
*    <Calibration format='FREQ0' id='external frequency channel'>
*
*       <EXTFREQSF>1.000018e+00</EXTFREQSF>
*
*    </Calibration>
*
* </CalibrationCoefficients>
* <EventCounters DeviceType='SBE19plus' SerialNumber='01908188'>
*
*    <EventSummary numEvents='0'/>
*
* </EventCounters></InstrumentState>
* <Headers>
*
* cast   4 09 Oct 2023 10:36:28 samples 5453 to 6404, avg = 1, stop = mag switch
*
# nquan = 16
# nvalues = 952                         
# units = specified
# name 0 = depFM: Depth [fresh water, m]
# name 1 = dz/dtM: Descent Rate [m/s]
# name 2 = sbeox0Mg/L: Oxygen, SBE 43 [mg/l]
# name 3 = sbeox0PS: Oxygen, SBE 43 [% saturation]
# name 4 = specc: Specific Conductance [uS/cm]
# name 5 = c0uS/cm: Conductivity [uS/cm]
# name 6 = wetCDOM: Fluorescence, WET Labs CDOM [mg/m^3]
# name 7 = flECO-AFL: Fluorescence, WET Labs ECO-AFL/FL [mg/m^3]
# name 8 = flECO-AFL1: Fluorescence, WET Labs ECO-AFL/FL, 2 [mg/m^3]
# name 9 = flECO-AFL2: Fluorescence, WET Labs ECO-AFL/FL, 3 [mg/m^3]
# name 10 = par/sat/log: PAR/Logarithmic, Satlantic
# name 11 = turbWETntu0: Turbidity, WET Labs ECO [NTU]
# name 12 = prdM: Pressure, Strain Gauge [db]
# name 13 = prdE: Pressure, Strain Gauge [psi]
# name 14 = tv290C: Temperature [ITS-90, deg C]
# name 15 = flag:  0.000e+00
# span 0 =     -0.800,      8.723       
# span 1 =     -0.318,      0.125       
# span 2 =    -0.2752,     6.5608       
# span 3 =     -2.645,     65.537       
# span 4 =   -627.484,    231.600       
# span 5 =-450.565820, 161.927532       
# span 6 =    -4.5000,     9.3600       
# span 7 =    -0.3139,     6.5107       
# span 8 =    -2.1300,     1.0650       
# span 9 =    -2.8341,     2.2419       
# span 10 = 1.1590e-01, 1.7255e+03      
# span 11 =    -1.4154,    51.0097      
# span 12 =     -0.785,      8.554      
# span 13 =     -1.138,     12.407      
# span 14 =     9.9533,    17.3172      
# span 15 = 0.0000e+00, 0.0000e+00      
# interval = seconds: 0.25
# start_time = Oct 09 2023 10:36:28 [Instrument's time stamp, header]
# bad_flag = -9.990e-29
# <Sensors count="10" >
#   <sensor Channel="1" >
#     <!-- Count, Temperature -->
#     <TemperatureSensor SensorID="58" >
#       <SerialNumber>8188</SerialNumber>
#       <CalibrationDate>21-Aug-22</CalibrationDate>
#       <A0>1.26528397e-003</A0>
#       <A1>2.69180636e-004</A1>
#       <A2>-5.65571102e-007</A2>
#       <A3>1.60236871e-007</A3>
#       <Slope>1.00000000</Slope>
#       <Offset>0.0000</Offset>
#     </TemperatureSensor>
#   </sensor>
#   <sensor Channel="2" >
#     <!-- Frequency 0, Conductivity -->
#     <ConductivitySensor SensorID="3" >
#       <SerialNumber>8188</SerialNumber>
#       <CalibrationDate>21-Aug-22</CalibrationDate>
#       <UseG_J>1</UseG_J>
#       <!-- Cell const and series R are applicable only for wide range sensors. -->
#       <SeriesR>0.0000</SeriesR>
#       <CellConst>2000.0000</CellConst>
#       <ConductivityType>0</ConductivityType>
#       <Coefficients equation="0" >
#         <A>0.00000000e+000</A>
#         <B>0.00000000e+000</B>
#         <C>0.00000000e+000</C>
#         <D>0.00000000e+000</D>
#         <M>0.0</M>
#         <CPcor>-9.57000000e-008</CPcor>
#       </Coefficients>
#       <Coefficients equation="1" >
#         <G>-1.00956200e+000</G>
#         <H>1.43922862e-001</H>
#         <I>-4.34358337e-004</I>
#         <J>5.32869425e-005</J>
#         <CPcor>-9.57000000e-008</CPcor>
#         <CTcor>3.2500e-006</CTcor>
#         <!-- WBOTC not applicable unless ConductivityType = 1. -->
#         <WBOTC>0.00000000e+000</WBOTC>
#       </Coefficients>
#       <Slope>1.00000000</Slope>
#       <Offset>0.00000</Offset>
#     </ConductivitySensor>
#   </sensor>
#   <sensor Channel="3" >
#     <!-- Count, Pressure, Strain Gauge -->
#     <PressureSensor SensorID="46" >
#       <SerialNumber>8188</SerialNumber>
#       <CalibrationDate>11-Aug-22</CalibrationDate>
#       <PA0>1.62794185e-001</PA0>
#       <PA1>4.83584930e-004</PA1>
#       <PA2>-3.97548787e-012</PA2>
#       <PTEMPA0>-5.70955636e+001</PTEMPA0>
#       <PTEMPA1>5.24856726e+001</PTEMPA1>
#       <PTEMPA2>-2.28149804e-001</PTEMPA2>
#       <PTCA0>5.24480263e+005</PTCA0>
#       <PTCA1>2.81719406e+001</PTCA1>
#       <PTCA2>-5.84268386e-001</PTCA2>
#       <PTCB0>2.52208750e+001</PTCB0>
#       <PTCB1>5.75000000e-004</PTCB1>
#       <PTCB2>0.00000000e+000</PTCB2>
#       <Offset>0.000000</Offset>
#     </PressureSensor>
#   </sensor>
#   <sensor Channel="4" >
#     <!-- A/D voltage 0, Fluorometer, WET Labs ECO-AFL/FL -->
#     <FluoroWetlabECO_AFL_FL_Sensor SensorID="20" >
#       <SerialNumber>FLNTURT-7096</SerialNumber>
#       <CalibrationDate>01-Sep-2022</CalibrationDate>
#       <ScaleFactor>5.00000000e+001</ScaleFactor>
#       <!-- Dark output -->
#       <Vblank>0.0680</Vblank>
#     </FluoroWetlabECO_AFL_FL_Sensor>
#   </sensor>
#   <sensor Channel="5" >
#     <!-- A/D voltage 1, Turbidity Meter, WET Labs, ECO-NTU -->
#     <TurbidityMeter SensorID="67" >
#       <SerialNumber>FLNTURT-7096</SerialNumber>
#       <CalibrationDate>01-Sep-2022</CalibrationDate>
#       <ScaleFactor>197.000000</ScaleFactor>
#       <!-- Dark output -->
#       <DarkVoltage>0.067000</DarkVoltage>
#     </TurbidityMeter>
#   </sensor>
#   <sensor Channel="6" >
#     <!-- A/D voltage 2, Oxygen, SBE 43 -->
#     <OxygenSensor SensorID="38" >
#       <SerialNumber>4269</SerialNumber>
#       <CalibrationDate>16-Aug-22</CalibrationDate>
#       <Use2007Equation>1</Use2007Equation>
#       <CalibrationCoefficients equation="0" >
#         <!-- Coefficients for Owens-Millard equation. -->
#         <Boc>0.0000</Boc>
#         <Soc>0.0000e+000</Soc>
#         <offset>0.0000</offset>
#         <Pcor>0.00e+000</Pcor>
#         <Tcor>0.0000</Tcor>
#         <Tau>0.0</Tau>
#       </CalibrationCoefficients>
#       <CalibrationCoefficients equation="1" >
#         <!-- Coefficients for Sea-Bird equation - SBE calibration in 2007 and later. -->
#         <Soc>4.2506e-001</Soc>
#         <offset>-0.4922</offset>
#         <A>-4.5893e-003</A>
#         <B> 1.8653e-004</B>
#         <C>-2.0781e-006</C>
#         <D0> 2.5826e+000</D0>
#         <D1> 1.92634e-004</D1>
#         <D2>-4.64803e-002</D2>
#         <E> 3.6000e-002</E>
#         <Tau20> 2.3100</Tau20>
#         <H1>-3.3000e-002</H1>
#         <H2> 5.0000e+003</H2>
#         <H3> 1.4500e+003</H3>
#       </CalibrationCoefficients>
#     </OxygenSensor>
#   </sensor>
#   <sensor Channel="7" >
#     <!-- A/D voltage 3, PAR/Logarithmic, Satlantic -->
#     <PARLog_SatlanticSensor SensorID="76" >
#       <SerialNumber>2209</SerialNumber>
#       <CalibrationDate>14-Jan-2022</CalibrationDate>
#       <a0>9.8861e-001</a0>
#       <a1>8.0845e-001</a1>
#       <Im>1.3589e+000</Im>
#       <Multiplier>1.0000e+000</Multiplier>
#     </PARLog_SatlanticSensor>
#   </sensor>
#   <sensor Channel="8" >
#     <!-- Serial RS-232, Fluorometer, WET Labs ECO-AFL/FL, 2 -->
#     <FluoroWetlabECO_AFL_FL_Sensor SensorID="20" >
#       <SerialNumber>FL3-7350</SerialNumber>
#       <CalibrationDate>10-Mar-2022</CalibrationDate>
#       <ScaleFactor>4.26000000e-002</ScaleFactor>
#       <!-- Dark output -->
#       <Vblank>50.0000</Vblank>
#     </FluoroWetlabECO_AFL_FL_Sensor>
#   </sensor>
#   <sensor Channel="9" >
#     <!-- Serial RS-232, Fluorometer, WET Labs ECO-AFL/FL, 3 -->
#     <FluoroWetlabECO_AFL_FL_Sensor SensorID="20" >
#       <SerialNumber>FL3-7350</SerialNumber>
#       <CalibrationDate>10-Mar-2022</CalibrationDate>
#       <ScaleFactor>4.23000000e-002</ScaleFactor>
#       <!-- Dark output -->
#       <Vblank>48.0000</Vblank>
#     </FluoroWetlabECO_AFL_FL_Sensor>
#   </sensor>
#   <sensor Channel="10" >
#     <!-- Serial RS-232, Fluorometer, WET Labs ECO CDOM -->
#     <FluoroWetlabCDOM_Sensor SensorID="19" >
#       <SerialNumber>FL3-7350</SerialNumber>
#       <CalibrationDate>10-Mar-2022</CalibrationDate>
#       <ScaleFactor>0.090</ScaleFactor>
#       <!-- Dark output -->
#       <Vblank>50.000</Vblank>
#     </FluoroWetlabCDOM_Sensor>
#   </sensor>
# </Sensors>
# datcnv_date = Oct 10 2023 16:13:16, 7.26.7.129 [datcnv_vars = 15]
# datcnv_in = C:\R\Reservoirs\Data\DataNotYetUploadedToEDI\Raw_CTD\RawDownloads\100923_bvr50_S8188004.hex C:\R\Reservoirs\Data\DataNotYetUploadedToEDI\Raw_CTD\RawDownloads\SBE19plusV2_8188_start20221003.xmlcon
# datcnv_skipover = 0
# datcnv_ox_hysteresis_correction = yes
# datcnv_ox_tau_correction = yes
# filter_date = Oct 10 2023 16:13:45, 7.26.7.129
# filter_in = C:\R\Reservoirs\Data\DataNotYetUploadedToEDI\Raw_CTD\RawDownloads\100923_bvr50_S8188004.cnv
# filter_low_pass_tc_A = 0.500
# filter_low_pass_tc_B = 1.000
# filter_low_pass_A_vars = sbeox0Mg/L sbeox0PS specc c0uS/cm tv290C
# filter_low_pass_B_vars = depFM dz/dtM prdM prdE
# alignctd_date = Oct 10 2023 16:14:24, 7.26.7.129
# alignctd_in = C:\R\Reservoirs\Data\DataNotYetUploadedToEDI\Raw_CTD\RawDownloads\100923_bvr50_S8188004.cnv
# alignctd_adv = dz/dtM 1.000, sbeox0PS 1.000, specc 1.000, c0uS/cm 1.000, flECO-AFL 1.000, turbWETntu0 1.000                                                                                                                        
# file_type = ascii
*END*
     -0.800 3.1383e-08     6.4878     63.245      0.486   0.381550    -4.5000    -0.0316    -2.1300    -2.0304 4.5188e+02     3.7249     -0.784     -1.137    14.2034 0.0000e+00
     -0.800 4.0349e-08     6.4875     63.256      0.486   0.381565    -4.5000    -0.0239    -2.1300    -2.0304 4.6071e+02     3.6197     -0.784     -1.137    14.2035 0.0000e+00
     -0.800 5.1877e-08     6.4873     63.264      0.484   0.379554    -4.5000    -0.0506    -2.1300    -2.0304 4.4371e+02     3.6949     -0.784     -1.137    14.2036 0.0000e+00
     -0.800 6.6699e-08     6.4876     63.269      0.483   0.378937     0.0000    -0.0850     0.0000     0.0846 4.4352e+02     2.7780     -0.784     -1.138    14.2036 0.0000e+00
     -0.800 8.5756e-08     6.4887     63.271      0.484   0.379548     0.0000    -0.0888     0.0000     0.0846 4.3361e+02     2.8832     -0.784     -1.138    14.2037 0.0000e+00
     -0.800 1.1026e-07     6.4899     63.276      0.481   0.377596     0.0000    -0.0926     0.0000     0.0846 4.3692e+02     2.7480     -0.784     -1.138    14.2037 0.0000e+00
     -0.800 1.4176e-07     6.4907     63.279      0.480   0.376514     0.0000    -0.1193     0.0000     0.0846 4.4016e+02     2.8532     -0.784     -1.138    14.2036 0.0000e+00
     -0.800 1.8226e-07     6.4912     63.276      0.479   0.376015     0.0000    -0.0545     0.0000     0.0846 4.4178e+02     3.4093     -0.784     -1.138    14.2035 0.0000e+00
     -0.800 2.3434e-07     6.4915     63.279      0.474   0.372011     0.0000    -0.0278     0.0000     0.1269 4.4506e+02     3.5746     -0.784     -1.138    14.2034 0.0000e+00
     -0.800 3.0129e-07     6.4920     63.290      0.468   0.367389     0.0000    -0.0468     0.0000     0.1269 4.4477e+02     3.4093     -0.784     -1.138    14.2032 0.0000e+00
     -0.800 3.8738e-07     6.4923     63.299      0.465   0.364870     0.0000    -0.0545     0.0000     0.1269 4.4622e+02     3.4394     -0.784     -1.138    14.2031 0.0000e+00
     -0.800 4.9806e-07     6.4921     63.303      0.463   0.363782     0.0000    -0.0964     0.0000     0.1269 4.3872e+02     2.8532     -0.784     -1.138    14.2029 0.0000e+00
     -0.800 6.4036e-07     6.4924     63.302      0.463   0.363835     0.0000    -0.0850     0.0000     0.1692 4.3606e+02     2.8532     -0.784     -1.138    14.2026 0.0000e+00
     -0.800 8.2332e-07     6.4935     63.297      0.465   0.365044     0.0000    -0.0964     0.0000     0.1692 4.3749e+02     2.7480     -0.784     -1.138    14.2023 0.0000e+00
     -0.800      0.000     6.4945     63.292      0.469   0.367731     0.0000    -0.0850     0.0000     0.1692 4.3872e+02     2.7780     -0.784     -1.138    14.2019 0.0000e+00
     -0.800      0.000     6.4950     63.287      0.475   0.372612     0.0000    -0.0926     0.0000     0.1692 4.3474e+02     2.9133     -0.784     -1.138    14.2016 0.0000e+00
     -0.800      0.000     6.4949     63.282      0.481   0.377035     0.0000    -0.0888     0.0000     0.1269 4.3013e+02     2.9133     -0.784     -1.138    14.2014 0.0000e+00
     -0.800      0.000     6.4944     63.276      0.482   0.378225     0.0000    -0.0926     0.0000     0.1269 4.2883e+02     2.9133     -0.784     -1.138    14.2013 0.0000e+00
     -0.800      0.000     6.4939     63.271      0.485   0.380454     0.0000    -0.0773     0.0000     0.1269 4.2780e+02     2.8983     -0.784     -1.138    14.2013 0.0000e+00
     -0.800      0.000     6.4934     63.266      0.490   0.384316     0.0000    -0.0506     0.0000     0.1269 4.2855e+02     3.2139     -0.784     -1.138    14.2014 0.0000e+00
     -0.800      0.000     6.4929     63.258      0.488   0.382932     0.0000    -0.0392     0.0000     0.0846 4.3201e+02     3.1838     -0.784     -1.138    14.2015 0.0000e+00
     -0.800      0.000     6.4923     63.246      0.479   0.375933     0.0000    -0.0812     0.0000     0.0846 4.3502e+02     3.1989     -0.784     -1.138    14.2015 0.0000e+00
     -0.800      0.000     6.4917     63.240      0.470   0.369362     0.0000    -0.0430     0.0000     0.0846 4.1139e+02     3.1538     -0.784     -1.138    14.2016 0.0000e+00
     -0.800      0.000     6.4913     63.241      0.465   0.365420     0.0000    -0.1002     0.0000     0.0846 4.4496e+02     3.4243     -0.784     -1.138    14.2017 0.0000e+00
     -0.800      0.000     6.4904     63.246      0.462   0.363055     0.0000    -0.0926     0.0000     0.0846 4.3521e+02     3.4995     -0.784     -1.138    14.2017 0.0000e+00
     -0.800      0.000     6.4892     63.253      0.461   0.361638     0.0000    -0.1269     0.0000     0.0000 4.4016e+02     3.4544     -0.784     -1.138    14.2016 0.0000e+00
     -0.800      0.000     6.4885     63.264      0.460   0.360791     0.0000    -0.0773     0.0000     0.0000 4.4836e+02     3.4995     -0.784     -1.138    14.2016 0.0000e+00
     -0.800      0.000     6.4887     63.274      0.459   0.360288     0.0000    -0.1765     0.0000     0.0000 4.2752e+02     2.0716     -0.784     -1.138    14.2016 0.0000e+00
     -0.800      0.000     6.4891     63.274      0.459   0.359995     0.0000    -0.1651     0.0000     0.0000 4.4554e+02     2.0416     -0.784     -1.138    14.2016 0.0000e+00
     -0.800      0.000     6.4898     63.270      0.459   0.359832     0.0000    -0.1498     0.0000     0.1269 4.4934e+02     2.0115     -0.784     -1.138    14.2016 0.0000e+00
     -0.800      0.000     6.4910     63.269      0.459   0.359758     0.0000    -0.1422     0.0000     0.1269 4.5395e+02     2.1017     -0.785     -1.138    14.2016 0.0000e+00
     -0.800      0.000     6.4920     63.269      0.459   0.359752     0.0000     0.0447     0.0000     0.1269 4.2272e+02     4.3863     -0.785     -1.138    14.2016 0.0000e+00
     -0.800      0.000     6.4920     63.272      0.459   0.359813     0.0000     0.0104     0.0000     0.1269 3.7682e+02     4.3412     -0.785     -1.138    14.2014 0.0000e+00
     -0.800      0.000     6.4917     63.280      0.460   0.359957     0.0000     0.0295     0.0000     0.0846 3.2259e+02     4.3562     -0.785     -1.138    14.2010 0.0000e+00
     -0.800      0.000     6.4917     63.290      0.460   0.360223     0.0000     0.0295     0.0000     0.0846 3.5946e+02     4.3863     -0.785     -1.138    14.2004 0.0000e+00
     -0.800      0.000     6.4918     63.302      0.460   0.360680     0.0000    -0.1651     0.0000     0.0846 3.8284e+02     2.3121     -0.785     -1.138    14.1997 0.0000e+00
     -0.800      0.000     6.4922     63.306      0.466   0.365406     0.0000    -0.1689     0.0000     0.0846 3.8778e+02     2.2820     -0.785     -1.138    14.1990 0.0000e+00
     -0.800      0.000     6.4931     63.298      0.479   0.375661     0.0000    -0.1422    -0.0426     0.0423 4.1184e+02     2.2820     -0.785     -1.138    14.1985 0.0000e+00
     -0.800      0.000     6.4942     63.285      0.488   0.382315     0.0000    -0.1689    -0.0426     0.0423 4.9993e+02     2.3722     -0.785     -1.138    14.1980 0.0000e+00
     -0.800      0.001     6.4955     63.276      0.489   0.383191     0.0000    -0.1002    -0.0426     0.0423 9.6804e+02     0.1327     -0.784     -1.138    14.1975 0.0000e+00
     -0.800      0.001     6.4959     63.272      0.488   0.382475     0.0000    -0.1002    -0.0426     0.0423 1.1892e+03     0.1177     -0.784     -1.138    14.1968 0.0000e+00
     -0.800      0.001     6.4953     63.275      0.485   0.379977     0.0000    -0.0888    -0.0426     0.0423 1.1215e+03     0.0726     -0.784     -1.137    14.1957 0.0000e+00
     -0.800      0.001     6.4942     63.288      0.483   0.378984     0.0000    -0.1041    -0.0426     0.0846 1.0893e+03     0.0876     -0.784     -1.137    14.1945 0.0000e+00
     -0.800      0.002     6.4933     63.317      0.488   0.383186     0.0000    -0.1041    -0.0426     0.0846 1.1259e+03    -0.4084     -0.784     -1.137    14.1938 0.0000e+00
     -0.799      0.002     6.4929     63.360      0.501   0.393703     0.0000    -0.1155    -0.0426     0.0846 1.1399e+03    -0.4384     -0.783     -1.136    14.1939 0.0000e+00
     -0.799      0.003     6.4931     63.415      0.525   0.413342     0.0000    -0.0850    -0.0426     0.0846 1.1751e+03    -0.3783     -0.783     -1.136    14.1948 0.0000e+00
     -0.798      0.003     6.4943     63.495      0.561   0.443383     0.0000    -0.0812     0.0000     0.1269 1.3080e+03    -0.3182     -0.782     -1.135    14.1963 0.0000e+00
     -0.797      0.004     6.4970     63.623      0.615   0.487884     0.0000    -0.1002     0.0000     0.1269 1.5022e+03    -0.2430     -0.781     -1.134    14.1982 0.0000e+00
     -0.796      0.005     6.5010     63.838      0.705   0.562666     0.0000    -0.0964     0.0000     0.1269 1.5767e+03    -0.2130     -0.780     -1.132    14.2005 0.0000e+00
     -0.795      0.007     6.5063     63.989      0.861   0.691624     0.0000    -0.1155     0.0000     0.1269 1.6361e+03    -0.1228     -0.779     -1.130    14.2035 0.0000e+00
     -0.793      0.009     6.5139     63.746      1.125   0.909149     0.0000    -0.0850     0.0000     0.4653 1.6884e+03    -0.1228     -0.777     -1.127    14.2076 0.0000e+00
     -0.790      0.012     6.5263     63.059      1.566   1.273247     0.0000    -0.1193     0.0000     0.4653 1.7255e+03    -0.1528     -0.775     -1.124    14.2135 0.0000e+00
     -0.787      0.015     6.5472     62.154      2.304   1.881010     0.0000    -0.1002     0.0000     0.4653 1.6393e+03    -0.0927     -0.772     -1.120    14.2223 0.0000e+00
     -0.784      0.019     6.5608     61.230      3.533   2.894508     0.0000    -0.1117     0.0000     0.4653 1.5953e+03    -0.1378     -0.768     -1.114    14.2362 0.0000e+00
     -0.779      0.025     6.5330     60.427      5.583   4.584008     0.0000    -0.0888     0.0426    -0.0846 1.5523e+03    -0.0777     -0.763     -1.107    14.2584 0.0000e+00
     -0.772      0.032     6.4579     59.856      8.994   7.396089     0.0000     0.6284     0.0426    -0.0846 1.2992e+03     1.5907     -0.757     -1.098    14.2944 0.0000e+00
     -0.764      0.040     6.3574     59.619     14.082  11.604073     0.0000     0.6513     0.0426    -0.0846 1.1973e+03     1.5155     -0.749     -1.086    14.3532 0.0000e+00
     -0.753      0.051     6.2501     59.783     20.114  16.629135     0.0000     0.6513     0.0426    -0.0846 1.1288e+03     1.5606     -0.739     -1.071    14.4500 0.0000e+00
     -0.740      0.062     6.1469     60.296     25.479  21.144330     0.0000     0.6398     0.0426    -0.0846 1.3277e+03     1.5155     -0.726     -1.052    14.6100 0.0000e+00
     -0.723      0.074     6.0545     60.966     29.114  24.248037     1.4400     1.2082    -0.2130    -2.0304 1.3882e+03     3.3342     -0.709     -1.028    14.8713 0.0000e+00
     -0.701      0.084     5.9821     61.613     31.253  26.112741     1.4400     1.2578    -0.2130    -2.0304 1.4600e+03     3.4544     -0.688     -0.998    15.2424 0.0000e+00
     -0.677      0.093     5.9445     62.164     32.521  27.243620     1.4400     1.2426    -0.2130    -2.0304 1.5781e+03     3.5145     -0.663     -0.962    15.6588 0.0000e+00
     -0.650      0.101     5.9464     62.607     33.270  27.930366     1.4400     1.2197    -0.2130    -2.0304 1.5533e+03     3.4995     -0.638     -0.925    16.0382 0.0000e+00
     -0.624      0.108     5.9728     62.952     33.710  28.344235     2.8800     1.4180     0.0426     1.1844 1.5312e+03     3.4694     -0.611     -0.887    16.3458 0.0000e+00
     -0.596      0.114     6.0058     63.217     33.968  28.591634     2.8800     1.4371     0.0426     1.1844 1.5352e+03     3.4694     -0.584     -0.848    16.5836 0.0000e+00
     -0.567      0.119     6.0367     63.432     34.117  28.738536     2.8800     1.4180     0.0426     1.1844 1.5833e+03     3.3943     -0.556     -0.807    16.7637 0.0000e+00
     -0.536      0.123     6.0629     63.628     34.203  28.824116     2.8800     1.4142     0.0426     1.1844 1.6343e+03     3.4995     -0.526     -0.762    16.8967 0.0000e+00
     -0.503      0.125     6.0844     63.827     34.245  28.867236     2.6100     1.9025     0.0426    -0.1692 1.6525e+03     3.3943     -0.493     -0.715    16.9909 0.0000e+00
     -0.468      0.124     6.1020     64.040     34.253  28.875434     2.6100     1.9292     0.0426    -0.1692 1.6811e+03     3.3642     -0.459     -0.666    17.0546 0.0000e+00
     -0.434      0.118     6.1175     64.273     34.240  28.862776     2.6100     1.9101     0.0426    -0.1692 1.6906e+03     3.4544     -0.426     -0.617    17.0960 0.0000e+00
     -0.402      0.109     6.1331     64.523     34.223  28.845684     2.6100     1.9101     0.0426    -0.1692 1.6096e+03     3.3792     -0.394     -0.572    17.1224 0.0000e+00
     -0.374      0.096     6.1504     64.773     34.207  28.833460     2.7900     2.0932     0.0426     0.5922 1.5375e+03     3.4694     -0.367     -0.532    17.1374 0.0000e+00
     -0.352      0.082     6.1703     65.004     34.200  28.832742     2.7900     2.1085     0.0426     0.5922 1.5375e+03     3.5446     -0.344     -0.500    17.1426 0.0000e+00
     -0.333      0.068     6.1930     65.203     34.200  28.841360     2.7900     2.0932     0.0426     0.5922 1.5853e+03     3.5897     -0.327     -0.474    17.1409 0.0000e+00
     -0.319      0.055     6.2174     65.370     34.200  28.851714     2.7900     2.1009     0.0426     0.5922 1.6170e+03     3.4544     -0.313     -0.454    17.1383 0.0000e+00
     -0.308      0.043     6.2412     65.501     34.201  28.862605     2.7900     2.0322     0.0426     0.5922 1.6117e+03     3.4694     -0.302     -0.438    17.1403 0.0000e+00
     -0.300      0.035     6.2623     65.537     34.210  28.876937     2.8800     2.0055     0.0852     0.5922 1.5960e+03     3.4243     -0.294     -0.426    17.1487 0.0000e+00
     -0.293      0.028     6.2798     65.338     34.226  28.894574     2.8800     2.0284     0.0852     0.5922 1.5696e+03     3.4243     -0.287     -0.416    17.1619 0.0000e+00
     -0.287      0.023     6.2940     64.749     34.239  28.908340     2.8800     2.0284     0.0852     0.5922 1.5348e+03     3.4093     -0.281     -0.408    17.1769 0.0000e+00
     -0.282      0.019     6.3048     63.687     34.244  28.913986     2.8800     1.9712     0.0852     0.5922 1.5048e+03     3.4243     -0.277     -0.401    17.1906 0.0000e+00
     -0.278      0.016     6.3070     62.159     34.240  28.913016     2.7900     1.9826     0.0852     0.5499 1.4775e+03     3.4845     -0.273     -0.395    17.2007 0.0000e+00
     -0.274      0.014     6.2869     60.249     34.229  28.905174     2.7900     1.9750     0.0852     0.5499 1.4420e+03     3.4394     -0.269     -0.390    17.2071 0.0000e+00
     -0.271      0.012     6.2298     58.103     34.211  28.892326     2.7900     1.9445     0.0852     0.5499 1.3955e+03     3.4995     -0.266     -0.385    17.2111 0.0000e+00
     -0.268      0.010     6.1273     55.898     34.191  28.878967     2.7900     1.9178     0.0852     0.5499 1.3326e+03     3.4694     -0.263     -0.381    17.2140 0.0000e+00
     -0.265      0.009     5.9800     53.818     34.175  28.869454     2.8800     1.8873     0.0852     0.6345 1.2964e+03     3.4694     -0.260     -0.377    17.2167 0.0000e+00
     -0.263      0.007     5.7959     52.018     34.165  28.865211     2.8800     1.8796     0.0852     0.6345 1.2793e+03     3.3943     -0.258     -0.374    17.2195 0.0000e+00
     -0.262      0.005     5.5891     50.573     34.160  28.865105     2.8800     1.9216     0.0852     0.6345 1.2801e+03     3.3492     -0.257     -0.372    17.2229 0.0000e+00
     -0.261      0.004     5.3765     49.485     34.160  28.869108     2.8800     1.8300     0.0852     0.6345 1.2704e+03     3.4394     -0.256     -0.371    17.2276 0.0000e+00
     -0.260      0.003     5.1758     48.716     34.162  28.874329     2.8800     1.8377     0.0852     0.6345 1.2658e+03     3.4243     -0.256     -0.371    17.2336 0.0000e+00
     -0.260      0.003     5.0020     48.206     34.163  28.878200     2.8800     1.8491     0.0852     0.5499 1.2644e+03     3.4093     -0.255     -0.370    17.2399 0.0000e+00
     -0.259      0.003     4.8624     47.896     34.164  28.881754     2.8800     1.8682     0.0852     0.5499 1.2622e+03     3.3792     -0.254     -0.369    17.2461 0.0000e+00
     -0.259      0.004     4.7573     47.736     34.162  28.881979     2.8800     1.9788     0.0852     0.5499 1.2469e+03     3.4694     -0.254     -0.368    17.2517 0.0000e+00
     -0.258      0.005     4.6828     47.688     34.158  28.878935     2.8800     1.9635     0.0852     0.5499 1.2353e+03     3.4394     -0.253     -0.366    17.2567 0.0000e+00
     -0.256      0.005     4.6333     47.722     34.153  28.875770     2.8800     1.9750     0.0426     0.5922 1.2151e+03     3.5145     -0.251     -0.364    17.2611 0.0000e+00
     -0.254      0.005     4.6031     47.813     34.148  28.871639     2.8800     1.9559     0.0426     0.5922 1.2067e+03     3.4694     -0.249     -0.362    17.2647 0.0000e+00
     -0.253      0.005     4.5875     47.940     34.145  28.869402     2.8800     1.8949     0.0426     0.5922 1.2007e+03     3.3943     -0.248     -0.359    17.2673 0.0000e+00
     -0.252      0.005     4.5828     48.089     34.144  28.868461     2.8800     1.8987     0.0426     0.5922 1.1962e+03     3.4243     -0.247     -0.358    17.2687 0.0000e+00
     -0.251      0.005     4.5859     48.249     34.140  28.864605     2.8800     1.9140     0.0852     0.6345 1.1931e+03     3.4694     -0.246     -0.356    17.2694 0.0000e+00
     -0.249      0.005     4.5946     48.406     34.137  28.860768     2.8800     1.9063     0.0852     0.6345 1.1890e+03     3.5446     -0.245     -0.355    17.2699 0.0000e+00
     -0.248      0.005     4.6068     48.546     34.138  28.859884     2.8800     1.9712     0.0852     0.6345 1.1774e+03     3.2740     -0.244     -0.353    17.2702 0.0000e+00
     -0.247      0.005     4.6212     48.655     34.142  28.861718     2.8800     1.9368     0.0852     0.6345 1.1659e+03     3.1388     -0.242     -0.351    17.2702 0.0000e+00
     -0.245      0.005     4.6365     48.724     34.147  28.862799     2.8800     1.9635     0.0852     0.7191 1.1431e+03     3.3792     -0.240     -0.348    17.2697 0.0000e+00
     -0.243      0.004     4.6518     48.744     34.146  28.859455     2.8800     1.9902     0.0852     0.7191 1.1215e+03     3.1388     -0.239     -0.346    17.2684 0.0000e+00
     -0.242      0.003     4.6655     48.709     34.143  28.854756     2.8800     1.9101     0.0852     0.7191 1.1173e+03     3.5145     -0.238     -0.345    17.2659 0.0000e+00
     -0.241      0.001     4.6764     48.636     34.142  28.851406     2.8800     1.9254     0.0852     0.7191 1.1193e+03     3.4093     -0.237     -0.344    17.2625 0.0000e+00
     -0.241     -0.001     4.6833     48.551     34.141  28.848514     2.8800     1.9216     0.0852     0.7191 1.1207e+03     3.4394     -0.237     -0.344    17.2587 0.0000e+00
     -0.242     -0.003     4.6856     48.460     34.139  28.845307     2.8800     1.9025     0.0426     0.7191 1.1246e+03     3.3792     -0.238     -0.345    17.2549 0.0000e+00
     -0.243     -0.005     4.6825     48.363     34.140  28.844889     2.8800     1.9483     0.0426     0.7191 1.1362e+03     3.2740     -0.239     -0.346    17.2516 0.0000e+00
     -0.245     -0.007     4.6758     48.269     34.144  28.847150     2.8800     1.9941     0.0426     0.7191 1.1556e+03     3.1989     -0.241     -0.349    17.2484 0.0000e+00
     -0.247     -0.008     4.6679     48.188     34.143  28.844772     2.8800     1.9712     0.0426     0.7191 1.1887e+03     3.2139     -0.243     -0.352    17.2454 0.0000e+00
     -0.249     -0.010     4.6595     48.118     34.140  28.841082     2.8800     1.9674     0.0852     0.6345 1.2238e+03     3.2139     -0.245     -0.355    17.2427 0.0000e+00
     -0.252     -0.012     4.6503     48.056     34.144  28.843015     2.8800     2.0932     0.0852     0.6345 1.2647e+03     3.3041     -0.248     -0.359    17.2406 0.0000e+00
     -0.255     -0.015     4.6415     47.992     34.150  28.847127     2.8800     2.1085     0.0852     0.6345 1.2961e+03     3.1688     -0.250     -0.363    17.2390 0.0000e+00
     -0.258     -0.020     4.6338     47.917     34.161  28.854514     2.8800     2.1085     0.0852     0.6345 1.3151e+03     3.2139     -0.254     -0.368    17.2375 0.0000e+00
     -0.263     -0.026     4.6273     47.832     34.183  28.871106     2.8800     2.1085     0.0852     0.6345 1.3303e+03     3.2289     -0.259     -0.375    17.2359 0.0000e+00
     -0.270     -0.034     4.6215     47.735     34.219  28.897368     2.8800     2.0398     0.0852     0.6345 1.3628e+03     3.2740     -0.265     -0.384    17.2341 0.0000e+00
     -0.279     -0.044     4.6156     47.615     34.278  28.942281     2.8800     2.0360     0.0852     0.6345 1.3780e+03     3.3191     -0.274     -0.397    17.2319 0.0000e+00
     -0.291     -0.056     4.6086     47.462     34.393  29.029704     2.8800     2.0437     0.0852     0.6345 1.3876e+03     3.1989     -0.285     -0.414    17.2295 0.0000e+00
     -0.306     -0.070     4.6007     47.273     34.603  29.192846     2.8800     2.0246     0.0426     0.7191 1.3864e+03     3.2440     -0.300     -0.435    17.2264 0.0000e+00
     -0.324     -0.086     4.5918     47.056     34.965  29.477194     2.8800     1.9750     0.0426     0.7191 1.3705e+03     3.5746     -0.318     -0.461    17.2219 0.0000e+00
     -0.347     -0.103     4.5809     46.830     35.564  29.956592     2.8800     1.9902     0.0426     0.7191 1.3988e+03     3.4394     -0.341     -0.494    17.2147 0.0000e+00
     -0.376     -0.118     4.5673     46.621     36.556  30.760858     2.8800     1.9712     0.0426     0.7191 1.4467e+03     3.3943     -0.369     -0.535    17.2028 0.0000e+00
     -0.410     -0.129     4.5508     46.463     38.198  32.100504     2.8800     1.9750     0.0426     0.7191 1.4383e+03     3.3792     -0.402     -0.583    17.1839 0.0000e+00
     -0.448     -0.135     4.5324     46.407     40.898  34.316928     2.8800     1.5783     0.0852     0.7614 1.4181e+03     3.4995     -0.440     -0.638    17.1576 0.0000e+00
     -0.488     -0.135     4.5137     46.494     44.673  37.426894     2.8800     1.5210     0.0852     0.7614 1.3572e+03     3.3642     -0.479     -0.694    17.1257 0.0000e+00
     -0.526     -0.128     4.4971     46.676     48.237  40.356272     2.8800     1.5516     0.0852     0.7614 1.2513e+03     3.4694     -0.516     -0.749    17.0879 0.0000e+00
     -0.560     -0.117     4.4864     46.905     49.983  41.760593     2.8800     1.5439     0.0852     0.7614 1.1978e+03     3.4093     -0.549     -0.796    17.0397 0.0000e+00
     -0.587     -0.102     4.4867     47.253     49.818  41.568607     2.8800     1.5516     0.0852     0.9306 1.1856e+03     3.3642     -0.576     -0.835    16.9794 0.0000e+00
     -0.609     -0.087     4.5014     47.789     48.798  40.672300     2.8800     1.5439     0.0852     0.9306 1.1741e+03     3.3943     -0.598     -0.867    16.9133 0.0000e+00
     -0.628     -0.073     4.5253     48.509     47.690  39.714346     2.8800     1.5592     0.0852     0.9306 1.1426e+03     3.3943     -0.616     -0.893    16.8469 0.0000e+00
     -0.644     -0.060     4.5537     49.401     46.397  38.613636     2.8800     1.5287     0.0852     0.9306 1.0966e+03     3.3943     -0.632     -0.916    16.7818 0.0000e+00
     -0.658     -0.048     4.5933     50.466     44.214  36.781468     2.5200     1.5935     0.0426    -0.4653 1.0684e+03     3.2289     -0.645     -0.936    16.7213 0.0000e+00
     -0.670     -0.037     4.6503     51.708     41.255  34.309518     2.5200     1.6088     0.0426    -0.4653 1.0622e+03     3.1989     -0.657     -0.952    16.6705 0.0000e+00
     -0.678     -0.026     4.7242     53.094     39.125  32.530901     2.5200     1.6011     0.0426    -0.4653 1.0511e+03     3.3492     -0.665     -0.964    16.6323 0.0000e+00
     -0.683     -0.015     4.8137     54.526     38.460  31.973381     2.5200     1.5935     0.0426    -0.4653 1.0530e+03     3.2740     -0.669     -0.971    16.6054 0.0000e+00
     -0.684     -0.003     4.9194     55.876     38.924  32.357562     3.1500     1.5210     0.0426     0.5922 1.0635e+03     3.4394     -0.671     -0.973    16.5869 0.0000e+00
     -0.684      0.008     5.0418     57.057     40.936  34.031398     3.1500     1.5477     0.0426     0.5922 1.0740e+03     3.4995     -0.670     -0.972    16.5739 0.0000e+00
     -0.680      0.019     5.1779     58.032     43.677  36.316468     3.1500     1.5248     0.0426     0.5922 1.0770e+03     3.5295     -0.667     -0.967    16.5653 0.0000e+00
     -0.674      0.030     5.3181     58.781     45.429  37.786282     3.1500     1.5439     0.0426     0.5922 1.0867e+03     3.4995     -0.661     -0.959    16.5606 0.0000e+00
     -0.666      0.041     5.4497     59.293     45.729  38.060333     3.1500     1.5935     0.0426     0.5922 1.1029e+03     3.4394     -0.653     -0.947    16.5599 0.0000e+00
     -0.654      0.053     5.5644     59.579     44.676  37.227552     2.8800     1.6088     0.0852     0.9729 1.1332e+03     3.3943     -0.641     -0.930    16.5639 0.0000e+00
     -0.639      0.064     5.6582     59.679     42.600  35.563066     2.8800     1.5859     0.0852     0.9729 1.1466e+03     3.4995     -0.627     -0.909    16.5738 0.0000e+00
     -0.622      0.076     5.7289     59.650     40.388  33.795605     2.8800     1.6126     0.0852     0.9729 1.1634e+03     3.5145     -0.609     -0.884    16.5928 0.0000e+00
     -0.600      0.086     5.7749     59.547     38.743  32.495603     2.8800     1.8796     0.0852     0.9729 1.2009e+03     3.3943     -0.589     -0.854    16.6260 0.0000e+00
     -0.576      0.094     5.7960     59.414     37.731  31.712445     2.9700     1.9025     0.0852     0.4230 1.2164e+03     3.3792     -0.565     -0.819    16.6817 0.0000e+00
     -0.549      0.100     5.7959     59.280     37.202  31.318473     2.9700     1.9025     0.0852     0.4230 1.2345e+03     3.4995     -0.539     -0.781    16.7639 0.0000e+00
     -0.521      0.103     5.7813     59.165     36.968  31.159129     2.9700     1.8949     0.0852     0.4230 1.2507e+03     3.3943     -0.511     -0.741    16.8619 0.0000e+00
     -0.493      0.103     5.7598     59.082     36.815  31.057276     2.9700     1.9864     0.0852     0.4230 1.2627e+03     3.4845     -0.484     -0.702    16.9570 0.0000e+00
     -0.467      0.102     5.7373     59.039     36.666  30.950115     2.8800     1.9407     0.0852     0.6345 1.2710e+03     3.4845     -0.458     -0.664    17.0373 0.0000e+00
     -0.442      0.100     5.7169     59.041     36.532  30.848672     2.8800     1.9597     0.0852     0.6345 1.2715e+03     3.3041     -0.433     -0.628    17.1003 0.0000e+00
     -0.417      0.097     5.7002     59.079     36.400  30.739755     2.8800     1.9788     0.0852     0.6345 1.2652e+03     3.3492     -0.409     -0.593    17.1473 0.0000e+00
     -0.392      0.094     5.6881     59.150     36.280  30.633923     2.8800     2.1505     0.0852     0.6345 1.2488e+03     3.5596     -0.385     -0.558    17.1813 0.0000e+00
     -0.367      0.088     5.6812     59.252     36.180  30.540573     2.8800     2.1543     0.0852     0.5499 1.2117e+03     3.4694     -0.361     -0.523    17.2049 0.0000e+00
     -0.344      0.082     5.6796     59.376     36.064  30.434811     2.8800     2.1581     0.0852     0.5499 1.1733e+03     3.5145     -0.337     -0.489    17.2189 0.0000e+00
     -0.322      0.074     5.6829     59.515     35.898  30.292393     2.8800     2.1810     0.0852     0.5499 1.1303e+03     3.4243     -0.317     -0.459    17.2224 0.0000e+00
     -0.305      0.065     5.6905     59.664     35.664  30.099102     2.8800     2.1657     0.0852     0.5499 1.1305e+03     3.4845     -0.299     -0.434    17.2156 0.0000e+00
     -0.290      0.056     5.7018     59.783     35.369  29.860814     2.8800     2.1505     0.0852     0.5499 1.1315e+03     3.4394     -0.285     -0.413    17.2030 0.0000e+00
     -0.278      0.048     5.7151     59.791     35.076  29.626846     2.8800     2.1581     0.0426     0.6345 1.1154e+03     3.4394     -0.273     -0.396    17.1922 0.0000e+00
     -0.267      0.041     5.7289     59.614     34.849  29.449644     2.8800     2.1276     0.0426     0.6345 1.1079e+03     3.4093     -0.263     -0.381    17.1888 0.0000e+00
     -0.258      0.034     5.7424     59.187     34.695  29.331454     2.8800     2.1581     0.0426     0.6345 1.1103e+03     3.4394     -0.254     -0.368    17.1950 0.0000e+00
     -0.250      0.028     5.7521     58.455     34.583  29.246700     2.8800     2.1581     0.0426     0.6345 4.2318e+02     3.3943     -0.245     -0.356    17.2100 0.0000e+00
     -0.243      0.022     5.7506     57.412     34.495  29.180699     2.9700     2.1352     0.0426     0.6345 8.1552e+02     3.3191     -0.239     -0.346    17.2297 0.0000e+00
     -0.238      0.017     5.7313     56.106     34.425  29.127732     2.9700     2.1962     0.0426     0.6345 6.5996e+02     3.5295     -0.234     -0.339    17.2495 0.0000e+00
     -0.236      0.012     5.6882     54.630     34.365  29.081595     2.9700     2.1123     0.0426     0.6345 7.7694e+02     3.4995     -0.231     -0.335    17.2668 0.0000e+00
     -0.234      0.008     5.6162     53.101     34.324  29.049782     2.9700     2.0818     0.0426     0.6345 7.9643e+02     3.5295     -0.230     -0.333    17.2814 0.0000e+00
     -0.234      0.005     5.5146     51.633     34.310  29.039649     2.8800     2.0818     0.0852     0.6768 7.8937e+02     3.4394     -0.229     -0.332    17.2933 0.0000e+00
     -0.233      0.004     5.3881     50.317     34.310  29.040575     2.8800     2.1200     0.0852     0.6768 7.9418e+02     3.4544     -0.228     -0.331    17.3026 0.0000e+00
     -0.232      0.003     5.2456     49.215     34.315  29.044888     2.8800     2.2153     0.0852     0.6768 7.5040e+02     3.4845     -0.227     -0.330    17.3091 0.0000e+00
     -0.231      0.003     5.0983     48.359     34.321  29.049777     2.8800     2.2153     0.0852     0.6768 7.8084e+02     3.4243     -0.227     -0.329    17.3133 0.0000e+00
     -0.231      0.003     4.9571     47.737     34.320  29.048626     2.8800     2.2039     0.0852     0.6768 7.6389e+02     3.5295     -0.226     -0.328    17.3157 0.0000e+00
     -0.230      0.003     4.8306     47.303     34.307  29.037170     2.8800     2.2229     0.0852     0.6768 7.6190e+02     3.4394     -0.226     -0.328    17.3169 0.0000e+00
     -0.230      0.003     4.7248     47.013     34.288  29.020272     2.8800     2.2115     0.0852     0.6768 7.4942e+02     3.5145     -0.225     -0.327    17.3172 0.0000e+00
     -0.229      0.004     4.6427     46.823     34.276  29.009266     2.8800     2.2077     0.0852     0.6768 7.4422e+02     3.3642     -0.224     -0.325    17.3168 0.0000e+00
     -0.227      0.005     4.5830     46.690     34.276  29.009136     2.8800     2.2497     0.0852     0.6768 7.4148e+02     3.4394     -0.223     -0.323    17.3161 0.0000e+00
     -0.226      0.005     4.5414     46.578     34.280  29.011928     2.8800     2.2306     0.0852     0.5922 7.3426e+02     3.4995     -0.222     -0.321    17.3151 0.0000e+00
     -0.224      0.005     4.5137     46.459     34.274  29.006507     2.8800     2.2001     0.0852     0.5922 7.3570e+02     3.5295     -0.220     -0.319    17.3140 0.0000e+00
     -0.223      0.005     4.4955     46.331     34.261  28.995386     2.8800     2.1047     0.0852     0.5922 7.9782e+02     3.5596     -0.219     -0.317    17.3130 0.0000e+00
     -0.221      0.005     4.4829     46.201     34.247  28.983521     2.8800     2.0932     0.0852     0.5922 7.9126e+02     3.4394     -0.217     -0.315    17.3122 0.0000e+00
     -0.220      0.005     4.4721     46.070     34.233  28.971708     2.9700     2.0932     0.0852     0.6768 6.6211e+02     3.5446     -0.216     -0.313    17.3118 0.0000e+00
     -0.219      0.004     4.4608     45.933     34.229  28.968674     2.9700     2.0971     0.0852     0.6768 6.5781e+02     3.5145     -0.215     -0.311    17.3116 0.0000e+00
     -0.218      0.003     4.4484     45.786     34.235  28.973611     2.9700     2.1581     0.0852     0.6768 6.9604e+02     3.4394     -0.214     -0.310    17.3116 0.0000e+00
     -0.217      0.002     4.4359     45.634     34.234  28.971997     2.9700     2.1505     0.0852     0.6768 6.7931e+02     3.5145     -0.213     -0.309    17.3116 0.0000e+00
     -0.217      0.001     4.4234     45.482     34.219  28.959442     2.8800     2.1428     0.0852     0.6345 6.7036e+02     3.4093     -0.213     -0.308    17.3115 0.0000e+00
     -0.217      0.000     4.4102     45.334     34.207  28.948436     2.8800     2.1619     0.0852     0.6345 6.6833e+02     3.3943     -0.213     -0.308    17.3114 0.0000e+00
     -0.217     -0.001     4.3961     45.188     34.207  28.947924     2.8800     2.1543     0.0852     0.6345 6.8123e+02     3.2289     -0.213     -0.309    17.3111 0.0000e+00
     -0.217     -0.001     4.3816     45.040     34.210  28.949850     2.8800     2.1581     0.0852     0.6345 7.1164e+02     3.2740     -0.213     -0.309    17.3108 0.0000e+00
     -0.218     -0.002     4.3670     44.893     34.212  28.950767     2.8800     2.1657     0.0852     0.6345 7.2004e+02     3.1989     -0.214     -0.310    17.3105 0.0000e+00
     -0.219     -0.002     4.3528     44.759     34.214  28.950921     2.8800     2.1276     0.0852     0.6768 7.7005e+02     3.1989     -0.214     -0.311    17.3100 0.0000e+00
     -0.220     -0.002     4.3389     44.635     34.205  28.942432     2.8800     2.3374     0.0852     0.6768 8.1128e+02     3.4995     -0.215     -0.312    17.3093 0.0000e+00
     -0.220     -0.002     4.3247     44.518     34.194  28.930956     2.8800     2.3107     0.0852     0.6768 8.1057e+02     3.4995     -0.216     -0.313    17.3082 0.0000e+00
     -0.221     -0.002     4.3108     44.405     34.189  28.925313     2.8800     2.3298     0.0852     0.6768 8.1393e+02     3.4243     -0.216     -0.314    17.3068 0.0000e+00
     -0.221     -0.002     4.2980     44.293     34.180  28.916077     2.8800     2.3336     0.0852     0.7614 8.1463e+02     3.3943     -0.217     -0.315    17.3050 0.0000e+00
     -0.222     -0.002     4.2863     44.187     34.163  28.900787     2.8800     2.2725     0.0852     0.7614 8.1623e+02     3.4093     -0.217     -0.315    17.3029 0.0000e+00
     -0.222     -0.001     4.2753     44.096     34.154  28.891203     2.8800     2.2725     0.0852     0.7614 8.1907e+02     3.4845     -0.218     -0.316    17.3007 0.0000e+00
     -0.223     -0.001     4.2646     44.013     34.152  28.888729     2.8800     2.2916     0.0852     0.7614 8.2353e+02     3.3943     -0.218     -0.316    17.2984 0.0000e+00
     -0.223     -0.001     4.2541     43.924     34.149  28.884787     2.9700     2.2649     0.0852     0.7614 8.2515e+02     3.3642     -0.218     -0.317    17.2961 0.0000e+00
     -0.223     -0.001     4.2441     43.823     34.142  28.878324     2.9700     2.2802     0.0852     0.7614 8.3036e+02     3.5295     -0.219     -0.317    17.2938 0.0000e+00
     -0.223     -0.000     4.2355     43.709     34.136  28.871578     2.9700     2.2916     0.0852     0.7614 8.3325e+02     3.4694     -0.219     -0.317    17.2917 0.0000e+00
     -0.223      0.000     4.2277     43.581     34.127  28.862750     2.9700     2.3107     0.0852     0.7614 8.3597e+02     3.4694     -0.219     -0.318    17.2900 0.0000e+00
     -0.223      0.001     4.2193     43.441     34.123  28.857403     2.8800     2.2764     0.0852     0.8037 8.4016e+02     3.3642     -0.219     -0.318    17.2883 0.0000e+00
     -0.223      0.001     4.2098     43.290     34.131  28.862033     2.8800     2.2611     0.0852     0.8037 8.4474e+02     3.3642     -0.219     -0.317    17.2866 0.0000e+00
     -0.223      0.002     4.1990     43.128     34.142  28.869955     2.8800     2.2764     0.0852     0.8037 8.5100e+02     3.3943     -0.218     -0.317    17.2848 0.0000e+00
     -0.222      0.003     4.1868     42.963     34.146  28.871401     2.8800     2.2802     0.0852     0.8037 8.6086e+02     3.4544     -0.218     -0.316    17.2827 0.0000e+00
     -0.222      0.004     4.1736     42.802     34.143  28.866756     2.8800     2.2497     0.0852     0.8037 8.7292e+02     3.3492     -0.217     -0.315    17.2802 0.0000e+00
     -0.221      0.005     4.1594     42.647     34.140  28.862703     2.9700     2.3946     0.0852     0.6768 8.8188e+02     3.4995     -0.216     -0.314    17.2775 0.0000e+00
     -0.220      0.007     4.1441     42.501     34.142  28.862119     2.9700     2.3870     0.0852     0.6768 8.8977e+02     3.4995     -0.215     -0.312    17.2748 0.0000e+00
     -0.218      0.009     4.1284     42.366     34.148  28.864849     2.9700     2.3755     0.0852     0.6768 8.9171e+02     3.4694     -0.214     -0.310    17.2721 0.0000e+00
     -0.215      0.012     4.1131     42.239     34.158  28.871620     2.9700     2.3984     0.0852     0.6768 8.9559e+02     3.3642     -0.211     -0.306    17.2695 0.0000e+00
     -0.212      0.016     4.0985     42.118     34.175  28.884240     2.9700     2.2687     0.0426     0.7191 8.9734e+02     3.4394     -0.208     -0.302    17.2668 0.0000e+00
     -0.208      0.022     4.0847     42.006     34.192  28.898152     2.9700     2.2878     0.0426     0.7191 9.0027e+02     3.3943     -0.204     -0.296    17.2639 0.0000e+00
     -0.203      0.028     4.0720     41.908     34.200  28.905187     2.9700     2.2802     0.0426     0.7191 9.0086e+02     3.3642     -0.199     -0.288    17.2607 0.0000e+00
     -0.195      0.035     4.0600     41.833     34.203  28.907222     2.9700     2.2802     0.0426     0.7191 8.9890e+02     3.5295     -0.192     -0.278    17.2575 0.0000e+00
     -0.186      0.042     4.0486     41.783     34.205  28.908760     2.8800     2.4747     0.0426     0.8460 8.7939e+02     3.5295     -0.182     -0.264    17.2552 0.0000e+00
     -0.173      0.048     4.0379     41.763     34.204  28.906250     2.8800     2.4556     0.0426     0.8460 5.7803e+02     3.4694     -0.170     -0.246    17.2543 0.0000e+00
     -0.159      0.053     4.0285     41.773     34.198  28.899022     2.8800     2.4671     0.0426     0.8460 3.5089e+02     3.4845     -0.156     -0.226    17.2544 0.0000e+00
     -0.143      0.055     4.0213     41.822     34.195  28.893070     2.8800     2.4556     0.0426     0.8460 3.1821e+02     3.4544     -0.140     -0.203    17.2544 0.0000e+00
     -0.127      0.055     4.0166     41.926     34.192  28.886806     2.8800     2.6311     0.0852     0.8037 2.7200e+02     3.5145     -0.125     -0.181    17.2536 0.0000e+00
     -0.113      0.053     4.0148     42.083     34.187  28.878558     2.8800     2.6502     0.0852     0.8037 2.5132e+02     3.3041     -0.110     -0.160    17.2516 0.0000e+00
     -0.099      0.050     4.0160     42.281     34.183  28.874048     2.8800     2.6311     0.0852     0.8037 2.4464e+02     3.4694     -0.098     -0.141    17.2483 0.0000e+00
     -0.088      0.048     4.0212     42.523     34.184  28.876031     2.8800     2.6655     0.0852     0.8037 2.3220e+02     3.4243     -0.086     -0.125    17.2433 0.0000e+00
     -0.077      0.048     4.0317     42.781     34.187  28.881076     2.8800     2.4938     0.0852     0.8037 2.6604e+02     3.4694     -0.076     -0.110    17.2373 0.0000e+00
     -0.067      0.049     4.0471     43.012     34.187  28.882611     2.9700     2.5396     0.0426     0.7614 2.6906e+02     3.4394     -0.066     -0.095    17.2323 0.0000e+00
     -0.056      0.053     4.0664     43.228     34.184  28.881045     2.9700     2.5205     0.0426     0.7614 2.9121e+02     3.4694     -0.054     -0.079    17.2303 0.0000e+00
     -0.042      0.057     4.0895     43.459     34.189  28.883879     2.9700     2.5358     0.0426     0.7614 2.8169e+02     3.4394     -0.041     -0.059    17.2317 0.0000e+00
     -0.026      0.061     4.1141     43.716     34.200  28.891869     2.9700     2.6960     0.0426     0.7614 2.5970e+02     3.4995     -0.025     -0.036    17.2352 0.0000e+00
     -0.009      0.066     4.1360     44.016     34.205  28.895266     2.8800     2.6998     0.0852     0.7614 2.4252e+02     3.5746     -0.008     -0.012    17.2384 0.0000e+00
      0.009      0.070     4.1568     44.365     34.199  28.891016     2.8800     2.7151     0.0852     0.7614 2.1760e+02     3.4394      0.009      0.013    17.2390 0.0000e+00
      0.027      0.074     4.1791     44.749     34.190  28.885905     2.8800     2.6731     0.0852     0.7614 2.2272e+02     3.4243      0.026      0.038    17.2375 0.0000e+00
      0.045      0.077     4.2039     45.145     34.181  28.882531     2.8800     2.7837     0.0852     0.7614 2.0717e+02     3.4394      0.045      0.064    17.2357 0.0000e+00
      0.066      0.080     4.2328     45.516     34.174  28.879994     2.8800     2.7723     0.0852     0.8037 1.9350e+02     3.3642      0.065      0.093    17.2350 0.0000e+00
      0.087      0.082     4.2663     45.806     34.172  28.881578     2.8800     2.7723     0.0852     0.8037 1.9050e+02     3.3943      0.086      0.124    17.2362 0.0000e+00
      0.110      0.083     4.3029     45.980     34.175  28.887703     2.8800     2.7799     0.0852     0.8037 1.8427e+02     3.4694      0.108      0.156    17.2399 0.0000e+00
      0.132      0.083     4.3405     46.029     34.171  28.888126     2.8800     2.8066     0.0852     0.8037 1.8303e+02     3.3943      0.129      0.187    17.2451 0.0000e+00
      0.153      0.081     4.3757     45.955     34.162  28.882959     2.9700     2.8295     0.0852     0.8037 1.8511e+02     3.3943      0.150      0.217    17.2504 0.0000e+00
      0.173      0.078     4.4032     45.774     34.159  28.882703     2.9700     2.8448     0.0852     0.8037 1.8153e+02     3.3642      0.170      0.246    17.2556 0.0000e+00
      0.193      0.075     4.4194     45.516     34.167  28.891250     2.9700     2.8448     0.0852     0.8037 1.7605e+02     3.3943      0.189      0.274    17.2607 0.0000e+00
      0.211      0.072     4.4237     45.210     34.180  28.902960     2.9700     3.0050     0.0852     0.8037 1.7479e+02     3.4394      0.207      0.301    17.2655 0.0000e+00
      0.229      0.069     4.4162     44.883     34.182  28.905116     2.9700     3.0240     0.0852     0.8037 1.7171e+02     3.3492      0.225      0.326    17.2699 0.0000e+00
      0.246      0.066     4.3984     44.553     34.169  28.894334     2.9700     2.9859     0.0852     0.8037 1.6711e+02     3.5295      0.242      0.350    17.2734 0.0000e+00
      0.262      0.063     4.3734     44.231     34.152  28.879617     2.9700     3.0012     0.0852     0.8037 1.6440e+02     3.6197      0.258      0.374    17.2756 0.0000e+00
      0.278      0.060     4.3439     43.926     34.140  28.868920     2.9700     2.9592     0.0852     0.8037 1.5765e+02     3.4995      0.273      0.396    17.2768 0.0000e+00
      0.293      0.058     4.3124     43.641     34.133  28.863351     2.9700     2.9249     0.0852     0.8037 1.5636e+02     3.3943      0.287      0.417    17.2773 0.0000e+00
      0.307      0.057     4.2807     43.381     34.131  28.861424     2.9700     2.9592     0.0852     0.7614 1.5141e+02     3.4394      0.301      0.437    17.2773 0.0000e+00
      0.321      0.056     4.2498     43.146     34.128  28.858665     2.9700     2.9668     0.0852     0.7614 1.4945e+02     3.5295      0.315      0.457    17.2770 0.0000e+00
      0.335      0.056     4.2205     42.934     34.118  28.850380     2.9700     2.9439     0.0852     0.7614 1.4661e+02     3.5446      0.328      0.477    17.2766 0.0000e+00
      0.349      0.057     4.1932     42.744     34.108  28.842278     2.9700     2.9516     0.0852     0.7614 1.4626e+02     3.3943      0.342      0.496    17.2763 0.0000e+00
      0.363      0.059     4.1682     42.577     34.103  28.840119     2.8800     2.9859     0.0852     0.8883 1.4161e+02     3.3943      0.356      0.517    17.2760 0.0000e+00
      0.378      0.060     4.1457     42.434     34.100  28.839366     2.8800     2.9401     0.0852     0.8883 1.3573e+02     3.5295      0.371      0.539    17.2758 0.0000e+00
      0.394      0.062     4.1253     42.309     34.098  28.839819     2.8800     2.9783     0.0852     0.8883 1.2853e+02     3.3792      0.387      0.561    17.2760 0.0000e+00
      0.411      0.063     4.1069     42.197     34.102  28.845559     2.8800     2.9592     0.0852     0.8883 1.2133e+02     3.5446      0.403      0.585    17.2770 0.0000e+00
      0.427      0.063     4.0908     42.096     34.109  28.854157     2.9700     2.9592     0.0852     0.8037 1.1407e+02     3.4694      0.419      0.608    17.2790 0.0000e+00
      0.443      0.064     4.0768     42.007     34.118  28.863946     2.9700     2.9363     0.0852     0.8037 1.0806e+02     3.4544      0.435      0.630    17.2817 0.0000e+00
      0.459      0.063     4.0645     41.938     34.126  28.873576     2.9700     3.0813     0.0852     0.8037 1.0224e+02     3.5295      0.450      0.653    17.2849 0.0000e+00
      0.476      0.063     4.0535     41.886     34.133  28.881656     2.9700     3.1118     0.0852     0.8037 9.6580e+01     3.3943      0.466      0.676    17.2886 0.0000e+00
      0.492      0.062     4.0434     41.855     34.146  28.894300     2.9700     3.0508     0.0852     0.8037 9.2072e+01     3.3792      0.482      0.700    17.2925 0.0000e+00
      0.508      0.060     4.0346     41.854     34.164  28.910922     2.9700     3.0775     0.0852     0.8460 8.7545e+01     3.4845      0.498      0.722    17.2965 0.0000e+00
      0.523      0.059     4.0276     41.894     34.175  28.920113     2.9700     3.2110     0.0852     0.8460 8.5589e+01     3.3642      0.513      0.744    17.3002 0.0000e+00
      0.538      0.057     4.0224     41.977     34.175  28.920365     2.9700     3.2110     0.0852     0.8460 8.3151e+01     3.3342      0.527      0.765    17.3034 0.0000e+00
      0.552      0.056     4.0191     42.099     34.179  28.923625     2.9700     3.1881     0.0852     0.8460 8.1328e+01     3.4995      0.541      0.785    17.3058 0.0000e+00
      0.566      0.054     4.0189     42.264     34.193  28.934722     2.9700     3.2224     0.0426     0.8460 7.8583e+01     3.4845      0.555      0.805    17.3074 0.0000e+00
      0.579      0.053     4.0227     42.475     34.206  28.944736     2.9700     3.1385     0.0426     0.8460 7.5668e+01     3.4394      0.568      0.824    17.3081 0.0000e+00
      0.593      0.053     4.0306     42.732     34.212  28.948417     2.9700     3.1499     0.0426     0.8460 7.3912e+01     3.3943      0.581      0.843    17.3080 0.0000e+00
      0.606      0.052     4.0424     43.030     34.216  28.950706     2.9700     3.1385     0.0426     0.8460 7.0784e+01     3.4394      0.595      0.863    17.3074 0.0000e+00
      0.620      0.051     4.0583     43.347     34.224  28.956174     2.9700     3.1385     0.0852     0.7614 6.8753e+01     3.4694      0.608      0.881    17.3063 0.0000e+00
      0.633      0.049     4.0787     43.664     34.233  28.962320     2.9700     3.3140     0.0852     0.7614 6.6418e+01     3.5295      0.620      0.900    17.3049 0.0000e+00
      0.645      0.048     4.1035     43.987     34.239  28.966822     2.9700     3.3254     0.0852     0.7614 6.5019e+01     3.4394      0.632      0.917    17.3034 0.0000e+00
      0.657      0.047     4.1323     44.314     34.245  28.970881     2.9700     3.3369     0.0852     0.7614 6.3386e+01     3.3642      0.644      0.934    17.3017 0.0000e+00
      0.669      0.046     4.1628     44.628     34.252  28.975578     2.9700     3.3216     0.0852     0.9729 6.2674e+01     3.4394      0.656      0.951    17.3000 0.0000e+00
      0.680      0.045     4.1935     44.919     34.257  28.978207     2.9700     3.2644     0.0852     0.9729 6.0506e+01     3.3792      0.667      0.968    17.2981 0.0000e+00
      0.692      0.044     4.2246     45.185     34.254  28.975509     2.9700     3.2720     0.0852     0.9729 5.9347e+01     3.3642      0.679      0.984    17.2963 0.0000e+00
      0.703      0.043     4.2562     45.429     34.250  28.970724     2.9700     3.2567     0.0852     0.9729 5.8299e+01     3.3792      0.690      1.000    17.2946 0.0000e+00
      0.714      0.042     4.2865     45.655     34.245  28.966537     2.9700     3.2720     0.0852     0.9729 5.7071e+01     3.4544      0.700      1.016    17.2931 0.0000e+00
      0.725      0.040     4.3146     45.863     34.245  28.965790     2.9700     3.2453     0.1278     0.8460 5.5990e+01     3.4995      0.711      1.031    17.2918 0.0000e+00
      0.735      0.038     4.3403     46.047     34.253  28.972244     2.9700     3.2567     0.1278     0.8460 5.4858e+01     3.4845      0.721      1.046    17.2906 0.0000e+00
      0.745      0.036     4.3638     46.211     34.267  28.983659     2.9700     3.2606     0.1278     0.8460 5.4442e+01     3.4694      0.731      1.060    17.2896 0.0000e+00
      0.754      0.034     4.3856     46.356     34.282  28.995161     2.9700     3.2453     0.1278     0.8460 5.4230e+01     3.4694      0.739      1.072    17.2886 0.0000e+00
      0.762      0.032     4.4057     46.481     34.290  29.001897     2.9700     3.3292     0.0852     0.8037 5.4065e+01     3.3191      0.747      1.084    17.2877 0.0000e+00
      0.770      0.031     4.4234     46.587     34.295  29.005663     2.9700     3.3216     0.0852     0.8037 5.4846e+01     3.2891      0.755      1.095    17.2869 0.0000e+00
      0.777      0.031     4.4392     46.669     34.302  29.011423     2.9700     3.3063     0.0852     0.8037 5.5409e+01     3.4694      0.762      1.105    17.2860 0.0000e+00
      0.785      0.032     4.4533     46.731     34.309  29.016754     2.9700     3.3216     0.0852     0.8037 5.6234e+01     3.3792      0.769      1.116    17.2853 0.0000e+00
      0.792      0.033     4.4653     46.782     34.312  29.019117     2.9700     3.4322     0.0852     0.7614 5.7034e+01     3.6798      0.777      1.127    17.2848 0.0000e+00
      0.801      0.035     4.4755     46.829     34.312  29.019142     2.9700     3.4513     0.0852     0.7614 5.7594e+01     3.6648      0.785      1.139    17.2843 0.0000e+00
      0.810      0.038     4.4835     46.878     34.309  29.016837     2.9700     3.4818     0.0852     0.7614 5.8795e+01     3.6498      0.794      1.152    17.2839 0.0000e+00
      0.820      0.041     4.4894     46.928     34.308  29.015545     2.9700     3.4513     0.0852     0.7614 5.9528e+01     3.6949      0.804      1.166    17.2836 0.0000e+00
      0.831      0.044     4.4943     46.976     34.307  29.014924     2.9700     3.3712     0.0852     0.7614 6.0178e+01     3.4394      0.815      1.182    17.2834 0.0000e+00
      0.842      0.047     4.4988     47.024     34.302  29.010847     2.9700     3.3864     0.0852     0.8037 6.0743e+01     3.4093      0.826      1.198    17.2832 0.0000e+00
      0.855      0.050     4.5035     47.077     34.297  29.006186     2.9700     3.3712     0.0852     0.8037 6.1407e+01     3.4243      0.838      1.216    17.2832 0.0000e+00
      0.868      0.053     4.5084     47.138     34.290  28.999699     2.9700     3.3712     0.0852     0.8037 6.2064e+01     3.4544      0.851      1.234    17.2832 0.0000e+00
      0.882      0.056     4.5130     47.205     34.278  28.989657     2.9700     3.3102     0.0852     0.8037 6.1862e+01     3.3943      0.864      1.254    17.2832 0.0000e+00
      0.897      0.058     4.5176     47.277     34.269  28.981300     2.9700     3.3292     0.0852     0.8883 6.0427e+01     3.3943      0.879      1.276    17.2832 0.0000e+00
      0.913      0.058     4.5227     47.353     34.269  28.980319     2.9700     3.3025     0.0852     0.8883 5.8135e+01     3.4394      0.895      1.298    17.2830 0.0000e+00
      0.928      0.058     4.5286     47.426     34.277  28.986454     2.9700     3.3063     0.0852     0.8883 5.6688e+01     3.3642      0.910      1.321    17.2825 0.0000e+00
      0.944      0.057     4.5351     47.488     34.281  28.989460     2.9700     3.3636     0.0852     0.8883 5.5783e+01     3.4694      0.925      1.342    17.2817 0.0000e+00
      0.958      0.055     4.5422     47.542     34.282  28.990140     2.9700     3.3178     0.0852     0.7191 5.5145e+01     3.5446      0.939      1.362    17.2808 0.0000e+00
      0.971      0.053     4.5496     47.585     34.286  28.992634     2.9700     3.2949     0.0852     0.7191 5.4739e+01     3.5295      0.952      1.381    17.2798 0.0000e+00
      0.984      0.052     4.5566     47.609     34.283  28.989687     2.9700     3.2987     0.0852     0.7191 5.4977e+01     3.3943      0.965      1.400    17.2789 0.0000e+00
      0.997      0.051     4.5627     47.618     34.277  28.984475     2.9700     3.2606     0.0852     0.7191 5.5542e+01     3.4845      0.978      1.418    17.2781 0.0000e+00
      1.010      0.050     4.5679     47.627     34.281  28.987486     2.9700     3.2606     0.0852     0.8883 5.5893e+01     3.4394      0.990      1.436    17.2774 0.0000e+00
      1.022      0.050     4.5721     47.642     34.290  28.995563     2.9700     3.2567     0.0852     0.8883 5.6185e+01     3.4243      1.002      1.454    17.2769 0.0000e+00
      1.035      0.049     4.5744     47.667     34.290  28.995021     2.9700     3.2949     0.0852     0.8883 5.6393e+01     3.4995      1.015      1.472    17.2765 0.0000e+00
      1.048      0.049     4.5753     47.693     34.284  28.989675     2.9700     3.2720     0.0852     0.8883 5.5844e+01     3.5145      1.027      1.490    17.2761 0.0000e+00
      1.060      0.050     4.5762     47.716     34.285  28.989978     2.9700     3.2682     0.0852     0.8883 5.6479e+01     3.4394      1.040      1.508    17.2758 0.0000e+00
      1.073      0.050     4.5777     47.736     34.287  28.992053     2.9700     3.2644     0.0852     0.8460 5.6688e+01     3.4694      1.052      1.525    17.2755 0.0000e+00
      1.085      0.050     4.5801     47.754     34.293  28.996453     2.9700     3.2453     0.0852     0.8460 5.6528e+01     3.4694      1.064      1.543    17.2752 0.0000e+00
      1.098      0.050     4.5826     47.767     34.298  29.000390     2.9700     3.1995     0.0852     0.8460 5.5301e+01     3.3943      1.077      1.562    17.2749 0.0000e+00
      1.111      0.050     4.5848     47.764     34.294  28.996994     2.9700     3.1995     0.0852     0.8460 5.3831e+01     3.4694      1.090      1.581    17.2745 0.0000e+00
      1.125      0.049     4.5868     47.744     34.289  28.993281     2.8800     3.2033     0.0852     0.8460 5.2593e+01     3.3642      1.103      1.600    17.2741 0.0000e+00
      1.137      0.048     4.5887     47.724     34.288  28.992219     2.8800     3.1881     0.0852     0.8460 5.2377e+01     3.3943      1.115      1.617    17.2736 0.0000e+00
      1.149      0.046     4.5899     47.711     34.285  28.989566     2.8800     3.2072     0.0852     0.8460 5.1721e+01     3.4394      1.127      1.634    17.2732 0.0000e+00
      1.160      0.045     4.5897     47.697     34.279  28.984614     2.8800     3.1957     0.0852     0.8460 5.1173e+01     3.4394      1.137      1.650    17.2730 0.0000e+00
      1.171      0.044     4.5878     47.687     34.274  28.980003     2.9700     3.1881     0.0852     0.8037 5.0763e+01     3.4093      1.148      1.665    17.2729 0.0000e+00
      1.182      0.044     4.5858     47.685     34.273  28.978463     2.9700     3.1805     0.0852     0.8037 5.0357e+01     3.4243      1.158      1.681    17.2728 0.0000e+00
      1.192      0.045     4.5846     47.684     34.270  28.975623     2.9700     3.2720     0.0852     0.8037 4.9317e+01     3.4694      1.169      1.696    17.2727 0.0000e+00
      1.203      0.046     4.5833     47.681     34.265  28.970725     2.9700     3.2453     0.0852     0.8037 4.8016e+01     3.4394      1.180      1.712    17.2725 0.0000e+00
      1.215      0.048     4.5824     47.676     34.261  28.966424     2.9700     3.2644     0.0852     0.8460 4.6821e+01     3.4845      1.192      1.728    17.2722 0.0000e+00
      1.227      0.050     4.5822     47.663     34.256  28.961573     2.9700     3.2720     0.0852     0.8460 4.4957e+01     3.4243      1.204      1.746    17.2718 0.0000e+00
      1.241      0.053     4.5821     47.640     34.249  28.954878     2.9700     3.3025     0.0852     0.8460 4.3515e+01     3.6949      1.217      1.765    17.2712 0.0000e+00
      1.255      0.055     4.5819     47.610     34.242  28.948513     2.9700     3.3407     0.0852     0.8460 4.1809e+01     3.8151      1.231      1.785    17.2704 0.0000e+00
      1.269      0.056     4.5815     47.576     34.238  28.944741     2.9700     3.3369     0.0852     0.8460 4.0258e+01     3.6798      1.245      1.805    17.2695 0.0000e+00
      1.284      0.057     4.5804     47.537     34.236  28.942555     2.9700     3.3254     0.0852     0.8037 3.9290e+01     3.6798      1.259      1.827    17.2685 0.0000e+00
      1.299      0.058     4.5782     47.496     34.239  28.945333     2.9700     3.2567     0.0852     0.8037 3.8689e+01     3.3943      1.274      1.848    17.2675 0.0000e+00
      1.314      0.058     4.5755     47.458     34.249  28.953815     2.9700     3.2644     0.0852     0.8037 3.7824e+01     3.5295      1.288      1.868    17.2666 0.0000e+00
      1.328      0.059     4.5723     47.421     34.260  28.962344     2.9700     3.2567     0.0852     0.8037 3.6947e+01     3.5295      1.303      1.889    17.2659 0.0000e+00
      1.343      0.059     4.5686     47.385     34.263  28.965275     2.9700     3.2300     0.0852     0.7614 3.6675e+01     3.4093      1.317      1.910    17.2655 0.0000e+00
      1.358      0.060     4.5647     47.350     34.261  28.963388     2.9700     3.3216     0.0852     0.7614 3.5676e+01     3.3943      1.332      1.931    17.2652 0.0000e+00
      1.373      0.061     4.5611     47.323     34.262  28.964101     2.9700     3.3025     0.0852     0.7614 3.5168e+01     3.4995      1.347      1.953    17.2650 0.0000e+00
      1.389      0.061     4.5575     47.307     34.266  28.967604     2.9700     3.3063     0.0852     0.7614 3.4234e+01     3.3342      1.363      1.976    17.2649 0.0000e+00
      1.406      0.061     4.5540     47.304     34.270  28.970870     2.9700     3.2911     0.0852     0.8883 3.3418e+01     3.5145      1.378      1.999    17.2648 0.0000e+00
      1.421      0.060     4.5507     47.318     34.270  28.970812     2.9700     3.2377     0.0852     0.8883 3.2992e+01     3.5596      1.394      2.021    17.2647 0.0000e+00
      1.437      0.060     4.5481     47.348     34.261  28.963454     2.9700     3.2644     0.0852     0.8883 3.2565e+01     3.3792      1.409      2.043    17.2647 0.0000e+00
      1.451      0.060     4.5466     47.389     34.250  28.954753     2.9700     3.2453     0.0852     0.8883 3.2227e+01     3.4243      1.423      2.064    17.2647 0.0000e+00
      1.466      0.061     4.5463     47.435     34.245  28.950309     2.9700     3.2644     0.0852     0.8037 3.1948e+01     3.5145      1.438      2.085    17.2647 0.0000e+00
      1.481      0.063     4.5475     47.486     34.239  28.944976     2.9700     3.2720     0.0852     0.8037 3.1500e+01     3.4544      1.452      2.106    17.2649 0.0000e+00
      1.497      0.065     4.5504     47.541     34.230  28.937333     2.9700     3.2606     0.0852     0.8037 3.0977e+01     3.4243      1.468      2.129    17.2651 0.0000e+00
      1.514      0.067     4.5544     47.596     34.225  28.933261     2.9700     3.2529     0.0852     0.8037 3.0232e+01     3.3943      1.485      2.153    17.2654 0.0000e+00
      1.532      0.069     4.5588     47.646     34.233  28.939593     2.9700     3.2758     0.0852     0.8037 2.8877e+01     3.3492      1.503      2.179    17.2656 0.0000e+00
      1.551      0.070     4.5636     47.686     34.250  28.954058     2.9700     3.3025     0.0852     0.7614 2.7806e+01     3.3792      1.521      2.207    17.2655 0.0000e+00
      1.570      0.069     4.5689     47.722     34.263  28.964675     2.9700     3.2987     0.0852     0.7614 2.7410e+01     3.3943      1.540      2.233    17.2653 0.0000e+00
      1.588      0.068     4.5743     47.761     34.266  28.966354     2.9700     3.3254     0.0852     0.7614 2.7073e+01     3.4394      1.557      2.259    17.2650 0.0000e+00
      1.605      0.066     4.5791     47.798     34.263  28.963504     2.9700     3.3292     0.0852     0.7614 2.6984e+01     3.3943      1.574      2.282    17.2646 0.0000e+00
      1.621      0.065     4.5831     47.827     34.263  28.963284     2.9700     3.2720     0.0852     0.8037 2.6745e+01     3.5145      1.589      2.305    17.2641 0.0000e+00
      1.637      0.063     4.5866     47.854     34.266  28.965636     2.9700     3.2300     0.0852     0.8037 2.6250e+01     3.4394      1.605      2.328    17.2636 0.0000e+00
      1.653      0.062     4.5904     47.884     34.268  28.967227     2.9700     3.2644     0.0852     0.8037 2.6057e+01     3.4394      1.621      2.351    17.2629 0.0000e+00
      1.669      0.060     4.5939     47.915     34.270  28.968481     2.9700     3.2606     0.0852     0.8037 2.5859e+01     3.4995      1.637      2.374    17.2622 0.0000e+00
      1.684      0.059     4.5968     47.949     34.271  28.969732     2.9700     3.3369     0.0852     0.7191 2.5602e+01     3.3943      1.652      2.396    17.2617 0.0000e+00
      1.699      0.057     4.5994     47.982     34.273  28.971314     2.9700     3.3216     0.0852     0.7191 2.5786e+01     3.3642      1.666      2.417    17.2614 0.0000e+00
      1.713      0.055     4.6023     48.014     34.276  28.973649     2.9700     3.3025     0.0852     0.7191 2.5814e+01     3.3492      1.680      2.437    17.2613 0.0000e+00
      1.727      0.054     4.6053     48.050     34.281  28.977360     2.9700     3.3102     0.0852     0.7191 2.6000e+01     3.5446      1.694      2.456    17.2613 0.0000e+00
      1.740      0.052     4.6085     48.089     34.288  28.983436     2.9700     3.1995     0.0852     0.8460 2.6165e+01     3.3943      1.707      2.475    17.2613 0.0000e+00
      1.753      0.052     4.6117     48.125     34.296  28.989538     2.9700     3.1995     0.0852     0.8460 2.6404e+01     3.4394      1.719      2.494    17.2611 0.0000e+00
      1.766      0.051     4.6148     48.161     34.300  28.993333     2.9700     3.2033     0.0852     0.8460 2.6427e+01     3.4243      1.732      2.512    17.2609 0.0000e+00
      1.779      0.051     4.6184     48.201     34.303  28.995832     2.9700     3.1881     0.0852     0.8460 2.6462e+01     3.4694      1.745      2.531    17.2606 0.0000e+00
      1.792      0.051     4.6221     48.244     34.301  28.993744     2.9700     3.2758     0.0852     0.8460 2.6629e+01     3.4694      1.758      2.549    17.2605 0.0000e+00
      1.805      0.051     4.6256     48.285     34.289  28.982550     2.9700     3.2377     0.0852     0.8460 2.6583e+01     3.3943      1.771      2.568    17.2602 0.0000e+00
      1.819      0.051     4.6291     48.321     34.276  28.971145     2.9700     3.2300     0.0852     0.8460 2.6313e+01     3.4243      1.784      2.586    17.2599 0.0000e+00
      1.832      0.051     4.6330     48.355     34.273  28.968367     2.9700     3.2491     0.0852     0.8460 2.6142e+01     3.3943      1.796      2.605    17.2595 0.0000e+00
      1.844      0.051     4.6372     48.387     34.271  28.965557     2.9700     3.2415     0.0852     0.8460 2.5680e+01     3.4243      1.809      2.623    17.2591 0.0000e+00
      1.857      0.051     4.6411     48.408     34.267  28.961964     2.9700     3.2529     0.0852     0.8037 2.5320e+01     3.3642      1.821      2.641    17.2586 0.0000e+00
      1.870      0.051     4.6446     48.420     34.271  28.964549     2.9700     3.2720     0.0852     0.8037 2.4851e+01     3.5596      1.834      2.660    17.2579 0.0000e+00
      1.883      0.051     4.6480     48.427     34.277  28.970044     2.9700     3.2644     0.0852     0.8037 2.4254e+01     3.4845      1.847      2.678    17.2569 0.0000e+00
      1.896      0.051     4.6512     48.425     34.284  28.975952     2.9700     3.2453     0.0852     0.8037 2.3872e+01     3.4694      1.860      2.697    17.2559 0.0000e+00
      1.909      0.050     4.6533     48.417     34.294  28.983849     2.9700     3.2758     0.0426     0.8037 2.3491e+01     3.4845      1.873      2.716    17.2551 0.0000e+00
      1.922      0.050     4.6544     48.401     34.304  28.991882     2.9700     3.2644     0.0426     0.8037 2.3182e+01     3.4694      1.885      2.734    17.2545 0.0000e+00
      1.935      0.049     4.6551     48.366     34.312  28.998232     2.9700     3.2758     0.0426     0.8037 2.3011e+01     3.3943      1.898      2.752    17.2542 0.0000e+00
      1.947      0.047     4.6550     48.320     34.325  29.008553     2.9700     3.3445     0.0426     0.8037 2.2887e+01     3.4845      1.910      2.770    17.2539 0.0000e+00
      1.959      0.046     4.6543     48.275     34.346  29.025598     2.9700     3.3216     0.0426     0.8037 2.2817e+01     3.4694      1.921      2.786    17.2534 0.0000e+00
      1.970      0.045     4.6528     48.231     34.361  29.038071     2.9700     3.3445     0.0852     0.8883 2.2600e+01     3.4694      1.932      2.802    17.2528 0.0000e+00
      1.981      0.043     4.6495     48.186     34.356  29.033461     2.9700     3.3254     0.0852     0.8883 2.2385e+01     3.5295      1.943      2.818    17.2520 0.0000e+00
      1.992      0.042     4.6452     48.140     34.343  29.022417     2.9700     3.2339     0.0852     0.8883 2.2104e+01     3.4394      1.954      2.834    17.2512 0.0000e+00
      2.003      0.042     4.6409     48.089     34.337  29.017833     2.9700     3.2415     0.0852     0.8883 2.1927e+01     3.4694      1.964      2.849    17.2506 0.0000e+00
      2.013      0.041     4.6367     48.039     34.329  29.010568     2.9700     3.2644     0.0852     0.8037 2.1842e+01     3.4845      1.974      2.864    17.2501 0.0000e+00
      2.023      0.041     4.6324     48.010     34.314  28.998685     2.9700     3.2453     0.0852     0.8037 2.1643e+01     3.3943      1.984      2.878    17.2499 0.0000e+00
      2.033      0.042     4.6280     48.014     34.305  28.990893     2.9700     3.3254     0.0852     0.8037 2.1447e+01     3.1688      1.994      2.892    17.2497 0.0000e+00
      2.044      0.043     4.6231     48.049     34.303  28.989074     2.9700     3.3369     0.0852     0.8037 2.1233e+01     3.1989      2.004      2.907    17.2497 0.0000e+00
      2.055      0.043     4.6183     48.099     34.307  28.992743     2.9700     3.3216     0.0852     0.8037 2.0936e+01     3.1688      2.015      2.923    17.2497 0.0000e+00
      2.066      0.044     4.6155     48.152     34.314  28.998919     2.9700     3.3025     0.0852     0.8037 2.0437e+01     3.2590      2.026      2.939    17.2497 0.0000e+00
      2.078      0.044     4.6159     48.201     34.317  29.001329     2.9700     3.3063     0.0852     0.8037 2.0076e+01     3.3642      2.038      2.955    17.2498 0.0000e+00
      2.090      0.044     4.6193     48.241     34.311  28.996656     2.9700     3.3140     0.0852     0.8037 1.9691e+01     3.3792      2.049      2.972    17.2500 0.0000e+00
      2.101      0.044     4.6241     48.270     34.295  28.983655     2.9700     3.3292     0.0852     0.8037 1.9306e+01     3.4694      2.061      2.989    17.2504 0.0000e+00
      2.112      0.043     4.6291     48.290     34.275  28.966777     2.9700     3.3216     0.0852     0.8037 1.9064e+01     3.3943      2.071      3.004    17.2509 0.0000e+00
      2.123      0.042     4.6338     48.313     34.260  28.953401     2.9700     3.3140     0.0852     0.8037 1.8813e+01     3.3943      2.082      3.019    17.2513 0.0000e+00
      2.133      0.041     4.6376     48.344     34.244  28.939961     2.9700     3.3292     0.0852     0.8037 1.8457e+01     3.3492      2.092      3.034    17.2515 0.0000e+00
      2.143      0.040     4.6403     48.376     34.229  28.926832     2.9700     3.3369     0.0852     0.8037 1.8087e+01     3.4394      2.102      3.048    17.2516 0.0000e+00
      2.153      0.039     4.6423     48.405     34.228  28.926352     2.9700     3.3330     0.0852     0.8037 1.7822e+01     3.4394      2.112      3.062    17.2515 0.0000e+00
      2.163      0.038     4.6445     48.430     34.243  28.938394     2.9700     3.2491     0.0852     0.8037 1.7557e+01     3.3642      2.121      3.076    17.2514 0.0000e+00
      2.173      0.037     4.6475     48.449     34.258  28.950328     2.9700     3.2796     0.0852     0.8037 1.7314e+01     3.3642      2.131      3.090    17.2512 0.0000e+00
      2.182      0.037     4.6505     48.457     34.266  28.957418     2.9700     3.2644     0.0852     0.8037 1.7053e+01     3.4394      2.140      3.103    17.2509 0.0000e+00
      2.191      0.036     4.6534     48.452     34.276  28.965515     2.9700     3.2567     0.0852     0.7191 1.6887e+01     3.5145      2.149      3.116    17.2506 0.0000e+00
      2.200      0.036     4.6558     48.439     34.289  28.976778     2.9700     3.3292     0.0852     0.7191 1.6777e+01     3.3792      2.157      3.129    17.2504 0.0000e+00
      2.209      0.037     4.6577     48.423     34.296  28.982331     2.9700     3.2987     0.0852     0.7191 1.6632e+01     3.4694      2.166      3.142    17.2501 0.0000e+00
      2.218      0.038     4.6585     48.410     34.293  28.979694     2.9700     3.3445     0.0852     0.7191 1.6463e+01     3.4394      2.175      3.155    17.2499 0.0000e+00
      2.227      0.039     4.6581     48.404     34.289  28.976084     2.8800     3.3216     0.0852     0.7614 1.6250e+01     3.3943      2.185      3.168    17.2496 0.0000e+00
      2.238      0.040     4.6568     48.404     34.287  28.974498     2.8800     3.1499     0.0852     0.7614 1.5987e+01     3.3041      2.195      3.183    17.2494 0.0000e+00
      2.248      0.041     4.6553     48.402     34.287  28.974514     2.8800     3.1652     0.0852     0.7614 1.5780e+01     3.2590      2.205      3.198    17.2492 0.0000e+00
      2.259      0.041     4.6541     48.396     34.294  28.980096     2.8800     3.1461     0.0852     0.7614 1.5501e+01     3.2740      2.215      3.213    17.2490 0.0000e+00
      2.270      0.041     4.6535     48.390     34.309  28.992730     2.9700     3.1423     0.0852     0.7191 1.5211e+01     3.2440      2.226      3.228    17.2489 0.0000e+00
      2.280      0.041     4.6535     48.390     34.317  28.999949     2.9700     3.2110     0.0852     0.7191 1.5158e+01     3.3943      2.236      3.243    17.2487 0.0000e+00
      2.291      0.041     4.6534     48.395     34.312  28.995757     2.9700     3.1728     0.0852     0.7191 1.4998e+01     3.4394      2.246      3.258    17.2486 0.0000e+00
      2.301      0.040     4.6528     48.404     34.306  28.990916     2.9700     3.1957     0.0852     0.7191 1.4794e+01     3.3492      2.256      3.272    17.2486 0.0000e+00
      2.311      0.040     4.6522     48.417     34.303  28.988094     2.9700     3.1576     0.0852     0.7191 1.4640e+01     3.5746      2.266      3.287    17.2486 0.0000e+00
      2.321      0.041     4.6522     48.436     34.296  28.982580     2.9700     3.2033     0.0852     0.8037 1.4561e+01     3.4243      2.276      3.301    17.2487 0.0000e+00
      2.331      0.041     4.6527     48.462     34.285  28.972903     2.9700     3.1843     0.0852     0.8037 1.4363e+01     3.4845      2.286      3.316    17.2488 0.0000e+00
      2.342      0.042     4.6535     48.487     34.270  28.960442     2.9700     3.2072     0.0852     0.8037 1.4214e+01     3.4243      2.296      3.331    17.2490 0.0000e+00
      2.353      0.043     4.6547     48.506     34.262  28.953753     2.9700     3.1766     0.0852     0.8037 1.4042e+01     3.4243      2.307      3.346    17.2492 0.0000e+00
      2.364      0.044     4.6565     48.517     34.264  28.955014     2.9700     3.2072     0.0852     0.8037 1.3902e+01     3.9354      2.318      3.362    17.2494 0.0000e+00
      2.375      0.046     4.6589     48.526     34.266  28.956639     2.9700     3.2224     0.0852     0.8037 1.3803e+01     3.9504      2.329      3.378    17.2496 0.0000e+00
      2.387      0.047     4.6614     48.533     34.270  28.959063     2.9700     3.2186     0.0852     0.8037 1.3624e+01     4.0255      2.341      3.395    17.2496 0.0000e+00
      2.399      0.047     4.6632     48.537     34.275  28.962932     2.9700     3.2186     0.0852     0.8037 1.3518e+01     3.9654      2.353      3.412    17.2494 0.0000e+00
      2.411      0.048     4.6643     48.540     34.278  28.965318     2.9700     3.2720     0.0426     0.8460 1.3337e+01     3.4394      2.365      3.430    17.2489 0.0000e+00
      2.424      0.048     4.6652     48.549     34.280  28.966856     2.9700     3.2491     0.0426     0.8460 1.3219e+01     3.3943      2.377      3.448    17.2482 0.0000e+00
      2.436      0.048     4.6660     48.559     34.282  28.967958     2.9700     3.2529     0.0426     0.8460 1.3144e+01     3.3943      2.389      3.465    17.2475 0.0000e+00
      2.448      0.048     4.6665     48.568     34.284  28.968916     2.9700     3.2682     0.0426     0.8460 1.3119e+01     3.3943      2.401      3.483    17.2468 0.0000e+00
      2.461      0.048     4.6669     48.577     34.281  28.966028     2.9700     3.2720     0.0852     0.8460 1.2954e+01     3.2289      2.413      3.500    17.2462 0.0000e+00
      2.473      0.048     4.6678     48.590     34.273  28.958522     2.9700     3.2567     0.0852     0.8460 1.2918e+01     3.1838      2.425      3.517    17.2456 0.0000e+00
      2.485      0.049     4.6689     48.608     34.267  28.952316     2.9700     3.2682     0.0852     0.8460 1.2867e+01     3.2590      2.437      3.535    17.2450 0.0000e+00
      2.497      0.049     4.6697     48.633     34.269  28.953675     2.9700     3.2567     0.0852     0.8460 1.2770e+01     3.1388      2.449      3.552    17.2442 0.0000e+00
      2.510      0.049     4.6707     48.663     34.276  28.959001     2.9700     3.2949     0.0852     0.8460 1.2525e+01     3.4995      2.462      3.570    17.2435 0.0000e+00
      2.523      0.049     4.6721     48.691     34.276  28.957837     2.9700     3.3254     0.0852     0.8460 1.2439e+01     3.4694      2.474      3.588    17.2426 0.0000e+00
      2.535      0.049     4.6739     48.710     34.271  28.953830     2.9700     3.3025     0.0852     0.8460 1.2267e+01     3.4394      2.487      3.606    17.2416 0.0000e+00
      2.548      0.048     4.6764     48.719     34.271  28.953832     2.9700     3.3102     0.0852     0.8460 1.2079e+01     3.4995      2.499      3.624    17.2405 0.0000e+00
      2.560      0.047     4.6794     48.716     34.271  28.953883     2.9700     3.3788     0.0852     0.8460 1.1904e+01     3.3642      2.511      3.641    17.2396 0.0000e+00
      2.572      0.046     4.6821     48.705     34.276  28.957958     2.8800     3.3903     0.0426     0.8460 1.1735e+01     3.4694      2.523      3.658    17.2388 0.0000e+00
      2.584      0.045     4.6840     48.691     34.291  28.971102     2.8800     3.4017     0.0426     0.8460 1.1553e+01     3.4694      2.534      3.675    17.2383 0.0000e+00
      2.595      0.044     4.6848     48.680     34.303  28.980981     2.8800     3.3712     0.0426     0.8460 1.1510e+01     3.3642      2.545      3.691    17.2380 0.0000e+00
      2.606      0.043     4.6845     48.672     34.304  28.982310     2.8800     3.2682     0.0426     0.8460 1.1575e+01     3.4243      2.556      3.707    17.2380 0.0000e+00
      2.616      0.042     4.6834     48.666     34.306  28.983364     2.9700     3.2567     0.0852     0.7614 1.1540e+01     3.4694      2.566      3.721    17.2382 0.0000e+00
      2.626      0.041     4.6821     48.662     34.312  28.988382     2.9700     3.2644     0.0852     0.7614 1.1488e+01     3.3041      2.576      3.736    17.2385 0.0000e+00
      2.637      0.041     4.6810     48.661     34.315  28.990784     2.9700     3.2682     0.0852     0.7614 1.1376e+01     3.4694      2.586      3.751    17.2387 0.0000e+00
      2.647      0.042     4.6803     48.662     34.307  28.983290     2.9700     3.2911     0.0852     0.7614 1.1265e+01     3.3943      2.597      3.766    17.2387 0.0000e+00
      2.658      0.042     4.6797     48.666     34.298  28.975783     2.9700     3.2567     0.0852     0.7614 1.1219e+01     3.3492      2.607      3.781    17.2385 0.0000e+00
      2.669      0.042     4.6793     48.674     34.292  28.970218     2.9700     3.2682     0.0852     0.7614 1.1059e+01     3.3642      2.617      3.796    17.2380 0.0000e+00
      2.680      0.042     4.6793     48.682     34.277  28.957193     2.9700     3.2606     0.0852     0.7614 1.0959e+01     3.4243      2.628      3.812    17.2375 0.0000e+00
      2.690      0.043     4.6794     48.689     34.263  28.945114     2.9700     3.2796     0.0852     0.7614 1.0835e+01     3.3492      2.638      3.827    17.2370 0.0000e+00
      2.701      0.043     4.6799     48.695     34.256  28.938678     2.9700     3.2606     0.0852     0.7614 1.0742e+01     3.4694      2.649      3.842    17.2364 0.0000e+00
      2.712      0.043     4.6807     48.700     34.243  28.928251     2.9700     3.2720     0.0852     0.8460 1.0566e+01     3.4694      2.660      3.858    17.2358 0.0000e+00
      2.723      0.043     4.6815     48.701     34.223  28.911052     2.9700     3.2339     0.0852     0.8460 1.0370e+01     3.4544      2.670      3.874    17.2354 0.0000e+00
      2.734      0.043     4.6822     48.700     34.204  28.894374     2.9700     3.2567     0.0852     0.8460 1.0260e+01     3.3943      2.681      3.889    17.2351 0.0000e+00
      2.745      0.044     4.6828     48.703     34.198  28.889609     2.9700     3.2682     0.0852     0.8460 1.0141e+01     3.4394      2.692      3.905    17.2348 0.0000e+00
      2.756      0.045     4.6833     48.712     34.210  28.899445     2.9700     3.2796     0.0852     0.8883 9.9571e+00     3.3792      2.703      3.920    17.2346 0.0000e+00
      2.767      0.046     4.6834     48.721     34.224  28.910666     2.9700     3.2453     0.0852     0.8883 9.8796e+00     3.4093      2.714      3.936    17.2345 0.0000e+00
      2.779      0.047     4.6834     48.732     34.229  28.914385     2.9700     3.2567     0.0852     0.8883 9.6945e+00     3.4694      2.725      3.953    17.2343 0.0000e+00
      2.791      0.048     4.6837     48.742     34.231  28.915555     2.9700     3.3788     0.0852     0.8883 9.5835e+00     3.3342      2.737      3.970    17.2341 0.0000e+00
      2.804      0.048     4.6846     48.751     34.230  28.914486     2.9700     3.3712     0.0852     0.8883 9.2883e+00     3.4694      2.750      3.988    17.2338 0.0000e+00
      2.816      0.048     4.6855     48.759     34.222  28.906934     2.9700     3.3788     0.0852     0.8883 9.1143e+00     3.4694      2.762      4.006    17.2334 0.0000e+00
      2.829      0.048     4.6865     48.772     34.214  28.898804     2.9700     3.3864     0.0852     0.8883 8.8971e+00     3.4093      2.775      4.024    17.2329 0.0000e+00
      2.842      0.047     4.6876     48.793     34.216  28.899807     2.9700     3.3979     0.0852     0.8883 8.6681e+00     3.4694      2.787      4.042    17.2322 0.0000e+00
      2.854      0.045     4.6886     48.818     34.233  28.914172     2.9700     3.3979     0.0852     0.8037 8.4524e+00     3.3943      2.799      4.060    17.2313 0.0000e+00
      2.865      0.044     4.6895     48.845     34.257  28.933849     2.9700     3.3712     0.0852     0.8037 8.4414e+00     3.4845      2.810      4.076    17.2301 0.0000e+00
      2.876      0.042     4.6909     48.873     34.274  28.948246     2.9700     3.3674     0.0852     0.8037 8.4395e+00     3.3642      2.820      4.090    17.2288 0.0000e+00
      2.886      0.042     4.6929     48.898     34.285  28.957242     2.9700     3.2720     0.0852     0.8037 8.3139e+00     3.4694      2.830      4.105    17.2278 0.0000e+00
      2.896      0.043     4.6954     48.917     34.288  28.959278     2.9700     3.2300     0.0852     0.8037 8.2169e+00     3.4995      2.840      4.119    17.2270 0.0000e+00
      2.907      0.044     4.6982     48.928     34.283  28.954895     2.9700     3.2606     0.0852     0.8037 8.2241e+00     3.3642      2.850      4.134    17.2264 0.0000e+00
      2.918      0.047     4.7009     48.935     34.279  28.950845     2.9700     3.2644     0.0852     0.8037 8.1529e+00     3.3943      2.861      4.150    17.2258 0.0000e+00
      2.930      0.050     4.7033     48.943     34.278  28.950008     2.9700     3.2148     0.0852     0.8037 8.0316e+00     3.4093      2.873      4.167    17.2254 0.0000e+00
      2.943      0.053     4.7052     48.948     34.277  28.948199     2.9700     3.2072     0.0852     0.8037 7.9155e+00     3.4093      2.886      4.186    17.2250 0.0000e+00
      2.957      0.056     4.7063     48.943     34.273  28.944937     2.9700     3.2033     0.0852     0.7614 7.8504e+00     3.4845      2.900      4.206    17.2247 0.0000e+00
      2.972      0.059     4.7070     48.926     34.271  28.943312     2.9700     3.2186     0.0852     0.7614 7.6817e+00     3.3943      2.914      4.227    17.2242 0.0000e+00
      2.987      0.061     4.7078     48.898     34.271  28.942891     2.9700     3.1995     0.0852     0.7614 7.6119e+00     3.3492      2.930      4.249    17.2238 0.0000e+00
      3.004      0.063     4.7083     48.863     34.272  28.943561     2.9700     3.1843     0.0852     0.7614 7.4531e+00     3.3642      2.946      4.272    17.2234 0.0000e+00
      3.020      0.064     4.7078     48.826     34.270  28.941540     2.9700     3.2186     0.0426     0.7191 7.3072e+00     3.3492      2.962      4.296    17.2231 0.0000e+00
      3.037      0.065     4.7062     48.791     34.264  28.936290     2.9700     3.1652     0.0426     0.7191 7.1890e+00     3.4394      2.979      4.320    17.2228 0.0000e+00
      3.054      0.066     4.7036     48.763     34.262  28.934331     2.9700     3.1423     0.0426     0.7191 7.0071e+00     3.5295      2.995      4.344    17.2225 0.0000e+00
      3.071      0.066     4.7003     48.749     34.268  28.939099     2.9700     3.1385     0.0426     0.7191 6.9148e+00     3.4694      3.012      4.368    17.2222 0.0000e+00
      3.088      0.066     4.6967     48.748     34.278  28.947908     2.9700     3.1232     0.0426     0.7191 6.8356e+00     3.4394      3.028      4.392    17.2219 0.0000e+00
      3.104      0.066     4.6934     48.749     34.287  28.955185     2.9700     3.1270     0.0852     0.8037 6.7236e+00     3.4243      3.045      4.416    17.2215 0.0000e+00
      3.121      0.066     4.6908     48.745     34.291  28.958912     2.9700     3.3140     0.0852     0.8037 6.6322e+00     3.4093      3.061      4.440    17.2211 0.0000e+00
      3.138      0.066     4.6894     48.739     34.292  28.960083     2.9700     3.3140     0.0852     0.8037 6.5392e+00     3.4394      3.078      4.464    17.2208 0.0000e+00
      3.155      0.066     4.6893     48.738     34.291  28.959011     2.9700     3.3178     0.0852     0.8037 6.4265e+00     3.4544      3.094      4.488    17.2207 0.0000e+00
      3.172      0.066     4.6894     48.744     34.286  28.955408     2.9700     3.3292     0.0426     0.7614 6.3903e+00     3.3642      3.111      4.512    17.2208 0.0000e+00
      3.189      0.066     4.6890     48.760     34.281  28.952274     2.9700     3.1881     0.0426     0.7614 6.2339e+00     3.4694      3.127      4.536    17.2210 0.0000e+00
      3.206      0.066     4.6884     48.784     34.286  28.956693     2.9700     3.2453     0.0426     0.7614 6.2461e+00     3.4544      3.144      4.560    17.2215 0.0000e+00
      3.223      0.066     4.6882     48.811     34.297  28.965883     2.9700     3.2072     0.0426     0.7614 6.1425e+00     3.4544      3.161      4.584    17.2221 0.0000e+00
      3.240      0.066     4.6887     48.841     34.307  28.974376     2.9700     3.1690     0.0852     0.8037 6.0118e+00     3.4995      3.178      4.608    17.2228 0.0000e+00
      3.257      0.065     4.6902     48.876     34.319  28.984436     2.9700     3.2567     0.0852     0.8037 6.0000e+00     3.4544      3.194      4.632    17.2234 0.0000e+00
      3.273      0.065     4.6925     48.914     34.326  28.990827     2.9700     3.2567     0.0852     0.8037 5.8774e+00     3.4845      3.210      4.656    17.2240 0.0000e+00
      3.290      0.065     4.6950     48.948     34.322  28.987334     2.9700     3.2491     0.0852     0.8037 5.8064e+00     3.4694      3.226      4.679    17.2243 0.0000e+00
      3.306      0.065     4.6979     48.978     34.310  28.976983     2.9700     3.2491     0.0852     0.7191 5.7424e+00     3.3792      3.243      4.703    17.2245 0.0000e+00
      3.323      0.065     4.7013     49.006     34.300  28.968896     2.9700     3.2644     0.0852     0.7191 5.7386e+00     3.3642      3.259      4.726    17.2246 0.0000e+00
      3.340      0.066     4.7049     49.034     34.295  28.964874     2.9700     3.2796     0.0852     0.7191 5.7125e+00     3.4694      3.275      4.750    17.2246 0.0000e+00
      3.356      0.067     4.7082     49.063     34.290  28.959885     2.9700     3.2720     0.0852     0.7191 5.5642e+00     3.4394      3.291      4.774    17.2246 0.0000e+00
      3.373      0.068     4.7111     49.095     34.286  28.956560     2.9700     3.2682     0.0852     0.7191 5.5149e+00     3.3943      3.308      4.798    17.2246 0.0000e+00
      3.391      0.069     4.7138     49.129     34.283  28.954011     2.9700     3.1232     0.0852     0.7191 5.4034e+00     3.4093      3.325      4.823    17.2246 0.0000e+00
      3.409      0.071     4.7165     49.165     34.276  28.947598     2.9700     3.1232     0.0852     0.7191 5.3590e+00     3.4694      3.343      4.848    17.2244 0.0000e+00
      3.427      0.073     4.7193     49.199     34.263  28.935611     2.9700     3.1194     0.0852     0.7191 5.2918e+00     3.4093      3.360      4.873    17.2242 0.0000e+00
      3.445      0.074     4.7224     49.227     34.254  28.926734     2.9700     3.1423     0.0852     0.7191 5.2700e+00     3.4243      3.378      4.900    17.2240 0.0000e+00
      3.464      0.076     4.7257     49.246     34.259  28.930477     2.9700     3.2567     0.0852     0.7191 5.0734e+00     3.4694      3.397      4.927    17.2235 0.0000e+00
      3.484      0.076     4.7292     49.258     34.272  28.939921     2.9700     3.2453     0.0852     0.7191 4.9235e+00     3.3792      3.417      4.956    17.2228 0.0000e+00
      3.504      0.075     4.7326     49.265     34.281  28.945703     2.9700     3.2339     0.0852     0.7191 4.7667e+00     3.5145      3.437      4.984    17.2218 0.0000e+00
      3.524      0.074     4.7354     49.263     34.283  28.945406     2.9700     3.2682     0.0852     0.7191 4.6713e+00     3.5145      3.456      5.013    17.2203 0.0000e+00
      3.543      0.070     4.7374     49.251     34.281  28.942910     2.9700     3.5009     0.0852     0.7614 4.5998e+00     3.4394      3.475      5.040    17.2184 0.0000e+00
      3.561      0.067     4.7388     49.232     34.276  28.937550     2.9700     3.5009     0.0852     0.7614 4.4989e+00     3.3792      3.492      5.065    17.2162 0.0000e+00
      3.577      0.062     4.7397     49.211     34.265  28.927896     2.9700     3.5085     0.0852     0.7614 4.4678e+00     3.3342      3.508      5.089    17.2139 0.0000e+00
      3.592      0.058     4.7397     49.191     34.260  28.923253     2.9700     3.4818     0.0852     0.7614 4.4552e+00     3.2891      3.523      5.110    17.2118 0.0000e+00
      3.606      0.055     4.7387     49.175     34.263  28.926342     2.9700     3.2682     0.0852     0.8460 4.4089e+00     3.4845      3.536      5.129    17.2101 0.0000e+00
      3.619      0.053     4.7370     49.163     34.267  28.930069     2.9700     3.2567     0.0852     0.8460 4.3518e+00     3.3342      3.549      5.148    17.2089 0.0000e+00
      3.632      0.051     4.7350     49.158     34.273  28.935426     2.9700     3.2491     0.0852     0.8460 4.2564e+00     3.4093      3.562      5.166    17.2081 0.0000e+00
      3.645      0.050     4.7332     49.162     34.283  28.943842     2.9700     3.2567     0.0852     0.8460 4.1940e+00     3.3792      3.575      5.184    17.2077 0.0000e+00
      3.657      0.050     4.7317     49.171     34.290  28.949643     2.9700     3.3178     0.0852     0.8460 4.1568e+00     3.3191      3.587      5.202    17.2078 0.0000e+00
      3.670      0.050     4.7305     49.185     34.296  28.954374     2.9700     3.2796     0.0852     0.8037 4.1334e+00     3.4845      3.599      5.220    17.2082 0.0000e+00
      3.683      0.050     4.7299     49.202     34.306  28.963258     2.9700     3.3254     0.0852     0.8037 4.0683e+00     3.4093      3.611      5.238    17.2089 0.0000e+00
      3.696      0.051     4.7303     49.218     34.315  28.970744     2.9700     3.3216     0.0852     0.8037 3.9930e+00     3.4394      3.624      5.256    17.2093 0.0000e+00
      3.709      0.051     4.7312     49.227     34.316  28.970909     2.9700     3.4284     0.0852     0.8037 3.9029e+00     3.3492      3.637      5.275    17.2092 0.0000e+00
      3.722      0.052     4.7325     49.227     34.312  28.967755     2.9700     3.4666     0.0852     0.8037 3.8474e+00     3.3792      3.650      5.294    17.2088 0.0000e+00
      3.735      0.053     4.7342     49.221     34.308  28.964403     2.9700     3.4437     0.0852     0.8037 3.8008e+00     3.5596      3.663      5.313    17.2085 0.0000e+00
      3.748      0.053     4.7357     49.217     34.298  28.955999     2.9700     3.4399     0.0852     0.8037 3.7280e+00     3.4394      3.676      5.332    17.2082 0.0000e+00
      3.762      0.054     4.7366     49.218     34.280  28.940300     2.9700     3.5009     0.0852     0.8037 3.6670e+00     3.4694      3.689      5.351    17.2080 0.0000e+00
      3.776      0.055     4.7366     49.225     34.267  28.928961     2.9700     3.5123     0.0852     0.8037 3.5347e+00     3.4544      3.703      5.370    17.2079 0.0000e+00
      3.790      0.056     4.7361     49.239     34.270  28.930836     2.9700     3.5162     0.0852     0.8037 3.5355e+00     3.4394      3.717      5.391    17.2079 0.0000e+00
      3.804      0.057     4.7358     49.256     34.280  28.938507     2.9700     3.5123     0.0852     0.8037 3.5202e+00     3.3492      3.731      5.411    17.2077 0.0000e+00
      3.819      0.058     4.7359     49.270     34.289  28.946098     2.9700     3.5848     0.0852     0.8037 3.4505e+00     3.4995      3.745      5.432    17.2074 0.0000e+00
      3.834      0.059     4.7366     49.285     34.301  28.955634     2.9700     3.5772     0.0852     0.8460 3.3962e+00     3.4845      3.760      5.453    17.2069 0.0000e+00
      3.849      0.060     4.7380     49.300     34.314  28.965699     2.9700     3.5505     0.0852     0.8460 3.3167e+00     3.4694      3.775      5.475    17.2062 0.0000e+00
      3.865      0.061     4.7396     49.308     34.321  28.971057     2.9700     3.5810     0.0852     0.8460 3.2468e+00     3.3792      3.790      5.497    17.2052 0.0000e+00
      3.881      0.061     4.7411     49.305     34.320  28.969177     2.9700     3.3903     0.0852     0.8460 3.1943e+00     3.5596      3.806      5.520    17.2042 0.0000e+00
      3.897      0.061     4.7427     49.296     34.314  28.963516     2.9700     3.4017     0.0852     0.8460 3.1605e+00     3.4093      3.821      5.543    17.2033 0.0000e+00
      3.912      0.061     4.7442     49.288     34.306  28.956526     2.9700     3.3712     0.0852     0.8037 3.1345e+00     3.3492      3.837      5.565    17.2025 0.0000e+00
      3.928      0.061     4.7450     49.288     34.299  28.950302     2.9700     3.3483     0.0852     0.8037 3.1155e+00     3.3492      3.852      5.587    17.2018 0.0000e+00
      3.943      0.061     4.7448     49.296     34.296  28.947144     2.9700     3.2148     0.0852     0.8037 3.0691e+00     3.4845      3.867      5.609    17.2010 0.0000e+00
      3.959      0.060     4.7440     49.308     34.295  28.946210     2.9700     3.1805     0.0852     0.8037 3.0479e+00     3.4093      3.882      5.631    17.2002 0.0000e+00
      3.975      0.060     4.7434     49.324     34.297  28.947250     2.9700     3.1728     0.0426     0.7614 3.0097e+00     3.5145      3.898      5.653    17.1995 0.0000e+00
      3.990      0.060     4.7434     49.352     34.297  28.946583     2.9700     3.1995     0.0426     0.7614 3.0169e+00     3.4694      3.912      5.675    17.1989 0.0000e+00
      4.004      0.059     4.7442     49.391     34.294  28.944030     2.9700     3.2033     0.0426     0.7614 2.9960e+00     3.4995      3.927      5.696    17.1984 0.0000e+00
      4.019      0.059     4.7454     49.434     34.294  28.942871     2.9700     3.1919     0.0426     0.7614 2.9999e+00     3.4694      3.942      5.717    17.1978 0.0000e+00
      4.034      0.060     4.7470     49.471     34.290  28.938836     2.9700     3.2224     0.0852     0.8037 2.9921e+00     3.5295      3.956      5.738    17.1972 0.0000e+00
      4.049      0.060     4.7498     49.496     34.282  28.930849     2.9700     3.1881     0.0852     0.8037 2.9373e+00     3.3642      3.971      5.760    17.1964 0.0000e+00
      4.065      0.059     4.7537     49.510     34.280  28.928660     2.9700     3.1309     0.0852     0.8037 2.8867e+00     3.5295      3.986      5.782    17.1954 0.0000e+00
      4.081      0.059     4.7580     49.518     34.284  28.931686     2.9700     3.1003     0.0852     0.8037 2.8008e+00     3.5295      4.002      5.804    17.1941 0.0000e+00
      4.096      0.058     4.7616     49.522     34.281  28.928853     2.9700     3.1499     0.0852     0.7614 2.7681e+00     3.4243      4.017      5.826    17.1928 0.0000e+00
      4.110      0.057     4.7641     49.523     34.276  28.923366     2.9700     3.1080     0.0852     0.7614 2.7537e+00     3.4845      4.031      5.846    17.1917 0.0000e+00
      4.124      0.055     4.7655     49.527     34.270  28.917722     2.9700     3.1080     0.0852     0.7614 2.7520e+00     3.4394      4.045      5.866    17.1908 0.0000e+00
      4.138      0.055     4.7664     49.533     34.262  28.910416     2.9700     3.1232     0.0852     0.7614 2.7275e+00     3.3943      4.058      5.886    17.1899 0.0000e+00
      4.152      0.054     4.7669     49.537     34.264  28.911378     2.9700     3.1461     0.0852     0.7614 2.6770e+00     3.3642      4.071      5.905    17.1890 0.0000e+00
      4.165      0.054     4.7671     49.545     34.275  28.920866     2.9700     3.1309     0.0426     0.8460 2.6614e+00     3.4544      4.085      5.924    17.1880 0.0000e+00
      4.179      0.054     4.7676     49.558     34.281  28.925569     2.9700     3.1423     0.0426     0.8460 2.6366e+00     3.3792      4.098      5.944    17.1871 0.0000e+00
      4.193      0.055     4.7683     49.572     34.283  28.926743     2.9700     3.1270     0.0426     0.8460 2.5699e+00     3.3792      4.112      5.964    17.1862 0.0000e+00
      4.207      0.055     4.7688     49.581     34.295  28.936579     2.9700     3.1232     0.0426     0.8460 2.5371e+00     3.3943      4.125      5.983    17.1855 0.0000e+00
      4.221      0.055     4.7695     49.579     34.315  28.953741     2.9700     3.1309     0.0852     0.8460 2.5130e+00     3.5596      4.139      6.003    17.1849 0.0000e+00
      4.235      0.056     4.7708     49.569     34.331  28.966966     2.9700     3.1499     0.0852     0.8460 2.4686e+00     3.4845      4.153      6.024    17.1845 0.0000e+00
      4.249      0.056     4.7722     49.556     34.342  28.975820     2.9700     3.1499     0.0852     0.8460 2.4119e+00     3.4394      4.167      6.044    17.1842 0.0000e+00
      4.264      0.056     4.7731     49.543     34.359  28.990585     2.9700     3.1347     0.0852     0.8460 2.3647e+00     3.4544      4.181      6.064    17.1839 0.0000e+00
      4.278      0.056     4.7730     49.529     34.379  29.007278     2.9700     3.1576     0.0852     0.8037 2.3575e+00     3.5446      4.195      6.085    17.1838 0.0000e+00
      4.293      0.056     4.7720     49.513     34.388  29.014511     2.9700     3.0584     0.0852     0.8037 2.3003e+00     3.3492      4.209      6.105    17.1836 0.0000e+00
      4.307      0.055     4.7707     49.500     34.389  29.014213     2.9700     3.0927     0.0852     0.8037 2.2973e+00     3.5295      4.223      6.126    17.1835 0.0000e+00
      4.321      0.055     4.7695     49.492     34.385  29.010265     2.9700     3.0775     0.0852     0.8037 2.2651e+00     3.4694      4.237      6.146    17.1834 0.0000e+00
      4.335      0.055     4.7682     49.485     34.379  29.005574     2.9700     3.0698     0.0426     0.7191 2.1863e+00     3.3642      4.251      6.166    17.1832 0.0000e+00
      4.349      0.055     4.7667     49.476     34.377  29.002848     2.9700     3.1423     0.0426     0.7191 2.2025e+00     3.3943      4.264      6.185    17.1827 0.0000e+00
      4.362      0.056     4.7655     49.464     34.381  29.005321     2.9700     3.1576     0.0426     0.7191 2.2077e+00     3.3642      4.278      6.204    17.1817 0.0000e+00
      4.376      0.057     4.7648     49.448     34.401  29.021570     2.9700     3.1080     0.0426     0.7191 2.1934e+00     3.5295      4.291      6.224    17.1809 0.0000e+00
      4.390      0.059     4.7642     49.433     34.444  29.055930     2.9700     3.1576     0.0426     0.7191 2.1901e+00     3.4394      4.305      6.244    17.1803 0.0000e+00
      4.405      0.061     4.7634     49.423     34.511  29.109643     2.9700     3.3941     0.0852     0.8037 2.1088e+00     3.3642      4.320      6.266    17.1796 0.0000e+00
      4.422      0.063     4.7623     49.422     34.587  29.171294     2.9700     3.3788     0.0852     0.8037 2.1088e+00     3.4544      4.336      6.289    17.1784 0.0000e+00
      4.438      0.065     4.7610     49.430     34.652  29.223664     2.9700     3.3826     0.0852     0.8037 2.0783e+00     3.4694      4.353      6.313    17.1765 0.0000e+00
      4.456      0.066     4.7598     49.449     34.712  29.270820     2.9700     3.3864     0.0852     0.8037 1.9908e+00     3.4544      4.369      6.337    17.1739 0.0000e+00
      4.473      0.066     4.7592     49.476     34.771  29.317416     2.9700     3.4933     0.0852     0.8460 1.9757e+00     3.4544      4.386      6.362    17.1709 0.0000e+00
      4.490      0.066     4.7594     49.500     34.815  29.352119     2.9700     3.4933     0.0852     0.8460 1.9358e+00     3.4093      4.403      6.386    17.1673 0.0000e+00
      4.507      0.066     4.7606     49.511     34.830  29.362403     2.9700     3.4933     0.0852     0.8460 1.8859e+00     3.5145      4.420      6.410    17.1629 0.0000e+00
      4.523      0.065     4.7629     49.506     34.816  29.351010     2.9700     3.4704     0.0852     0.8460 1.8559e+00     3.4694      4.436      6.434    17.1581 0.0000e+00
      4.540      0.065     4.7660     49.479     34.796  29.334703     2.9700     3.4475     0.0852     0.8037 1.8290e+00     3.4694      4.452      6.457    17.1536 0.0000e+00
      4.556      0.064     4.7687     49.431     34.798  29.338830     2.9700     3.4551     0.0852     0.8037 1.8318e+00     3.5295      4.468      6.480    17.1499 0.0000e+00
      4.572      0.065     4.7700     49.372     34.855  29.388252     2.9700     3.4284     0.0852     0.8037 1.7638e+00     3.4694      4.484      6.503    17.1476 0.0000e+00
      4.588      0.065     4.7695     49.313     34.945  29.464470     2.9700     3.4475     0.0852     0.8037 1.7203e+00     3.4093      4.500      6.526    17.1474 0.0000e+00
      4.605      0.065     4.7667     49.261     35.012  29.520491     2.9700     3.4513     0.0852     0.8037 1.6977e+00     3.4243      4.516      6.550    17.1491 0.0000e+00
      4.622      0.065     4.7619     49.222     35.043  29.545513     2.9700     3.4360     0.0852     0.8037 1.6177e+00     3.3943      4.532      6.574    17.1517 0.0000e+00
      4.639      0.066     4.7560     49.198     35.069  29.566010     2.9700     3.4399     0.0852     0.8037 1.5923e+00     3.4243      4.549      6.598    17.1538 0.0000e+00
      4.656      0.066     4.7503     49.186     35.139  29.623086     2.9700     3.4589     0.0852     0.8037 1.5402e+00     3.3642      4.565      6.622    17.1542 0.0000e+00
      4.672      0.065     4.7453     49.179     35.281  29.739880     2.9700     3.4017     0.0852     0.8037 1.5601e+00     3.3943      4.582      6.645    17.1533 0.0000e+00
      4.689      0.065     4.7417     49.168     35.461  29.886159     3.0600     3.3864     0.0852     0.7614 1.4856e+00     3.3642      4.598      6.669    17.1517 0.0000e+00
      4.705      0.064     4.7396     49.146     35.620  30.013813     3.0600     3.3788     0.0852     0.7614 1.4603e+00     3.5446      4.614      6.692    17.1499 0.0000e+00
      4.722      0.064     4.7386     49.113     35.732  30.101442     3.0600     3.3903     0.0852     0.7614 1.3931e+00     3.4394      4.630      6.716    17.1476 0.0000e+00
      4.738      0.063     4.7384     49.073     35.794  30.148653     3.0600     3.2491     0.0852     0.7614 1.3937e+00     3.3041      4.646      6.739    17.1432 0.0000e+00
      4.754      0.063     4.7381     49.026     35.819  30.166055     2.9700     3.2796     0.0852     0.7614 1.3391e+00     3.4995      4.662      6.762    17.1356 0.0000e+00
      4.769      0.063     4.7369     48.964     35.828  30.172150     2.9700     3.2491     0.0852     0.7614 1.3391e+00     3.4995      4.677      6.784    17.1263 0.0000e+00
      4.785      0.063     4.7346     48.887     35.849  30.188361     2.9700     3.2186     0.0852     0.7614 1.3420e+00     3.3642      4.692      6.806    17.1172 0.0000e+00
      4.800      0.064     4.7315     48.805     35.889  30.220994     2.9700     3.2033     0.0852     0.7614 1.3171e+00     3.6648      4.708      6.828    17.1101 0.0000e+00
      4.817      0.065     4.7274     48.716     35.942  30.262908     3.0600     3.2186     0.0852     0.7614 1.2641e+00     3.7249      4.724      6.851    17.1056 0.0000e+00
      4.834      0.066     4.7216     48.623     36.007  30.315381     3.0600     3.1805     0.0852     0.7614 1.2494e+00     3.6949      4.740      6.875    17.1032 0.0000e+00
      4.851      0.067     4.7143     48.535     36.092  30.384487     3.0600     3.2072     0.0852     0.7614 1.2545e+00     3.6648      4.757      6.900    17.1016 0.0000e+00
      4.868      0.069     4.7066     48.459     36.207  30.478753     3.0600     3.1919     0.0852     0.7614 1.2177e+00     3.6197      4.774      6.925    17.0996 0.0000e+00
      4.886      0.070     4.6983     48.401     36.378  30.619356     3.0600     3.1881     0.0852     0.7614 1.1867e+00     3.5897      4.791      6.949    17.0967 0.0000e+00
      4.903      0.071     4.6897     48.363     36.606  30.806170     3.0600     3.2110     0.0852     0.8037 1.1818e+00     3.6798      4.809      6.975    17.0934 0.0000e+00
      4.921      0.072     4.6816     48.336     36.850  31.005849     3.0600     3.2224     0.0852     0.8037 1.1728e+00     3.5596      4.826      7.000    17.0899 0.0000e+00
      4.940      0.074     4.6746     48.308     37.116  31.222139     3.0600     3.2339     0.0852     0.8037 1.1476e+00     3.8903      4.845      7.027    17.0859 0.0000e+00
      4.959      0.075     4.6694     48.270     37.390  31.445393     3.0600     3.2911     0.0852     0.8037 1.1357e+00     3.9504      4.863      7.054    17.0811 0.0000e+00
      4.979      0.076     4.6664     48.214     37.619  31.630198     3.0600     3.2567     0.0852     0.7614 1.1586e+00     3.9203      4.882      7.082    17.0748 0.0000e+00
      4.998      0.077     4.6646     48.126     37.831  31.802073     3.0600     3.2567     0.0852     0.7614 1.1135e+00     3.9504      4.901      7.109    17.0669 0.0000e+00
      5.018      0.077     4.6628     48.002     38.099  32.020715     3.0600     3.1881     0.0852     0.7614 1.1325e+00     4.1758      4.921      7.138    17.0575 0.0000e+00
      5.039      0.077     4.6601     47.843     38.443  32.302842     3.0600     3.2072     0.0852     0.7614 1.0525e+00     4.2059      4.941      7.166    17.0473 0.0000e+00
      5.058      0.075     4.6555     47.649     38.854  32.638540     3.0600     3.2148     0.0852     0.7614 1.0398e+00     4.0857      4.960      7.194    17.0376 0.0000e+00
      5.078      0.074     4.6478     47.426     39.392  33.077726     3.0600     3.1995     0.0852     0.7614 9.7523e-01     4.1909      4.979      7.222    17.0296 0.0000e+00
      5.096      0.072     4.6366     47.189     40.220  33.755336     3.0600     3.1499     0.0852     0.7614 9.7927e-01     5.1678      4.997      7.248    17.0224 0.0000e+00
      5.114      0.070     4.6220     46.948     41.419  34.735230     3.0600     3.1194     0.0852     0.7614 9.7058e-01     5.1077      5.015      7.274    17.0144 0.0000e+00
      5.131      0.069     4.6042     46.696     43.081  36.092566     3.2400     3.1499     0.1278     0.6768 1.0047e+00     4.9875      5.032      7.298    17.0047 0.0000e+00
      5.148      0.068     4.5837     46.424     45.608  38.155636     3.2400     3.1499     0.1278     0.6768 9.4293e-01     5.1378      5.049      7.323    16.9929 0.0000e+00
      5.166      0.067     4.5622     46.113     49.621  41.433005     3.2400     3.3903     0.1278     0.6768 9.4560e-01     6.5055      5.066      7.347    16.9776 0.0000e+00
      5.183      0.066     4.5407     45.733     55.288  46.043951     3.2400     3.3597     0.1278     0.6768 9.4068e-01     6.4153      5.083      7.371    16.9565 0.0000e+00
      5.199      0.065     4.5190     45.237     61.733  51.236884     3.2400     3.4017     0.1278     0.6768 9.1647e-01     6.7009      5.099      7.395    16.9275 0.0000e+00
      5.216      0.064     4.4962     44.552     67.810  56.056200     3.5100     3.3788     0.1278     0.8037 8.9307e-01     6.6408      5.115      7.418    16.8870 0.0000e+00
      5.232      0.064     4.4713     43.582     73.191  60.240849     3.5100     4.7865     0.1278     0.8037 8.9580e-01     7.0316      5.131      7.441    16.8264 0.0000e+00
      5.248      0.063     4.4426     42.208     78.424  64.246471     3.5100     4.7903     0.1278     0.8037 8.8323e-01     7.0015      5.147      7.464    16.7326 0.0000e+00
      5.264      0.063     4.4060     40.289     83.943  68.425238     3.5100     4.7979     0.1278     0.8037 8.7312e-01     6.9865      5.162      7.487    16.5983 0.0000e+00
      5.280      0.063     4.3534     37.694     89.276  72.385862     4.8600     4.7674     0.1704     1.0998 8.2749e-01     7.1067      5.178      7.510    16.4328 0.0000e+00
      5.296      0.063     4.2735     34.352     93.752  75.595292     4.8600     6.4955     0.1704     1.0998 8.7084e-01     6.7310      5.193      7.532    16.2507 0.0000e+00
      5.312      0.062     4.1539     30.309     97.222  77.962773     4.8600     6.5107     0.1704     1.0998 7.9696e-01     6.8512      5.209      7.554    16.0568 0.0000e+00
      5.328      0.062     3.9804     25.728     99.832  79.645244     4.8600     6.4840     0.1704     1.0998 8.4898e-01     6.7610      5.224      7.577    15.8476 0.0000e+00
      5.344      0.062     3.7393     20.846    101.929  80.946450     7.8300     6.4764     0.1704     1.4382 7.9991e-01     6.8662      5.240      7.600    15.6215 0.0000e+00
      5.360      0.061     3.4224     15.937    103.892  82.175649     7.8300     4.8513     0.1704     1.4382 7.9610e-01     4.2059      5.256      7.623    15.3846 0.0000e+00
      5.375      0.061     3.0324     11.286    105.851  83.424391     7.8300     4.8361     0.1704     1.4382 7.8972e-01     4.1458      5.271      7.645    15.1500 0.0000e+00
      5.390      0.060     2.5839      7.146    107.777  84.656426     7.8300     4.8361     0.1704     1.4382 7.6373e-01     4.1458      5.286      7.666    14.9321 0.0000e+00
      5.405      0.060     2.1003      3.707    109.644  85.848891     8.6400     4.8322     0.1278     1.0575 7.5106e-01     4.1458      5.300      7.687    14.7404 0.0000e+00
      5.420      0.061     1.6096      1.061    111.556  87.089462     8.6400     3.2453     0.1278     1.0575 6.8614e-01     3.6648      5.315      7.709    14.5749 0.0000e+00
      5.436      0.061     1.1415     -0.805    113.588  88.438916     8.6400     3.2644     0.1278     1.0575 6.7696e-01     3.6949      5.331      7.731    14.4281 0.0000e+00
      5.451      0.062     0.7227     -1.969    115.595  89.780541     8.6400     3.2491     0.1278     1.0575 6.8883e-01     3.7099      5.346      7.754    14.2919 0.0000e+00
      5.467      0.063     0.3734     -2.541    117.425  90.997494     8.6400     3.2720     0.1278     1.0575 6.9228e-01     3.7249      5.362      7.776    14.1640 0.0000e+00
      5.483      0.065     0.1037     -2.645    119.086  92.100513     8.8200     2.8791     0.1278     0.8037 6.3755e-01     3.1688      5.377      7.799    14.0469 0.0000e+00
      5.500      0.067    -0.0869     -2.410    120.702  93.183141     8.8200     2.8982     0.1278     0.8037 6.3245e-01     3.2740      5.394      7.822    13.9408 0.0000e+00
      5.517      0.069    -0.2062     -1.964    122.349  94.295735     8.8200     2.8829     0.1278     0.8037 6.3121e-01     3.1237      5.410      7.847    13.8435 0.0000e+00
      5.534      0.071    -0.2648     -1.411    124.028  95.429105     8.8200     2.8867     0.1278     0.8037 6.4690e-01     3.1688      5.428      7.872    13.7547 0.0000e+00
      5.553      0.073    -0.2752     -0.830    125.723  96.569646     8.7300     2.6502     0.0852     0.7191 6.3025e-01     3.1688      5.446      7.898    13.6758 0.0000e+00
      5.572      0.075    -0.2508     -0.268    127.416  97.699693     8.7300     2.6655     0.0852     0.7191 6.0529e-01     3.2139      5.464      7.925    13.6058 0.0000e+00
      5.592      0.077    -0.2043      0.237    129.100  98.812667     8.7300     2.6426     0.0852     0.7191 5.6463e-01     3.1388      5.484      7.953    13.5401 0.0000e+00
      5.612      0.078    -0.1468      0.656    130.726  99.875561     8.7300     2.6578     0.0852     0.7191 5.9331e-01     3.1688      5.503      7.982    13.4751 0.0000e+00
      5.632      0.078    -0.0862      0.975    132.263 100.875778     8.7300     2.2878     0.0852     0.7191 5.6783e-01     3.1538      5.523      8.010    13.4097 0.0000e+00
      5.652      0.078    -0.0276      1.191    133.736 101.835645     8.7300     2.2725     0.0852     0.7191 5.2316e-01     3.1838      5.542      8.039    13.3428 0.0000e+00
      5.672      0.077     0.0252      1.312    135.090 102.711082     8.7300     2.2687     0.0852     0.7191 4.9842e-01     3.2289      5.562      8.067    13.2733 0.0000e+00
      5.692      0.075     0.0692      1.359    136.261 103.457338     8.7300     2.2725     0.0852     0.7191 5.1214e-01     3.1688      5.581      8.095    13.2033 0.0000e+00
      5.711      0.074     0.1027      1.361    137.321 104.132324     8.7300     2.3298     0.0852     0.7191 4.8612e-01     3.1688      5.600      8.122    13.1371 0.0000e+00
      5.729      0.072     0.1255      1.344    138.232 104.705376     8.2800     2.3374     0.1278     0.5499 4.8107e-01     2.9734      5.618      8.149    13.0754 0.0000e+00
      5.747      0.069     0.1383      1.331    138.827 105.057038     8.2800     2.3336     0.1278     0.5499 4.8264e-01     2.9734      5.636      8.175    13.0170 0.0000e+00
      5.765      0.067     0.1434      1.341    139.170 105.245314     8.2800     2.3374     0.1278     0.5499 4.3921e-01     2.8682      5.653      8.200    12.9633 0.0000e+00
      5.782      0.064     0.1437      1.382    139.419 105.385994     8.2800     2.3870     0.1278     0.5499 4.2762e-01     2.8231      5.670      8.224    12.9154 0.0000e+00
      5.798      0.062     0.1421      1.452    139.621 105.500694     8.1000     2.3832     0.0852     0.5922 4.4866e-01     2.8532      5.685      8.246    12.8723 0.0000e+00
      5.812      0.060     0.1408      1.541    139.851 105.637886     8.1000     2.4022     0.0852     0.5922 4.2181e-01     2.8382      5.700      8.267    12.8360 0.0000e+00
      5.827      0.059     0.1419      1.637    140.343 105.969292     8.1000     2.3794     0.0852     0.5922 4.5376e-01     2.8231      5.714      8.287    12.8100 0.0000e+00
      5.841      0.059     0.1463      1.736    141.359 106.672719     8.1000     2.4671     0.0852     0.5922 4.3033e-01     3.2139      5.728      8.308    12.7927 0.0000e+00
      5.855      0.059     0.1537      1.837    142.938 107.754895     8.5500     2.4595     0.0852     0.6345 4.2062e-01     3.1538      5.742      8.328    12.7792 0.0000e+00
      5.870      0.061     0.1632      1.934    144.917 109.083056     8.5500     2.4595     0.0852     0.6345 3.7291e-01     3.2440      5.757      8.350    12.7667 0.0000e+00
      5.886      0.062     0.1734      2.028    147.065 110.494589     8.5500     2.4480     0.0852     0.6345 3.8410e-01     3.2139      5.772      8.372    12.7530 0.0000e+00
      5.902      0.064     0.1841      2.118    149.115 111.809305     8.5500     2.2725     0.0852     0.6345 3.4276e-01     2.9133      5.788      8.395    12.7317 0.0000e+00
      5.919      0.066     0.1949      2.198    150.874 112.904649     8.6400     2.2840     0.0852     0.5922 3.4254e-01     3.0335      5.805      8.419    12.6948 0.0000e+00
      5.936      0.067     0.2055      2.273    152.411 113.846064     8.6400     2.2649     0.0852     0.5922 3.3972e-01     3.0185      5.821      8.444    12.6394 0.0000e+00
      5.954      0.068     0.2158      2.341    153.908 114.767284     8.6400     2.2725     0.0852     0.5922 3.3957e-01     2.9283      5.838      8.468    12.5700 0.0000e+00
      5.971      0.068     0.2257      2.395    155.428 115.703206     8.6400     2.0360     0.0852     0.5922 3.3343e-01     2.8983      5.856      8.493    12.4944 0.0000e+00
      5.989      0.068     0.2346      2.435    156.932 116.621059     8.6400     2.0513     0.0852     0.5922 3.0488e-01     2.9885      5.873      8.518    12.4199 0.0000e+00
      6.006      0.067     0.2430      2.461    158.363 117.481248     8.3700     2.0131     0.0852     0.5076 3.1450e-01     2.9133      5.890      8.543    12.3510 0.0000e+00
      6.023      0.066     0.2506      2.473    159.659 118.246686     8.3700     2.0360     0.0852     0.5076 3.1056e-01     3.0035      5.907      8.567    12.2865 0.0000e+00
      6.040      0.064     0.2567      2.474    160.778 118.894779     8.3700     2.0322     0.0852     0.5076 2.7071e-01     2.8832      5.923      8.591    12.2228 0.0000e+00
      6.056      0.063     0.2613      2.480    161.745 119.447205     8.3700     2.0284     0.0852     0.5076 2.7224e-01     2.9734      5.939      8.614    12.1581 0.0000e+00
      6.072      0.062     0.2646      2.500    162.606 119.935924     8.5500     2.0246     0.1278     0.4653 2.7112e-01     3.0786      5.955      8.636    12.0935 0.0000e+00
      6.087      0.061     0.2662      2.527    163.364 120.361986     8.5500     2.0208     0.1278     0.4653 2.5965e-01     2.9584      5.970      8.658    12.0316 0.0000e+00
      6.103      0.061     0.2667      2.547    164.009 120.719671     8.5500     1.9101     0.1278     0.4653 2.5656e-01     2.8532      5.985      8.680    11.9748 0.0000e+00
      6.118      0.061     0.2677      2.552    164.553 121.018836     8.5500     1.9101     0.1278     0.4653 2.3845e-01     2.7179      6.000      8.702    11.9240 0.0000e+00
      6.134      0.062     0.2700      2.549    165.028 121.281578     8.3700     1.9140     0.0852     0.4653 2.1122e-01     2.8832      6.015      8.724    11.8783 0.0000e+00
      6.149      0.063     0.2732      2.536    165.478 121.534203     8.3700     1.8987     0.0852     0.4653 2.3824e-01     2.8532      6.031      8.747    11.8374 0.0000e+00
      6.166      0.064     0.2756      2.514    165.948 121.798330     8.3700     1.9216     0.0852     0.4653 2.2306e-01     2.7931      6.047      8.770    11.8012 0.0000e+00
      6.182      0.065     0.2764      2.486    166.448 122.080744     8.3700     1.7843     0.0852     0.4653 1.9372e-01     2.7931      6.063      8.793    11.7702 0.0000e+00
      6.199      0.066     0.2761      2.455    166.987 122.389127     8.6400     1.7766     0.0852     0.4230 1.8808e-01     2.8231      6.079      8.817    11.7439 0.0000e+00
      6.216      0.067     0.2750      2.421    167.575 122.732118     8.6400     1.7728     0.0852     0.4230 1.7571e-01     2.8382      6.096      8.841    11.7200 0.0000e+00
      6.233      0.067     0.2727      2.394    168.195 123.095758     8.6400     1.7804     0.0852     0.4230 1.6711e-01     2.7931      6.113      8.866    11.6957 0.0000e+00
      6.251      0.067     0.2698      2.378    168.813 123.453692     8.6400     1.7232     0.0852     0.4230 1.6087e-01     2.9434      6.130      8.891    11.6702 0.0000e+00
      6.268      0.065     0.2666      2.367    169.402 123.787984     8.6400     1.7156     0.0852     0.4230 1.6084e-01     2.9133      6.147      8.916    11.6443 0.0000e+00
      6.285      0.063     0.2631      2.358    169.966 124.102244     8.5500     1.7232     0.0852     0.5076 1.3701e-01     2.9133      6.164      8.940    11.6181 0.0000e+00
      6.301      0.060     0.2603      2.352    170.527 124.414625     8.5500     1.7041     0.0852     0.5076 1.2672e-01     2.8682      6.180      8.962    11.5911 0.0000e+00
      6.316      0.057     0.2587      2.347    171.083 124.726869     8.5500     1.6851     0.0852     0.5076 1.1620e-01     2.8231      6.194      8.983    11.5631 0.0000e+00
      6.330      0.054     0.2577      2.339    171.621 125.030731     8.5500     1.7232     0.0852     0.5076 1.2173e-01     2.7179      6.208      9.003    11.5347 0.0000e+00
      6.343      0.052     0.2569      2.331    172.147 125.331646     8.2800     1.7080     0.0852     0.4653 1.2349e-01     2.7931      6.221      9.022    11.5060 0.0000e+00
      6.356      0.051     0.2565      2.325    172.658 125.624315     8.2800     1.7041     0.0852     0.4653 1.2648e-01     2.8532      6.233      9.040    11.4774 0.0000e+00
      6.368      0.051     0.2560      2.327    173.137 125.893280     8.2800     1.5592     0.0852     0.4653 1.2015e-01     2.7931      6.245      9.057    11.4500 0.0000e+00
      6.381      0.051     0.2553      2.335    173.578 126.138647     8.2800     1.5783     0.0852     0.4653 1.3520e-01     2.7179      6.257      9.075    11.4243 0.0000e+00
      6.393      0.051     0.2546      2.344    173.983 126.366159     8.4600     1.5935     0.0852     0.4230 1.1623e-01     2.7329      6.270      9.094    11.4004 0.0000e+00
      6.407      0.052     0.2541      2.352    174.357 126.578793     8.4600     1.5668     0.0852     0.4230 1.1600e-01     2.8532      6.283      9.113    11.3772 0.0000e+00
      6.420      0.053     0.2543      2.366    174.705 126.779534     8.4600     1.6546     0.0852     0.4230 1.1605e-01     3.0185      6.296      9.132    11.3543 0.0000e+00
      6.434      0.053     0.2554      2.396    175.041 126.974165     8.4600     1.6507     0.0852     0.4230 1.1617e-01     2.8832      6.309      9.151    11.3326 0.0000e+00
      6.447      0.053     0.2565      2.448    175.359 127.156889     8.4600     1.6584     0.0852     0.4230 1.1615e-01     2.9283      6.323      9.170    11.3132 0.0000e+00
      6.461      0.053     0.2575      2.521    175.623 127.302821     8.4600     1.6584     0.0852     0.4653 1.1610e-01     3.0185      6.336      9.190    11.2963 0.0000e+00
      6.475      0.052     0.2591      2.606    175.801 127.391188     8.4600     1.5363     0.0852     0.4653 1.1625e-01     2.5826      6.350      9.209    11.2813 0.0000e+00
      6.488      0.051     0.2625      2.695    175.909 127.433617     8.4600     1.5516     0.0852     0.4653 1.1630e-01     2.6728      6.363      9.228    11.2673 0.0000e+00
      6.501      0.050     0.2682      2.790    175.990 127.459325     8.4600     1.5477     0.0852     0.4653 1.1633e-01     2.5977      6.375      9.246    11.2536 0.0000e+00
      6.513      0.050     0.2764      2.871    176.039 127.461242     8.4600     1.5363     0.0852     0.3384 1.1633e-01     2.5376      6.387      9.264    11.2406 0.0000e+00
      6.525      0.050     0.2857      2.912    176.035 127.421971     8.4600     1.5554     0.0852     0.3384 1.1612e-01     2.5526      6.399      9.280    11.2291 0.0000e+00
      6.537      0.052     0.2955      2.905    175.957 127.327061     8.4600     1.5210     0.0852     0.3384 1.1600e-01     2.5075      6.410      9.298    11.2188 0.0000e+00
      6.550      0.055     0.3060      2.868    175.710 127.109420     8.4600     1.5287     0.0852     0.3384 1.1607e-01     2.5526      6.423      9.316    11.2092 0.0000e+00
      6.563      0.060     0.3150      2.808    175.140 126.655300     8.4600     1.5020     0.1278     0.3807 1.1600e-01     2.5225      6.437      9.336    11.1994 0.0000e+00
      6.579      0.065     0.3196      2.715    174.034 125.809779     8.4600     1.5439     0.1278     0.3807 1.1617e-01     2.7630      6.452      9.357    11.1889 0.0000e+00
      6.596      0.071     0.3188      2.606    171.977 124.269788     8.4600     1.5401     0.1278     0.3807 1.1620e-01     2.8532      6.469      9.382    11.1776 0.0000e+00
      6.616      0.076     0.3148      2.514    168.193 121.479414     8.4600     1.5668     0.1278     0.3807 1.1612e-01     2.7931      6.488      9.410    11.1656 0.0000e+00
      6.637      0.078     0.3083      2.456    161.480 116.581142     8.4600     1.5210     0.0852     0.4230 1.1600e-01     2.8832      6.509      9.440    11.1526 0.0000e+00
      6.659      0.079     0.2982      2.429    149.891 108.181215     8.4600     1.4867     0.0852     0.4230 1.1590e-01     2.7630      6.530      9.472    11.1375 0.0000e+00
      6.681      0.078     0.2864      2.423    130.179  93.948120     8.4600     1.4791     0.0852     0.4230 1.1612e-01     2.7179      6.551      9.502    11.1192 0.0000e+00
      6.701      0.076     0.2765      2.432     96.984  70.034628     8.4600     1.5020     0.0852     0.4230 1.1625e-01     2.7931      6.571      9.530    11.0982 0.0000e+00
      6.719      0.072     0.2703      2.450     41.370  30.024008     8.4600     1.4905     0.0852     0.4230 1.1628e-01     2.8983      6.589      9.557    11.0761 0.0000e+00
      6.737      0.069     0.2674      2.473    -51.587 -36.802985     8.4600     1.4066     0.1278     0.4230 1.1595e-01     2.5376      6.607      9.582    11.0538 0.0000e+00
      6.754      0.067     0.2669      2.489   -206.778-148.320611     8.4600     1.3913     0.1278     0.4230 1.1623e-01     2.5826      6.623      9.606    11.0318 0.0000e+00
      6.770      0.065     0.2680      2.500   -465.720-334.338544     8.4600     1.4104     0.1278     0.4230 1.1605e-01     2.5075      6.639      9.629    11.0104 0.0000e+00
      6.786      0.064     0.2702      2.508   -627.484-450.565820     8.4600     1.4028     0.1278     0.4230 1.1612e-01     2.6728      6.655      9.652    10.9895 0.0000e+00
      6.802      0.063     0.2728      2.511   -465.175-334.070788     8.3700     1.4791     0.0852     0.3807 1.1628e-01     2.5526      6.671      9.675    10.9685 0.0000e+00
      6.819      0.063     0.2747      2.522   -205.669-147.771410     8.3700     1.4905     0.0852     0.3807 1.1630e-01     2.4624      6.687      9.698    10.9474 0.0000e+00
      6.835      0.063     0.2760      2.550    -49.913 -35.965187     8.3700     1.4524     0.0852     0.3807 1.1620e-01     2.5977      6.703      9.721    10.9271 0.0000e+00
      6.851      0.064     0.2771      2.585     43.603  31.152925     8.3700     1.4409     0.0852     0.3807 1.1607e-01     2.5225      6.719      9.744    10.9088 0.0000e+00
      6.867      0.064     0.2775      2.612     99.799  71.473126     8.3700     1.4524     0.0852     0.4230 1.1617e-01     2.5676      6.735      9.767    10.8930 0.0000e+00
      6.884      0.064     0.2787      2.621    133.620  95.723592     8.3700     1.4676     0.0852     0.4230 1.1623e-01     2.5526      6.751      9.791    10.8796 0.0000e+00
      6.900      0.064     0.2819      2.615    154.009 110.327333     8.3700     1.4791     0.0852     0.4230 1.1630e-01     2.5526      6.766      9.814    10.8685 0.0000e+00
      6.916      0.065     0.2859      2.600    166.332 119.136888     8.3700     1.4486     0.0852     0.4230 1.1630e-01     2.6277      6.782      9.837    10.8590 0.0000e+00
      6.932      0.065     0.2890      2.576    173.815 124.469631     8.3700     1.3875     0.0852     0.4230 1.1628e-01     2.4624      6.798      9.860    10.8498 0.0000e+00
      6.949      0.065     0.2900      2.546    178.402 127.721755     8.3700     1.4257     0.0852     0.3807 1.1625e-01     2.5826      6.815      9.884    10.8401 0.0000e+00
      6.966      0.065     0.2894      2.519    181.235 129.716712     8.3700     1.3951     0.0852     0.3807 1.1615e-01     2.4624      6.831      9.908    10.8300 0.0000e+00
      6.983      0.065     0.2878      2.496    182.977 130.930767     8.3700     1.3837     0.0852     0.3807 1.1628e-01     2.5376      6.848      9.932    10.8194 0.0000e+00
      6.999      0.064     0.2852      2.478    184.050 131.667767     8.3700     1.3570     0.0852     0.3807 1.1617e-01     2.5225      6.864      9.956    10.8084 0.0000e+00
      7.016      0.063     0.2819      2.474    184.744 132.136185     8.3700     1.3341     0.0852     0.5076 1.1610e-01     2.5075      6.880      9.979    10.7974 0.0000e+00
      7.032      0.062     0.2790      2.484    185.235 132.462922     8.3700     1.3684     0.0852     0.5076 1.1607e-01     2.5225      6.896     10.002    10.7868 0.0000e+00
      7.047      0.061     0.2765      2.496    185.603 132.703264     8.3700     1.3379     0.0852     0.5076 1.1625e-01     2.6277      6.911     10.024    10.7770 0.0000e+00
      7.063      0.060     0.2746      2.497    185.883 132.883493     8.3700     1.3990     0.0852     0.5076 1.1640e-01     2.5075      6.926     10.045    10.7681 0.0000e+00
      7.078      0.059     0.2742      2.488    186.128 133.039727     8.4600     1.4142     0.0852     0.3807 1.1620e-01     2.5075      6.941     10.067    10.7602 0.0000e+00
      7.092      0.059     0.2754      2.473    186.358 133.185768     8.4600     1.4333     0.0852     0.3807 1.1617e-01     2.5075      6.955     10.088    10.7532 0.0000e+00
      7.107      0.058     0.2767      2.458    186.547 133.302846     8.4600     1.4028     0.0852     0.3807 1.1612e-01     2.5526      6.969     10.108    10.7470 0.0000e+00
      7.121      0.058     0.2769      2.447    186.703 133.400291     8.4600     1.4066     0.0852     0.3807 1.1623e-01     2.5225      6.984     10.129    10.7414 0.0000e+00
      7.136      0.059     0.2759      2.430    186.874 133.512046     8.4600     1.4371     0.0852     0.3384 1.1607e-01     2.4925      6.998     10.150    10.7363 0.0000e+00
      7.151      0.061     0.2743      2.404    187.082 133.650004     8.4600     1.4142     0.0852     0.3384 1.1602e-01     2.5826      7.013     10.172    10.7312 0.0000e+00
      7.166      0.064     0.2727      2.384    187.325 133.809158     8.4600     1.3913     0.0852     0.3384 1.1607e-01     2.4323      7.028     10.193    10.7265 0.0000e+00
      7.182      0.068     0.2714      2.384    187.593 133.978217     8.4600     1.3379     0.0852     0.3384 1.1628e-01     2.6578      7.043     10.215    10.7228 0.0000e+00
      7.199      0.073     0.2696      2.401    187.868 134.146538     8.4600     1.3379     0.0852     0.3384 1.1625e-01     2.5526      7.060     10.239    10.7200 0.0000e+00
      7.218      0.078     0.2667      2.419    188.130 134.301290     8.4600     1.3379     0.1278     0.4230 1.1605e-01     2.5225      7.079     10.267    10.7172 0.0000e+00
      7.240      0.083     0.2645      2.427    188.366 134.435973     8.4600     1.3456     0.1278     0.4230 1.1620e-01     2.5075      7.100     10.297    10.7132 0.0000e+00
      7.263      0.088     0.2645      2.430    188.586 134.560630     8.4600     1.4524     0.1278     0.4230 1.1615e-01     2.8832      7.122     10.330    10.7074 0.0000e+00
      7.286      0.092     0.2663      2.427    188.793 134.676656     8.4600     1.4791     0.1278     0.4230 1.1630e-01     2.7480      7.145     10.363    10.6998 0.0000e+00
      7.310      0.094     0.2684      2.407    188.965 134.769215     8.3700     1.4524     0.1278     0.4653 1.1617e-01     2.8983      7.169     10.398    10.6912 0.0000e+00
      7.335      0.095     0.2694      2.374    189.091 134.831145     8.3700     1.4447     0.1278     0.4653 1.1612e-01     2.8231      7.193     10.433    10.6823 0.0000e+00
      7.360      0.094     0.2698      2.347    189.188 134.874978     8.3700     1.3723     0.1278     0.4653 1.1612e-01     2.8832      7.218     10.468    10.6736 0.0000e+00
      7.384      0.093     0.2696      2.344    189.282 134.920365     8.3700     1.3189     0.1278     0.4653 1.1612e-01     2.7780      7.242     10.503    10.6653 0.0000e+00
      7.408      0.091     0.2674      2.366    189.382 134.971446     8.3700     1.3303     0.0852     0.5076 1.1610e-01     2.8382      7.265     10.537    10.6574 0.0000e+00
      7.431      0.088     0.2638      2.402    189.468 135.013978     8.3700     1.3494     0.0852     0.5076 1.1623e-01     2.8231      7.288     10.570    10.6500 0.0000e+00
      7.453      0.084     0.2609      2.424    189.553 135.055322     8.3700     1.4028     0.0852     0.5076 1.1612e-01     2.5526      7.309     10.601    10.6434 0.0000e+00
      7.474      0.081     0.2605      2.426    189.654 135.108493     8.3700     1.3951     0.0852     0.5076 1.1625e-01     2.5225      7.330     10.631    10.6375 0.0000e+00
      7.494      0.077     0.2630      2.416    189.741 135.151845     8.3700     1.4066     0.0852     0.5076 1.1605e-01     2.6277      7.349     10.659    10.6322 0.0000e+00
      7.513      0.075     0.2670      2.388    189.794 135.173052     8.4600     1.4447     0.1278     0.4230 1.1617e-01     2.6127      7.368     10.686    10.6272 0.0000e+00
      7.532      0.072     0.2695      2.351    189.828 135.183742     8.4600     1.3951     0.1278     0.4230 1.1617e-01     2.6428      7.386     10.713    10.6222 0.0000e+00
      7.550      0.071     0.2697      2.318    189.849 135.190744     8.4600     1.4295     0.1278     0.4230 1.1615e-01     2.4925      7.404     10.738    10.6172 0.0000e+00
      7.567      0.070     0.2686      2.282    189.862 135.195925     8.4600     1.3913     0.1278     0.4230 1.1617e-01     2.4624      7.421     10.763    10.6124 0.0000e+00
      7.585      0.069     0.2656      2.243    189.880 135.204648     8.5500     1.4142     0.0852     0.4653 1.1625e-01     2.5826      7.438     10.788    10.6080 0.0000e+00
      7.602      0.068     0.2616      2.217    189.923 135.229190     8.5500     1.3570     0.0852     0.4653 1.1630e-01     2.5225      7.455     10.813    10.6045 0.0000e+00
      7.619      0.067     0.2579      2.212    190.008 135.278087     8.5500     1.3570     0.0852     0.4653 1.1623e-01     2.6277      7.472     10.837    10.6024 0.0000e+00
      7.637      0.067     0.2539      2.220    190.130 135.342484     8.5500     1.3456     0.0852     0.4653 1.1625e-01     2.5826      7.489     10.862    10.6012 0.0000e+00
      7.653      0.067     0.2495      2.227    190.260 135.403728     8.4600     1.3723     0.0852     0.4653 1.1612e-01     2.5225      7.506     10.886    10.6002 0.0000e+00
      7.670      0.067     0.2466      2.239    190.398 135.468197     8.4600     1.3646     0.0852     0.4653 1.1600e-01     2.4925      7.522     10.910    10.5986 0.0000e+00
      7.687      0.066     0.2462      2.257    190.580 135.565024     8.4600     1.3379     0.0852     0.4653 1.1612e-01     2.5075      7.538     10.934    10.5954 0.0000e+00
      7.704      0.066     0.2470      2.285    190.812 135.700123     8.4600     1.3417     0.0852     0.4653 1.1617e-01     2.4624      7.555     10.958    10.5896 0.0000e+00
      7.721      0.066     0.2479      2.319    191.050 135.839860     8.4600     1.3303     0.1278     0.4653 1.1617e-01     2.4624      7.572     10.982    10.5815 0.0000e+00
      7.738      0.065     0.2492      2.331    191.239 135.945864     8.4600     1.3303     0.1278     0.4653 1.1605e-01     2.2971      7.589     11.007    10.5725 0.0000e+00
      7.755      0.065     0.2513      2.312    191.374 136.012564     8.4600     1.3494     0.1278     0.4653 1.1633e-01     2.3121      7.605     11.030    10.5640 0.0000e+00
      7.771      0.064     0.2544      2.284    191.470 136.049785     8.4600     1.3570     0.1278     0.4653 1.1630e-01     2.2971      7.621     11.053    10.5561 0.0000e+00
      7.787      0.065     0.2582      2.262    191.530 136.059491     8.4600     1.3456     0.1278     0.4653 1.1635e-01     2.2971      7.636     11.076    10.5485 0.0000e+00
      7.802      0.066     0.2596      2.256    191.586 136.064173     8.3700     1.3494     0.0852     0.5076 1.1605e-01     2.5526      7.652     11.098    10.5410 0.0000e+00
      7.819      0.068     0.2576      2.273    191.683 136.096923     8.3700     1.3570     0.0852     0.5076 1.1638e-01     2.5826      7.668     11.121    10.5333 0.0000e+00
      7.837      0.071     0.2545      2.302    191.811 136.154530     8.3700     1.3227     0.0852     0.5076 1.1620e-01     2.5075      7.685     11.146    10.5252 0.0000e+00
      7.856      0.073     0.2521      2.327    191.956 136.228472     8.3700     1.3646     0.0852     0.5076 1.1617e-01     2.4774      7.704     11.173    10.5166 0.0000e+00
      7.875      0.075     0.2515      2.354    192.135 136.330504     8.3700     1.3074     0.0852     0.4230 1.1605e-01     2.4023      7.723     11.202    10.5074 0.0000e+00
      7.895      0.078     0.2535      2.405    192.393 136.487833     8.3700     1.2883     0.0852     0.4230 1.1623e-01     2.2971      7.742     11.230    10.4980 0.0000e+00
      7.914      0.080     0.2567      2.478    192.782 136.734453     8.3700     1.2998     0.0852     0.4230 1.1615e-01     2.2971      7.761     11.257    10.4893 0.0000e+00
      7.934      0.083     0.2595      2.553    193.330 137.082388     8.3700     1.2921     0.0852     0.4230 1.1617e-01     2.2370      7.781     11.285    10.4819 0.0000e+00
      7.955      0.086     0.2626      2.621    194.004 137.506982     8.4600     1.3494     0.0852     0.4230 1.1617e-01     2.6127      7.801     11.315    10.4753 0.0000e+00
      7.977      0.090     0.2683      2.693    194.738 137.966201     8.4600     1.3799     0.0852     0.4230 1.1628e-01     2.4774      7.823     11.347    10.4688 0.0000e+00
      8.001      0.094     0.2765      2.761    195.530 138.461079     8.4600     1.3303     0.0852     0.4230 1.1617e-01     2.5225      7.846     11.381    10.4612 0.0000e+00
      8.026      0.097     0.2850      2.796    196.430 139.028035     8.4600     1.3341     0.0852     0.4230 1.1625e-01     2.5977      7.871     11.417    10.4507 0.0000e+00
      8.052      0.099     0.2927      2.794    197.454 139.676921     8.4600     1.3570     0.0852     0.4230 1.1612e-01     2.8832      7.897     11.454    10.4372 0.0000e+00
      8.079      0.100     0.3008      2.760    198.576 140.387674     8.4600     1.3646     0.0852     0.4230 1.1617e-01     3.0185      7.923     11.491    10.4215 0.0000e+00
      8.105      0.100     0.3085      2.689    199.760 141.134826     8.4600     1.3570     0.0852     0.4230 1.1620e-01     2.9885      7.948     11.528    10.4048 0.0000e+00
      8.130      0.099     0.3126      2.594    201.009 141.920522     8.4600     1.3494     0.0852     0.4230 1.1605e-01     3.0486      7.973     11.564    10.3870 0.0000e+00
      8.155      0.098     0.3125      2.492    202.370 142.779082     8.4600     1.4219     0.0852     0.4230 1.1623e-01     2.5826      7.997     11.599    10.3678 0.0000e+00
      8.179      0.097     0.3088      2.405    203.887 143.746326     8.4600     1.4028     0.1278     0.3807 1.1625e-01     2.5225      8.021     11.633    10.3470 0.0000e+00
      8.203      0.097     0.3011      2.345    205.493 144.777537     8.4600     1.3875     0.1278     0.3807 1.1620e-01     2.5225      8.045     11.668    10.3246 0.0000e+00
      8.228      0.096     0.2906      2.276    207.015 145.755440     8.4600     1.3990     0.1278     0.3807 1.1625e-01     2.5826      8.069     11.703    10.3007 0.0000e+00
      8.253      0.095     0.2793      2.187    208.430 146.662031     8.4600     1.4714     0.1278     0.3807 1.1620e-01     2.8231      8.094     11.739    10.2756 0.0000e+00
      8.278      0.094     0.2697      2.130    209.847 147.571789     8.4600     1.4714     0.0852     0.4230 1.1612e-01     2.7630      8.118     11.774    10.2503 0.0000e+00
      8.302      0.092     0.2630      2.131    211.268 148.484353     8.4600     1.4753     0.0852     0.4230 1.1630e-01     2.6879      8.141     11.808    10.2258 0.0000e+00
      8.325      0.090     0.2554      2.166    212.580 149.324422     8.4600     1.5096     0.0852     0.4230 1.1633e-01     2.8832      8.164     11.840    10.2028 0.0000e+00
      8.347      0.089     0.2455      2.214    213.721 150.051121     8.4600     1.4524     0.0852     0.4230 1.1623e-01     2.8081      8.185     11.872    10.1813 0.0000e+00
      8.369      0.088     0.2393      2.249    214.711 150.680971     8.4600     1.4714     0.1278     0.4653 1.1605e-01     2.7931      8.207     11.903    10.1604 0.0000e+00
      8.391      0.089     0.2396      2.253    215.589 151.240512     8.4600     1.4905     0.1278     0.4653 1.1610e-01     2.8532      8.229     11.934    10.1398 0.0000e+00
      8.413      0.090     0.2436      2.222    216.367 151.737530     8.4600     1.4524     0.1278     0.4653 1.1620e-01     2.7630      8.250     11.966    10.1202 0.0000e+00
      8.436      0.091     0.2492      2.147    217.087 152.198994     8.4600     1.4714     0.1278     0.4653 1.1628e-01     2.7931      8.273     11.999    10.1027 0.0000e+00
      8.460      0.092     0.2533      2.060    217.802 152.660314     8.4600     1.4829     0.1278     0.4653 1.1620e-01     2.8382      8.296     12.032    10.0873 0.0000e+00
      8.484      0.092     0.2537      2.024    218.522 153.128971     8.5500     1.4714     0.0852     0.5922 1.1620e-01     2.7630      8.320     12.066    10.0741 0.0000e+00
      8.508      0.092     0.2503      2.069    219.287 153.630341     8.5500     1.4714     0.0852     0.5922 1.1623e-01     2.8532      8.343     12.101    10.0627 0.0000e+00
      8.532      0.090     0.2420      2.176    220.200 154.234377     8.5500     1.4676     0.0852     0.5922 1.1612e-01     2.6879      8.366     12.135    10.0527 0.0000e+00
      8.555      0.088     0.2321      2.327    221.353 155.004541     8.5500     1.5935     0.0852     0.5922 1.1630e-01     2.9283      8.389     12.167    10.0436 0.0000e+00
      8.577      0.084     0.2281      2.512    222.770 155.956955     8.6400     1.6011     0.0852     0.6345 1.1628e-01     2.9734      8.411     12.199    10.0353 0.0000e+00
      8.598      0.079     0.2332      2.712    224.406 157.062700     8.6400     1.5973     0.0852     0.6345 1.1623e-01     2.9434      8.432     12.230    10.0273 0.0000e+00
      8.618      0.073     0.2454      2.894    226.066 158.188278     8.6400     1.6011     0.0852     0.6345 1.1615e-01     3.0786      8.452     12.258    10.0193 0.0000e+00
      8.637      0.067     0.2624      3.031    227.493 159.155646     8.6400     1.9063     0.0852     0.6345 1.1615e-01     3.7249      8.470     12.284    10.0109 0.0000e+00
      8.653      0.060     0.2833      3.143    228.549 159.870073     8.6400     1.9140     0.1278     0.6345 1.1607e-01     3.7249      8.486     12.308    10.0021 0.0000e+00
      8.667      0.052     0.3060      3.255    229.224 160.322798     8.6400     1.8949     0.1278     0.6345 1.1612e-01     3.6949      8.500     12.328     9.9933 0.0000e+00
      8.679      0.044     0.3266      3.356    229.588 160.562807     8.6400     1.8911     0.1278     0.6345 1.1605e-01     3.6798      8.512     12.345     9.9851 0.0000e+00
      8.689      0.037     0.3421      3.440    229.747 160.664068     8.6400     2.0398     0.1278     0.6345 1.1623e-01     5.2430      8.521     12.359     9.9782 0.0000e+00
      8.697      0.031     0.3548      3.505    229.856 160.733294     8.6400     2.0170     0.1278     0.6345 1.1617e-01     5.0175      8.529     12.371     9.9728 0.0000e+00
      8.704      0.025     0.3674      3.546    230.076 160.878620     9.0000     2.0437     0.2556     0.7614 1.1625e-01     5.1077      8.536     12.380     9.9685 0.0000e+00
      8.709      0.020     0.3789      3.569    230.450 161.130830     9.0000     2.0208     0.2556     0.7614 1.1612e-01     5.1077      8.541     12.388     9.9653 0.0000e+00
      8.713      0.016     0.3884      3.588    230.821 161.381809     9.0000     1.9635     0.2556     0.7614 1.1617e-01     6.4153      8.545     12.394     9.9632 0.0000e+00
      8.716      0.012     0.3957      3.705    231.031 161.523115     9.0000     1.9407     0.2556     0.7614 1.1605e-01     6.4003      8.548     12.398     9.9615 0.0000e+00
      8.719      0.009     0.4004      4.006    231.133 161.592433     9.3600     1.9674     0.6816     0.9306 1.1623e-01     6.6107      8.551     12.402     9.9598 0.0000e+00
      8.721      0.006     0.4030      4.428    231.224 161.654083     9.3600     1.9712     0.6816     0.9306 1.1623e-01     6.4003      8.552     12.404     9.9577 0.0000e+00
      8.722      0.003     0.4051      4.877    231.301 161.706568     9.3600     1.8529     0.6816     0.9306 1.1623e-01    22.0617      8.554     12.406     9.9558 0.0000e+00
      8.723      0.000     0.4183      5.239    231.347 161.737978     9.3600     1.8567     0.6816     0.9306 1.1612e-01    22.1068      8.554     12.407     9.9547 0.0000e+00
      8.723     -0.003     0.4523      5.410    231.426 161.794554     8.6400     1.8110     1.0650     1.8189 1.1612e-01    22.2120      8.554     12.407     9.9542 0.0000e+00
      8.722     -0.007     0.5000      5.416    231.541 161.879423     8.6400     1.8644     1.0650     1.8189 1.1633e-01    22.1519      8.553     12.405     9.9539 0.0000e+00
      8.720     -0.011     0.5508      5.283    231.600 161.927532     8.6400     0.6818     1.0650     1.8189 1.1623e-01    35.5287      8.551     12.403     9.9535 0.0000e+00
      8.717     -0.017     0.5916      4.957    231.550 161.901888     8.6400     0.6932     1.0650     1.8189 1.1612e-01    35.5888      8.548     12.398     9.9533 0.0000e+00
      8.713     -0.023     0.6109      4.448    231.139 161.630230     8.6400     0.6551     1.0650     1.8189 1.1623e-01    35.4986      8.544     12.392     9.9537 0.0000e+00
      8.707     -0.032     0.6116      3.913    229.970 160.840815     8.4600     0.6932     0.6816     2.1573 1.1612e-01    35.6489      8.538     12.384     9.9546 0.0000e+00
      8.699     -0.043     0.5966      3.477    228.154 159.616086     8.4600     0.3652     0.6816     2.1573 1.1617e-01    50.9797      8.531     12.372     9.9561 0.0000e+00
      8.688     -0.057     0.5598      3.177    226.236 158.334907     8.4600     0.3766     0.6816     2.1573 1.1612e-01    50.9045      8.520     12.357     9.9583 0.0000e+00
      8.673     -0.074     0.5023      3.049    224.494 157.183690     8.4600     0.3766     0.6816     2.1573 1.1623e-01    50.9496      8.505     12.335     9.9619 0.0000e+00
      8.653     -0.094     0.4418      3.047    222.713 156.004888     6.7500     0.3957     0.5964     1.8189 1.1623e-01    51.0097      8.485     12.307     9.9682 0.0000e+00
      8.627     -0.116     0.3925      3.105    220.598 154.593733     6.7500     1.2807     0.5964     1.8189 1.1607e-01    22.8884      8.460     12.270     9.9784 0.0000e+00
      8.595     -0.138     0.3585      3.230    218.272 153.042098     6.7500     1.2998     0.5964     1.8189 1.1615e-01    22.7831      8.429     12.225     9.9919 0.0000e+00
      8.556     -0.160     0.3439      3.417    216.063 151.579677     6.7500     1.2807     0.5964     1.8189 1.1623e-01    22.8884      8.391     12.170    10.0070 0.0000e+00
      8.511     -0.180     0.3436      3.576    214.036 150.248752     5.6700     1.2998     0.4686     2.2419 1.1630e-01    22.9184      8.347     12.106    10.0225 0.0000e+00
      8.461     -0.199     0.3499      3.666    212.049 148.947374     5.6700     1.5172     0.4686     2.2419 1.1617e-01     7.7079      8.298     12.035    10.0387 0.0000e+00
      8.407     -0.216     0.3638      3.735    210.057 147.645184     5.6700     1.5325     0.4686     2.2419 1.1623e-01     7.7380      8.245     11.958    10.0567 0.0000e+00
      8.350     -0.231     0.3847      3.772    208.163 146.415154     5.6700     1.5287     0.4686     2.2419 1.1628e-01     7.6628      8.188     11.876    10.0768 0.0000e+00
      8.288     -0.243     0.4024      3.768    206.434 145.305658     8.1900     1.5287     0.1278     0.5922 1.1623e-01     7.7230      8.128     11.789    10.0981 0.0000e+00
      8.224     -0.254     0.4123      3.748    204.785 144.257804     8.1900     1.4638     0.1278     0.5922 1.1623e-01     4.8221      8.065     11.697    10.1202 0.0000e+00
      8.157     -0.262     0.4199      3.705    203.161 143.233100     8.1900     1.4524     0.1278     0.5922 1.1625e-01     4.8672      7.999     11.601    10.1433 0.0000e+00
      8.088     -0.269     0.4238      3.654    201.492 142.179313     8.1900     1.4524     0.1278     0.5922 1.1615e-01     4.8672      7.931     11.503    10.1677 0.0000e+00
      8.018     -0.275     0.4231      3.670    199.756 141.082225     8.1900     1.4714     0.1278     0.5922 1.1617e-01     4.8071      7.863     11.404    10.1936 0.0000e+00
      7.947     -0.280     0.4206      3.726    198.149 140.079319     8.1900     1.3456     0.0852     0.5076 1.1617e-01     2.7179      7.794     11.304    10.2211 0.0000e+00
      7.876     -0.284     0.4155      3.587    196.730 139.207761     8.1900     1.3265     0.0852     0.5076 1.1610e-01     2.7630      7.723     11.202    10.2505 0.0000e+00
      7.803     -0.289     0.4095      3.176    195.438 138.420274     8.1900     1.3646     0.0852     0.5076 1.1600e-01     2.8532      7.652     11.098    10.2811 0.0000e+00
      7.728     -0.294     0.4111      2.634    194.168 137.646212     8.1900     1.3227     0.0852     0.5076 1.1635e-01     2.8682      7.579     10.992    10.3131 0.0000e+00
      7.653     -0.299     0.4170      2.078    192.906 136.880204     8.2800     1.4142     0.0852     0.4653 1.1602e-01     2.9584      7.505     10.885    10.3464 0.0000e+00
      7.576     -0.304     0.4012      1.560    191.864 136.268306     8.2800     1.3875     0.0852     0.4653 1.1625e-01     2.9734      7.429     10.775    10.3797 0.0000e+00
      7.497     -0.309     0.3551      1.106    191.072 135.822510     8.2800     1.4104     0.0852     0.4653 1.1623e-01     2.9734      7.352     10.664    10.4121 0.0000e+00
      7.418     -0.313     0.2944      0.753    190.381 135.433891     8.2800     1.3799     0.0852     0.4653 1.1617e-01     2.8832      7.274     10.551    10.4443 0.0000e+00
      7.337     -0.316     0.2321      0.579    189.749 135.074455     8.1900     1.4981     0.0852     0.5076 1.1592e-01     2.5075      7.195     10.436    10.4774 0.0000e+00
      7.255     -0.318     0.1742      0.630    189.144 134.725976     8.1900     1.4829     0.0852     0.5076 1.1612e-01     2.5826      7.115     10.320    10.5104 0.0000e+00
      7.173     -0.318     0.1234      0.806    188.578 134.401011     8.1900     1.4714     0.0852     0.5076 1.1610e-01     2.5676      7.034     10.203    10.5408 0.0000e+00
      7.091     -0.317     0.0840      0.963    188.157 134.174114     8.1900     1.5020     0.0852     0.5076 1.1607e-01     2.5826      6.954     10.086    10.5676 0.0000e+00
      7.010     -0.315     0.0645      1.061    187.863 134.026574     8.1900     1.4676     0.0852     0.5076 1.1617e-01     2.5376      6.874      9.970    10.5912 0.0000e+00
      6.929     -0.311     0.0701      1.127    187.563 133.865316     8.1000     1.4791     0.0852     0.5076 1.1620e-01     2.4023      6.795      9.856    10.6127 0.0000e+00
      6.850     -0.306     0.0896      1.189    187.207 133.661271     8.1000     1.4714     0.0852     0.5076 1.1623e-01     2.5225      6.718      9.744    10.6333 0.0000e+00
      6.773     -0.301     0.1070      1.268    186.810 133.427693     8.1000     1.4867     0.0852     0.5076 1.1620e-01     2.4323      6.642      9.634    10.6527 0.0000e+00
      6.697     -0.297     0.1179      1.364    186.360 133.160011     8.1000     1.4676     0.0852     0.5076 1.1630e-01     2.5526      6.567      9.525    10.6692 0.0000e+00
      6.622     -0.294     0.1251      1.469    185.788 132.810725     8.1000     1.4524     0.0852     0.3807 1.1630e-01     2.5075      6.494      9.419    10.6833 0.0000e+00
      6.549     -0.292     0.1320      1.600    184.971 132.300626     8.1000     1.4638     0.0852     0.3807 1.1645e-01     2.6277      6.422      9.314    10.6965 0.0000e+00
      6.476     -0.291     0.1406      1.774    183.865 131.607120     8.1000     1.4714     0.0852     0.3807 1.1612e-01     2.5526      6.351      9.210    10.7100 0.0000e+00
      6.402     -0.291     0.1512      1.960    182.680 130.881582     8.1000     1.4753     0.0852     0.3807 1.1612e-01     2.5225      6.279      9.106    10.7245 0.0000e+00
      6.328     -0.291     0.1628      2.105    181.674 130.296685     8.1900     1.4486     0.0852     0.4653 1.1617e-01     2.6879      6.206      9.000    10.7409 0.0000e+00
      6.253     -0.291     0.1773      2.188    180.823 129.817846     8.1900     1.4791     0.0852     0.4653 1.5910e-01     2.5225      6.132      8.894    10.7611 0.0000e+00
      6.178     -0.292     0.1965      2.223    179.959 129.323348     8.1900     1.4791     0.0852     0.4653 1.9905e-01     2.5075      6.059      8.787    10.7878 0.0000e+00
      6.104     -0.292     0.2169      2.230    178.977 128.744999     8.1900     1.5287     0.0852     0.4653 2.3798e-01     2.7780      5.985      8.681    10.8217 0.0000e+00
      6.030     -0.292     0.2327      2.200    177.757 128.006177     8.1900     1.5096     0.0852     0.4230 2.7402e-01     2.7931      5.913      8.576    10.8590 0.0000e+00
      5.956     -0.292     0.2417      2.116    176.131 127.001391     8.1900     1.5248     0.0852     0.4230 3.3751e-01     2.8231      5.841      8.471    10.8956 0.0000e+00
      5.882     -0.293     0.2454      2.006    174.226 125.832752     8.1900     1.5096     0.0852     0.4230 3.6371e-01     2.8983      5.768      8.366    10.9310 0.0000e+00
      5.807     -0.294     0.2460      1.908    172.428 124.767565     8.1900     1.8148     0.0852     0.4230 4.3342e-01     2.8081      5.695      8.259    10.9671 0.0000e+00
      5.731     -0.295     0.2425      1.814    170.785 123.814231     8.1900     1.8491     0.0852     0.4230 4.8107e-01     2.7029      5.620      8.151    11.0068 0.0000e+00
      5.655     -0.296     0.2330      1.702    169.033 122.776223     8.1000     1.8644     0.0852     0.3807 5.3477e-01     2.8382      5.546      8.044    11.0549 0.0000e+00
      5.580     -0.296     0.2207      1.580    167.118 121.621405     8.1000     1.8491     0.0852     0.3807 5.8460e-01     2.7780      5.472      7.936    11.1147 0.0000e+00
      5.505     -0.296     0.2096      1.457    164.940 120.278536     8.1000     2.1428     0.0852     0.3807 6.4719e-01     2.9434      5.398      7.829    11.1830 0.0000e+00
      5.429     -0.296     0.1989      1.335    162.207 118.548636     8.1000     2.1505     0.0852     0.3807 7.1305e-01     3.0185      5.324      7.722    11.2529 0.0000e+00
      5.353     -0.296     0.1864      1.229    158.963 116.485512     8.1000     2.1695     0.0852     0.4230 8.5528e-01     2.9734      5.250      7.614    11.3228 0.0000e+00
      5.278     -0.296     0.1728      1.147    155.137 114.042172     8.1000     2.1314     0.0852     0.4230 8.9385e-01     3.0035      5.176      7.507    11.3954 0.0000e+00
      5.203     -0.297     0.1590      1.099    150.634 111.157591     8.1000     3.0546     0.0852     0.4230 9.4170e-01     3.4694      5.102      7.400    11.4718 0.0000e+00
      5.127     -0.298     0.1455      1.097    146.394 108.507821     8.1000     3.0965     0.0852     0.4230 9.8204e-01     3.4394      5.028      7.292    11.5567 0.0000e+00
      5.051     -0.298     0.1335      1.130    143.194 106.592894     8.1000     3.0546     0.0852     0.5076 1.1082e+00     3.4845      4.954      7.184    11.6581 0.0000e+00
      4.975     -0.298     0.1242      1.172    140.141 104.697499     8.1000     3.0813     0.0852     0.5076 1.2316e+00     3.4694      4.878      7.075    11.7797 0.0000e+00
      4.898     -0.298     0.1185      1.234    135.785 101.783558     8.1000     3.9434     0.0852     0.5076 1.2941e+00     4.1458      4.803      6.966    11.9260 0.0000e+00
      4.821     -0.297     0.1178      1.341    129.554  97.501306     8.1000     3.9548     0.0852     0.5076 1.4114e+00     4.1608      4.728      6.857    12.0924 0.0000e+00
      4.746     -0.295     0.1208      1.515    122.468  92.649945     8.1000     3.9358     0.0852     0.5076 1.4944e+00     4.1608      4.654      6.750    12.2544 0.0000e+00
      4.671     -0.292     0.1248      1.794    116.409  88.607476     7.5600     3.9243     0.1278     0.6345 1.5740e+00     4.1458      4.581      6.644    12.3958 0.0000e+00
      4.597     -0.290     0.1308      2.213    111.541  85.412161     7.5600     3.3941     0.1278     0.6345 1.7256e+00     3.9504      4.508      6.538    12.5333 0.0000e+00
      4.523     -0.288     0.1412      2.797    106.181  81.749317     7.5600     3.4132     0.1278     0.6345 1.8921e+00     3.9654      4.436      6.433    12.6985 0.0000e+00
      4.450     -0.286     0.1585      3.580     98.946  76.592575     7.5600     3.4055     0.1278     0.6345 2.0043e+00     3.9354      4.364      6.329    12.9084 0.0000e+00
      4.378     -0.285     0.1864      4.589     89.826  69.978139     6.8400     3.3788     0.1278     0.6768 2.1416e+00     3.9504      4.293      6.226    13.1493 0.0000e+00
      4.306     -0.284     0.2285      5.826     80.746  63.406112     6.8400     3.3140     0.1278     0.6768 2.2621e+00     3.6949      4.223      6.124    13.3885 0.0000e+00
      4.234     -0.284     0.2872      7.283     74.116  58.714016     6.8400     3.2949     0.1278     0.6768 2.4072e+00     3.6949      4.153      6.023    13.6163 0.0000e+00
      4.162     -0.284     0.3656      8.959     70.300  56.135864     6.8400     3.3445     0.1278     0.6768 2.6378e+00     3.6197      4.082      5.920    13.8546 0.0000e+00
      4.089     -0.284     0.4660     10.865     67.794  54.462830     5.3100     3.3140     0.0852     0.7191 2.8949e+00     3.6949      4.010      5.815    14.1319 0.0000e+00
      4.015     -0.284     0.5883     13.007     65.088  52.519297     5.3100     3.2835     0.0852     0.7191 3.0926e+00     3.3642      3.938      5.711    14.4526 0.0000e+00
      3.943     -0.285     0.7314     15.369     61.546  49.840535     5.3100     3.2300     0.0852     0.7191 3.2603e+00     3.4694      3.867      5.608    14.7790 0.0000e+00
      3.871     -0.285     0.8959     17.912     57.567  46.786446     5.3100     3.2644     0.0852     0.7191 3.4648e+00     3.5596      3.796      5.506    15.0587 0.0000e+00
      3.800     -0.286     1.0831     20.586     54.194  44.213246     4.1400     3.2415     0.0852     0.7614 3.6431e+00     3.4995      3.726      5.404    15.2697 0.0000e+00
      3.727     -0.288     1.2935     23.311     51.525  42.187823     4.1400     3.1232     0.0852     0.7614 3.9817e+00     3.4394      3.655      5.300    15.4284 0.0000e+00
      3.653     -0.290     1.5249     25.984     48.890  40.160157     4.1400     3.1385     0.0852     0.7614 4.3386e+00     3.4995      3.582      5.195    15.5665 0.0000e+00
      3.578     -0.292     1.7729     28.509     46.388  38.223439     4.1400     3.1232     0.0852     0.7614 4.5898e+00     3.5295      3.509      5.089    15.7078 0.0000e+00
      3.503     -0.294     2.0321     30.836     44.412  36.703089     4.1400     3.1042     0.0852     0.7614 5.0613e+00     3.3943      3.435      4.982    15.8554 0.0000e+00
      3.428     -0.296     2.2954     32.963     42.991  35.621506     3.8700     3.2300     0.0852     0.7614 5.4695e+00     3.4394      3.361      4.875    15.9954 0.0000e+00
      3.352     -0.297     2.5529     34.900     42.213  35.050707     3.8700     3.2262     0.0852     0.7614 5.8558e+00     3.4694      3.287      4.767    16.1222 0.0000e+00
      3.276     -0.298     2.7948     36.665     41.924  34.862249     3.8700     3.1919     0.0852     0.7614 6.3446e+00     3.3642      3.213      4.659    16.2425 0.0000e+00
      3.200     -0.298     3.0168     38.287     41.681  34.692974     3.8700     3.1881     0.0852     0.7614 6.8401e+00     3.4394      3.138      4.551    16.3551 0.0000e+00
      3.124     -0.299     3.2191     39.790     41.320  34.414570     3.6900     3.0736     0.0852     0.8037 7.3119e+00     3.5596      3.063      4.443    16.4531 0.0000e+00
      3.047     -0.299     3.4035     41.168     40.679  33.901302     3.6900     3.0736     0.0852     0.8037 7.9052e+00     3.4995      2.988      4.334    16.5320 0.0000e+00
      2.971     -0.299     3.5722     42.380     39.696  33.109365     3.6900     3.0851     0.0852     0.8037 8.4726e+00     3.4394      2.913      4.225    16.5872 0.0000e+00
      2.894     -0.299     3.7281     43.385     38.792  32.389994     3.6900     3.0660     0.0852     0.8037 9.0512e+00     3.4394      2.838      4.116    16.6219 0.0000e+00
      2.818     -0.298     3.8727     44.167     38.219  31.947423     3.2400     3.1461     0.0852     0.8037 9.8453e+00     3.4093      2.763      4.008    16.6470 0.0000e+00
      2.741     -0.295     4.0049     44.739     37.758  31.592352     3.2400     3.1156     0.0852     0.8037 1.0742e+01     3.4845      2.688      3.899    16.6721 0.0000e+00
      2.665     -0.292     4.1201     45.121     37.271  31.212275     3.2400     3.1080     0.0852     0.8037 1.1681e+01     3.3792      2.614      3.791    16.7060 0.0000e+00
      2.591     -0.289     4.2140     45.344     36.833  30.870189     3.2400     3.1499     0.0852     0.8037 1.2520e+01     3.3792      2.540      3.685    16.7504 0.0000e+00
      2.518     -0.285     4.2860     45.463     36.436  30.560019     3.1500     3.0508     0.0426     0.8460 1.3225e+01     3.4093      2.469      3.581    16.7961 0.0000e+00
      2.447     -0.282     4.3380     45.523     36.044  30.252512     3.1500     3.0813     0.0426     0.8460 1.3696e+01     3.3492      2.399      3.480    16.8359 0.0000e+00
      2.376     -0.280     4.3719     45.563     35.724  30.004270     3.1500     3.0431     0.0426     0.8460 1.4781e+01     3.3792      2.330      3.379    16.8714 0.0000e+00
      2.305     -0.278     4.3906     45.619     35.503  29.836217     3.1500     3.0393     0.0426     0.8460 1.6204e+01     3.4694      2.260      3.279    16.9043 0.0000e+00
      2.234     -0.277     4.3993     45.701     35.335  29.709478     3.1500     3.0965     0.0426     0.8460 1.7538e+01     3.4995      2.190      3.177    16.9347 0.0000e+00
      2.162     -0.275     4.4025     45.797     35.186  29.594217     3.0600     3.1118     0.0852     0.8037 1.8866e+01     3.3792      2.120      3.076    16.9638 0.0000e+00
      2.092     -0.274     4.4038     45.894     35.045  29.483457     3.0600     3.1537     0.0852     0.8037 2.0155e+01     3.4394      2.052      2.976    16.9920 0.0000e+00
      2.023     -0.272     4.4069     45.985     34.934  29.397161     3.0600     3.1309     0.0852     0.8037 2.1105e+01     3.4995      1.984      2.877    17.0168 0.0000e+00
      1.954     -0.269     4.4130     46.074     34.866  29.345977     3.0600     3.1309     0.0852     0.8037 2.2595e+01     3.4243      1.916      2.780    17.0362 0.0000e+00
      1.886     -0.267     4.4210     46.163     34.824  29.316256     3.0600     3.1194     0.0852     0.6768 2.4911e+01     3.4394      1.849      2.682    17.0506 0.0000e+00
      1.818     -0.264     4.4293     46.246     34.797  29.298091     3.0600     3.1537     0.0852     0.6768 2.6623e+01     3.4995      1.782      2.585    17.0616 0.0000e+00
      1.750     -0.261     4.4373     46.312     34.778  29.286640     3.0600     3.1385     0.0852     0.6768 2.8232e+01     3.4845      1.717      2.490    17.0713 0.0000e+00
      1.684     -0.259     4.4451     46.359     34.759  29.274888     3.0600     3.1194     0.0852     0.6768 3.0140e+01     3.3943      1.652      2.396    17.0800 0.0000e+00
      1.619     -0.258     4.4530     46.386     34.730  29.253762     2.9700     3.1881     0.0852     0.7191 3.1623e+01     3.3642      1.588      2.303    17.0876 0.0000e+00
      1.555     -0.259     4.4603     46.394     34.680  29.215650     2.9700     3.1805     0.0852     0.7191 3.2234e+01     3.4394      1.525      2.212    17.0946 0.0000e+00
      1.490     -0.262     4.4661     46.386     34.615  29.166228     2.9700     3.1728     0.0852     0.7191 3.3527e+01     3.4694      1.462      2.120    17.1012 0.0000e+00
      1.424     -0.266     4.4701     46.369     34.554  29.122015     2.9700     3.1995     0.0852     0.7191 3.7294e+01     3.3943      1.396      2.025    17.1071 0.0000e+00
      1.355     -0.270     4.4721     46.358     34.510  29.091020     3.0600     3.1423     0.0852     0.8460 4.0574e+01     3.4394      1.329      1.927    17.1123 0.0000e+00
      1.284     -0.275     4.4724     46.369     34.482  29.072898     3.0600     3.1728     0.0852     0.8460 4.3943e+01     3.4394      1.260      1.827    17.1180 0.0000e+00
      1.213     -0.280     4.4709     46.408     34.466  29.062817     3.0600     3.1309     0.0852     0.8460 4.8184e+01     3.4694      1.189      1.725    17.1257 0.0000e+00
      1.141     -0.284     4.4684     46.478     34.443  29.046209     3.0600     3.1194     0.0852     0.8460 5.0609e+01     3.4694      1.119      1.623    17.1352 0.0000e+00
      1.069     -0.288     4.4665     46.594     34.410  29.022606     3.0600     3.1423     0.0852     0.8460 5.2868e+01     3.4243      1.048      1.521    17.1445 0.0000e+00
      0.996     -0.291     4.4669     46.728     34.383  29.005512     3.0600     3.1232     0.0852     0.7614 5.8185e+01     3.4544      0.977      1.416    17.1519 0.0000e+00
      0.921     -0.294     4.4702     46.788     34.368  28.998289     3.0600     3.1232     0.0852     0.7614 6.5330e+01     3.4093      0.903      1.310    17.1570 0.0000e+00
      0.844     -0.297     4.4765     46.750     34.365  28.999011     3.0600     3.1347     0.0852     0.7614 7.0508e+01     3.4995      0.828      1.201    17.1615 0.0000e+00
      0.768     -0.300     4.4870     46.660     34.368  29.003911     3.0600     3.1537     0.0852     0.7614 7.4558e+01     3.5897      0.753      1.092    17.1677 0.0000e+00
      0.691     -0.301     4.4992     46.543     34.373  29.010337     3.0600     3.1347     0.0852     0.8883 7.8175e+01     3.7099      0.678      0.983    17.1758 0.0000e+00
      0.614     -0.301     4.5042     46.433     34.375  29.016041     3.0600     3.1385     0.0852     0.8883 8.2808e+01     3.5897      0.602      0.874    17.1836 0.0000e+00
      0.537     -0.300     4.5001     46.359     34.367  29.014625     3.0600     3.1385     0.0852     0.8883 9.1057e+01     3.6498      0.527      0.764    17.1890 0.0000e+00
      0.460     -0.298     4.4912     46.330     34.355  29.009673     3.0600     3.1385     0.0852     0.8883 1.0340e+02     3.4694      0.451      0.655    17.1918 0.0000e+00
      0.384     -0.294     4.4796     46.366     34.348  29.007783     3.0600     3.1042     0.0852     0.8460 1.1140e+02     3.4694      0.376      0.546    17.1948 0.0000e+00
      0.309     -0.289     4.4685     46.469     34.341  29.004492     3.0600     3.1385     0.0852     0.8460 1.1950e+02     3.4694      0.303      0.439    17.2006 0.0000e+00
      0.235     -0.283     4.4606     46.603     34.331  28.998922     3.0600     3.1461     0.0852     0.8460 1.2827e+02     3.4394      0.231      0.335    17.2087 0.0000e+00
      0.164     -0.276     4.4571     46.742     34.325  28.997508     3.0600     2.9935     0.0852     0.8460 1.3730e+02     3.3943      0.160      0.233    17.2168 0.0000e+00
      0.094     -0.268     4.4600     46.858     34.316  28.995913     3.0600     3.0164     0.0852     0.8460 1.5283e+02     3.4093      0.092      0.134    17.2226 0.0000e+00
      0.027     -0.261     4.4696     46.924     34.291  28.981833     3.0600     3.0202     0.0852     0.9306 1.8515e+02     3.4544      0.026      0.038    17.2264 0.0000e+00
     -0.038     -0.253     4.4821     46.957     34.257  28.959432     3.0600     3.0088     0.0852     0.9306 1.8280e+02     3.3943     -0.037     -0.054    17.2303 0.0000e+00
     -0.100     -0.246     4.4949     46.983     34.224  28.938578     3.0600     2.4595     0.0852     0.9306 1.9801e+02     3.4845     -0.098     -0.143    17.2363 0.0000e+00
     -0.162     -0.239     4.5053     47.019     34.182  28.909748     3.0600     2.4556     0.0852     0.9306 2.2132e+02     3.3191     -0.159     -0.230    17.2444 0.0000e+00
     -0.221     -0.234     4.5108     47.076     34.109  28.853377     3.0600     2.4595     0.0852     0.7191 2.2002e+02     3.3492     -0.217     -0.315    17.2539 0.0000e+00
     -0.279     -0.229     4.5130     47.160     33.982  28.750472     3.0600     2.4404     0.0852     0.7191 2.6282e+02     3.4544     -0.274     -0.397    17.2640 0.0000e+00
     -0.336     -0.223     4.5146     47.267     33.769  28.573593     3.0600     1.7728     0.0852     0.7191 3.6513e+02     3.3642     -0.329     -0.478    17.2740 0.0000e+00
     -0.392     -0.215     4.5171     47.390     33.411  28.271612     3.0600     1.7575     0.0852     0.7191 3.7600e+02     3.3792     -0.384     -0.558    17.2833 0.0000e+00
     -0.447     -0.206     4.5218     47.518     32.798  27.752121     3.0600     1.8033     0.0852     0.6345 6.0964e+02     3.3792     -0.438     -0.635    17.2918 0.0000e+00
     -0.498     -0.195     4.5293     47.646     31.742  26.856791     3.0600     1.7843     0.0852     0.6345 6.1256e+02     3.4845     -0.488     -0.709    17.2985 0.0000e+00
     -0.545     -0.183     4.5391     47.748     29.932  25.321128     3.0600     1.4676     0.0852     0.6345 6.0633e+02     4.1909     -0.535     -0.776    17.3027 0.0000e+00
     -0.587     -0.170     4.5508     47.755     27.707  23.432366     3.0600     1.4753     0.0852     0.6345 6.1043e+02     4.2059     -0.576     -0.835    17.3041 0.0000e+00
     -0.624     -0.155     4.5631     47.680     26.900  22.739163     2.9700     1.4791     0.0852     0.7191 5.4497e+02     4.1307     -0.612     -0.888    17.3031 0.0000e+00
     -0.658     -0.142     4.5758     47.613     28.206  23.830332     2.9700     1.4676     0.0852     0.7191 5.2968e+02     4.1157     -0.645     -0.935    17.2997 0.0000e+00
     -0.687     -0.130     4.5862     47.574     30.023  25.352354     2.9700    -0.2986     0.0852     0.7191 5.3279e+02    -1.4154     -0.673     -0.976    17.2935 0.0000e+00
     -0.710     -0.120     4.5879     47.528     31.426  26.525771     2.9700    -0.2872     0.0852     0.7191 5.4830e+02    -1.3553     -0.696     -1.010    17.2832 0.0000e+00
     -0.728     -0.113     4.5822     47.476     32.336  27.285361     2.9700    -0.3100     0.0852     0.7191 5.3095e+02    -1.3252     -0.714     -1.035    17.2676 0.0000e+00
     -0.741     -0.111     4.5777     47.453     32.628  27.528798     1.9800    -0.3139    -0.2982     0.0000 2.7396e+02    -1.3853     -0.727     -1.054    17.2473 0.0000e+00
     -0.751 -9.990e-29     4.5760 -9.990e-29 -9.990e-29 -9.990e-29     1.9800 -9.990e-29    -0.2982     0.0000 1.0813e+02 -9.990e-29     -0.736     -1.068    17.2255 0.0000e+00
     -0.757 -9.990e-29     4.5734 -9.990e-29 -9.990e-29 -9.990e-29     1.9800 -9.990e-29    -0.2982     0.0000 1.0329e+02 -9.990e-29     -0.742     -1.077    17.2062 0.0000e+00
     -0.761 -9.990e-29     4.5697 -9.990e-29 -9.990e-29 -9.990e-29     1.9800 -9.990e-29    -0.2982     0.0000 1.0499e+02 -9.990e-29     -0.746     -1.082    17.1926 0.0000e+00
     -0.762 -9.990e-29     4.5679 -9.990e-29 -9.990e-29 -9.990e-29     0.0000 -9.990e-29     0.9372    -2.8341 1.0673e+02 -9.990e-29     -0.747     -1.084    17.1876 0.0000e+00
