* Sea-Bird SBE19plus  Data File:
* FileName = C:\DATA\101619_unknown_0006.hex
* Software version 2.8.0.119 SB_Terminal.dll
* Temperature SN = 7809
* Conductivity SN = 7809
* System UpLoad Time = Oct 16 2019 07:56:48
* <ApplicationData>
* <Seaterm232>
* <SoftwareVersion>2.8.0.119</SoftwareVersion>
* <BuildDate>07-Nov-2018</BuildDate>
* </Seaterm232>
* </ApplicationData>
* cast   6 11 Oct 2019 12:42:57 samples 6053 to 6624, avg = 1, stop = mag switch
# nquan = 16
# nvalues = 358                         
# units = specified
# name 0 = depFM: Depth [fresh water, m]
# name 1 = dz/dtM: Descent Rate [m/s]
# name 2 = sbeox0ML/L: Oxygen, SBE 43 [ml/l]
# name 3 = sbeox0PS: Oxygen, SBE 43 [% saturation]
# name 4 = specc: Specific Conductance [uS/cm]
# name 5 = c0uS/cm: Conductivity [uS/cm]
# name 6 = flECO-AFL: Fluorescence, WET Labs ECO-AFL/FL [mg/m^3]
# name 7 = ph: pH
# name 8 = orp: Oxidation Reduction Potential [mV]
# name 9 = par/sat/log: PAR/Logarithmic, Satlantic
# name 10 = turbWETntu0: Turbidity, WET Labs ECO [NTU]
# name 11 = prdM: Pressure, Strain Gauge [db]
# name 12 = prdE: Pressure, Strain Gauge [psi]
# name 13 = tv290C: Temperature [ITS-90, deg C]
# name 14 = density00: Density [density, kg/m^3]
# name 15 = flag:  0.000e+00
# span 0 =     -0.521,      3.644       
# span 1 =     -0.005,      0.181       
# span 2 =     3.6745,     6.2648       
# span 3 =     58.255,     99.561       
# span 4 =     31.760,     42.385       
# span 5 =  29.140470,  37.440424       
# span 6 =    -0.1341,    78.0169       
# span 7 =      7.100,      8.857       
# span 8 =   -75.5830,   216.9896       
# span 9 = 1.2365e-01, 1.3764e+03       
# span 10 =    -0.3944,    41.4439      
# span 11 =     -0.518,      3.574      
# span 12 =     -0.752,      5.183      
# span 13 =    18.5359,    20.9695      
# span 14 =   998.0064,   998.5303      
# span 15 = 0.0000e+00, 0.0000e+00      
# interval = seconds: 0.25
# start_time = Oct 11 2019 12:42:57 [Instrument's time stamp, header]
# bad_flag = -9.990e-29
# <Sensors count="9" >
#   <sensor Channel="1" >
#     <!-- Count, Temperature -->
#     <TemperatureSensor SensorID="58" >
#       <SerialNumber>7809</SerialNumber>
#       <CalibrationDate>24-Mar-19</CalibrationDate>
#       <A0>1.21792325e-003</A0>
#       <A1>2.81669265e-004</A1>
#       <A2>-1.60333336e-006</A2>
#       <A3>1.98414625e-007</A3>
#       <Slope>1.00000000</Slope>
#       <Offset>0.0000</Offset>
#     </TemperatureSensor>
#   </sensor>
#   <sensor Channel="2" >
#     <!-- Frequency 0, Conductivity -->
#     <ConductivitySensor SensorID="3" >
#       <SerialNumber>7809</SerialNumber>
#       <CalibrationDate>24-Mar-19</CalibrationDate>
#       <UseG_J>1</UseG_J>
#       <!-- Cell const and series R are applicable only for wide range sensors. -->
#       <SeriesR>0.0000</SeriesR>
#       <CellConst>2000.0000</CellConst>
#       <ConductivityType>0</ConductivityType>
#       <Coefficients equation="0" >
#         <A>0.00000000e+000</A>
#         <B>0.00000000e+000</B>
#         <C>0.00000000e+000</C>
#         <D>0.00000000e+000</D>
#         <M>0.0</M>
#         <CPcor>-9.57000000e-008</CPcor>
#       </Coefficients>
#       <Coefficients equation="1" >
#         <G>-1.00589325e+000</G>
#         <H>1.26816302e-001</H>
#         <I>-1.51560448e-004</I>
#         <J>2.67137274e-005</J>
#         <CPcor>-9.57000000e-008</CPcor>
#         <CTcor>3.2500e-006</CTcor>
#         <!-- WBOTC not applicable unless ConductivityType = 1. -->
#         <WBOTC>0.00000000e+000</WBOTC>
#       </Coefficients>
#       <Slope>1.00000000</Slope>
#       <Offset>0.00000</Offset>
#     </ConductivitySensor>
#   </sensor>
#   <sensor Channel="3" >
#     <!-- Count, Pressure, Strain Gauge -->
#     <PressureSensor SensorID="46" >
#       <SerialNumber>7809</SerialNumber>
#       <CalibrationDate>11-Mar-19</CalibrationDate>
#       <PA0>4.56561833e-002</PA0>
#       <PA1>4.85095118e-004</PA1>
#       <PA2>-2.88327090e-012</PA2>
#       <PTEMPA0>-5.48784562e+001</PTEMPA0>
#       <PTEMPA1>5.53756816e+001</PTEMPA1>
#       <PTEMPA2>-5.86727098e-001</PTEMPA2>
#       <PTCA0>5.25246745e+005</PTCA0>
#       <PTCA1>1.22304214e+001</PTCA1>
#       <PTCA2>-3.56745036e-001</PTCA2>
#       <PTCB0>2.51668750e+001</PTCB0>
#       <PTCB1>3.75000000e-004</PTCB1>
#       <PTCB2>0.00000000e+000</PTCB2>
#       <Offset>0.000000</Offset>
#     </PressureSensor>
#   </sensor>
#   <sensor Channel="4" >
#     <!-- A/D voltage 0, Oxygen, SBE 43 -->
#     <OxygenSensor SensorID="38" >
#       <SerialNumber>0434</SerialNumber>
#       <CalibrationDate>13-Apr-19</CalibrationDate>
#       <Use2007Equation>1</Use2007Equation>
#       <CalibrationCoefficients equation="0" >
#         <!-- Coefficients for Owens-Millard equation. -->
#         <Boc>0.0000</Boc>
#         <Soc>0.0000e+000</Soc>
#         <offset>0.0000</offset>
#         <Pcor>0.00e+000</Pcor>
#         <Tcor>0.0000</Tcor>
#         <Tau>0.0</Tau>
#       </CalibrationCoefficients>
#       <CalibrationCoefficients equation="1" >
#         <!-- Coefficients for Sea-Bird equation - SBE calibration in 2007 and later. -->
#         <Soc>4.2007e-001</Soc>
#         <offset>-0.6109</offset>
#         <A>-4.3656e-003</A>
#         <B> 1.7017e-004</B>
#         <C>-2.5341e-006</C>
#         <D0> 2.5826e+000</D0>
#         <D1> 1.92634e-004</D1>
#         <D2>-4.64803e-002</D2>
#         <E> 3.6000e-002</E>
#         <Tau20> 1.1800</Tau20>
#         <H1>-3.3000e-002</H1>
#         <H2> 5.0000e+003</H2>
#         <H3> 1.4500e+003</H3>
#       </CalibrationCoefficients>
#     </OxygenSensor>
#   </sensor>
#   <sensor Channel="5" >
#     <!-- A/D voltage 1, PAR/Logarithmic, Satlantic -->
#     <PARLog_SatlanticSensor SensorID="76" >
#       <SerialNumber>1122</SerialNumber>
#       <CalibrationDate>08-May-2019</CalibrationDate>
#       <a0>9.7456e-001</a0>
#       <a1>8.1640e-001</a1>
#       <Im>1.3589e+000</Im>
#       <Multiplier>1.0000e+000</Multiplier>
#     </PARLog_SatlanticSensor>
#   </sensor>
#   <sensor Channel="6" >
#     <!-- A/D voltage 2, pH -->
#     <pH_Sensor SensorID="43" >
#       <SerialNumber>0363</SerialNumber>
#       <CalibrationDate>15-Apr-19</CalibrationDate>
#       <Slope>4.5952</Slope>
#       <Offset>2.5370</Offset>
#     </pH_Sensor>
#   </sensor>
#   <sensor Channel="7" >
#     <!-- A/D voltage 3, Oxidation Reduction Potential -->
#     <OxidationReductionPotentialSensor SensorID="41" >
#       <SerialNumber>0363</SerialNumber>
#       <CalibrationDate>15-Apr-19</CalibrationDate>
#       <B>2.499480</B>
#       <M>-0.496195</M>
#       <Offset>0.0</Offset>
#     </OxidationReductionPotentialSensor>
#   </sensor>
#   <sensor Channel="8" >
#     <!-- A/D voltage 4, Fluorometer, WET Labs ECO-AFL/FL -->
#     <FluoroWetlabECO_AFL_FL_Sensor SensorID="20" >
#       <SerialNumber>FLNTURT-2496</SerialNumber>
#       <CalibrationDate>08-May-2019</CalibrationDate>
#       <ScaleFactor>5.00000000e+001</ScaleFactor>
#       <!-- Dark output -->
#       <Vblank>0.0550</Vblank>
#     </FluoroWetlabECO_AFL_FL_Sensor>
#   </sensor>
#   <sensor Channel="9" >
#     <!-- A/D voltage 5, Turbidity Meter, WET Labs, ECO-NTU -->
#     <TurbidityMeter SensorID="67" >
#       <SerialNumber>FLNTURT-2496</SerialNumber>
#       <CalibrationDate>08-May-2019</CalibrationDate>
#       <ScaleFactor>189.000000</ScaleFactor>
#       <!-- Dark output -->
#       <DarkVoltage>0.071000</DarkVoltage>
#     </TurbidityMeter>
#   </sensor>
# </Sensors>
# datcnv_date = Oct 16 2019 08:03:38, 7.26.7.129 [datcnv_vars = 15]
# datcnv_in = C:\DATA\101119_fcr20.hex C:\DATA\SBE19plusV2_7809.xmlcon
# datcnv_skipover = 0
# datcnv_ox_hysteresis_correction = yes
# datcnv_ox_tau_correction = yes
# filter_date = Oct 16 2019 08:04:04, 7.26.7.129
# filter_in = C:\DATA\101119_fcr20.cnv
# filter_low_pass_tc_A = 0.030
# filter_low_pass_tc_B = 0.150
# filter_low_pass_A_vars = sbeox0ML/L prdM prdE tv290C density00
# filter_low_pass_B_vars = depFM dz/dtM sbeox0PS specc c0uS/cm flECO-AFL ph orp par/sat/log turbWETntu0
# alignctd_date = Oct 16 2019 08:04:28, 7.26.7.129
# alignctd_in = C:\DATA\101119_fcr20.cnv
# alignctd_adv = dz/dtM 1.000, sbeox0PS 1.000, specc 1.000, c0uS/cm 1.000, flECO-AFL 1.000, ph 1.000, orp 1.000, turbWETntu0 1.000                                                                                                   
# file_type = ascii
*END*
     -0.521      0.071     6.0172     96.424     31.760  29.140470     1.2292      7.832   131.9709 6.0304e+02    11.8856     -0.518     -0.752    20.9517   998.0097 0.0000e+00
     -0.498      0.091     6.0197     96.432     37.978  34.823710     1.2078      8.103   133.1685 6.2351e+02    12.2139     -0.494     -0.717    20.9676   998.0064 0.0000e+00
     -0.460      0.108     6.0185     96.440     39.555  36.250275     1.1950      8.310   136.5041 6.6078e+02    12.1977     -0.453     -0.656    20.9695   998.0073 0.0000e+00
     -0.420      0.119     6.0215     96.459     39.764  36.424821     1.1445      8.465   143.3070 6.1448e+02    11.6571     -0.408     -0.591    20.9249   998.0207 0.0000e+00
     -0.386      0.123     6.0297     96.469     39.851  36.489797     1.0651      8.575   148.1393 4.6007e+02    10.6919     -0.374     -0.542    20.8750   998.0362 0.0000e+00
     -0.359      0.123     6.0332     96.476     39.912  36.528104     1.0242      8.646   147.6953 4.8694e+02    10.1624     -0.354     -0.512    20.8424   998.0449 0.0000e+00
     -0.333      0.123     6.0361     96.501     39.985  36.570594     1.0220      8.685   145.4236 7.7428e+02    10.1384     -0.329     -0.477    20.8162   998.0505 0.0000e+00
     -0.303      0.131     6.0412     96.554     40.068  36.622678     1.0727      8.711   144.7632 1.0199e+03    10.1067     -0.297     -0.431    20.7941   998.0556 0.0000e+00
     -0.273      0.148     6.0432     96.677     40.115  36.650023     1.1611      8.752   144.0991 1.1269e+03     9.9748     -0.267     -0.387    20.7792   998.0589 0.0000e+00
     -0.241      0.167     6.0451     96.937     40.122  36.647298     1.1978      8.804   144.5351 1.1540e+03     9.8877     -0.242     -0.351    20.7605   998.0630 0.0000e+00
     -0.197      0.179     6.0511     97.351     40.132  36.653195     1.2046      8.842   148.5716 1.1338e+03     9.9049     -0.199     -0.288    20.7248   998.0708 0.0000e+00
     -0.137      0.181     6.0577     97.884     40.129  36.657840     1.2601      8.857   152.3802 1.1749e+03    10.1176     -0.135     -0.195    20.6913   998.0784 0.0000e+00
     -0.073      0.174     6.0651     98.448     40.094  36.639996     1.3487      8.857   153.9318 1.3119e+03    10.4612     -0.066     -0.096    20.6734   998.0825 0.0000e+00
     -0.020      0.161     6.0829     98.948     40.071  36.627894     1.3920      8.851   154.9415 1.3764e+03    10.6177     -0.011     -0.016    20.6625   998.0851 0.0000e+00
      0.013      0.143     6.1102     99.359     40.096  36.638473     1.3930      8.840   155.8984 1.2877e+03    10.6341      0.019      0.027    20.6552   998.0868 0.0000e+00
      0.032      0.125     6.1442     99.561     40.140  36.640942     1.4474      8.821   154.7465 1.3109e+03    10.8560      0.031      0.044    20.6657   998.0845 0.0000e+00
      0.051      0.111     6.1802     99.350     40.147  36.594216     1.5647      8.798   151.3385 1.3535e+03    11.2681      0.045      0.064    20.6910   998.0792 0.0000e+00
      0.081      0.106     6.2080     98.645     40.125  36.517752     1.6402      8.776   149.7108 1.1877e+03    11.4869      0.078      0.114    20.7084   998.0756 0.0000e+00
      0.113      0.107     6.2372     97.277     40.139  36.478017     1.6405      8.761   150.2957 9.8704e+02    11.4700      0.114      0.166    20.6962   998.0784 0.0000e+00
      0.142      0.110     6.2648     95.027     40.206  36.494554     1.5779      8.750   151.1829 7.6915e+02    11.0968      0.140      0.202    20.6434   998.0898 0.0000e+00
      0.169      0.108     6.2587     91.977     40.279  36.527220     1.4897      8.736   152.2651 6.0044e+02    10.3823      0.166      0.241    20.5701   998.1055 0.0000e+00
      0.197      0.099     6.2266     88.500     40.337  36.555572     1.4585      8.718   153.4861 5.5032e+02    10.0090      0.192      0.278    20.4977   998.1210 0.0000e+00
      0.226      0.086     6.1581     85.102     40.388  36.583428     1.4692      8.703   154.5020 5.8075e+02    10.0235      0.221      0.321    20.4311   998.1351 0.0000e+00
      0.251      0.071     6.0185     82.182     40.436  36.610109     1.4640      8.693   155.3421 6.0039e+02    10.0013      0.249      0.362    20.3751   998.1470 0.0000e+00
      0.268      0.054     5.8231     79.882     40.465  36.624251     1.4219      8.688   156.2439 5.6200e+02     9.8710      0.266      0.386    20.3330   998.1560 0.0000e+00
      0.277      0.037     5.5934     78.225     40.473  36.627458     1.3664      8.684   157.2314 5.9441e+02     9.7593      0.275      0.399    20.3053   998.1619 0.0000e+00
      0.280      0.021     5.3706     77.155     40.494  36.648883     1.3397      8.676   158.3339 6.5371e+02     9.7648      0.276      0.401    20.2854   998.1661 0.0000e+00
      0.280      0.009     5.1872     76.550     40.537  36.692873     1.3330      8.665   159.5939 6.6039e+02     9.7742      0.274      0.397    20.2624   998.1709 0.0000e+00
      0.280      0.002     5.0423     76.256     40.557  36.715032     1.3285      8.654   160.8510 6.9624e+02     9.5780      0.273      0.396    20.2451   998.1745 0.0000e+00
      0.280      0.000     4.9391     76.094     40.562  36.726398     1.3287      8.642   161.9178 7.2340e+02     9.2275      0.276      0.399    20.2413   998.1754 0.0000e+00
      0.280      0.000     4.8743     75.957     40.596  36.766829     1.3445      8.628   162.8566 6.3870e+02     9.0421      0.275      0.400    20.2461   998.1742 0.0000e+00
      0.279      0.001     4.8376     75.760     40.642  36.823051     1.3634      8.613   163.7694 5.5665e+02     9.0411      0.273      0.397    20.2531   998.1728 0.0000e+00
      0.279      0.001     4.8241     75.374     40.704  36.898406     1.3582      8.596   164.6952 5.0803e+02     9.1505      0.272      0.395    20.2583   998.1718 0.0000e+00
      0.279      0.002     4.8152     74.775     40.770  36.979754     1.3414      8.579   165.5319 4.6357e+02     9.3485      0.273      0.396    20.2647   998.1704 0.0000e+00
      0.280      0.002     4.8057     74.051     40.820  37.044955     1.3342      8.564   166.2280 4.7067e+02     9.4692      0.276      0.399    20.2758   998.1681 0.0000e+00
      0.282      0.001     4.7965     73.271     40.880  37.115511     1.3406      8.553   167.0029 4.8391e+02     9.4947      0.276      0.401    20.2958   998.1640 0.0000e+00
      0.283      0.000     4.7703     72.541     40.957  37.198112     1.3746      8.546   167.8469 4.7450e+02     9.4932      0.278      0.402    20.3189   998.1592 0.0000e+00
      0.283     -0.002     4.7264     72.087     41.040  37.282005     1.4249      8.539   168.6888 4.9155e+02     9.4841      0.280      0.405    20.3456   998.1536 0.0000e+00
      0.281     -0.004     4.6773     72.093     41.128  37.368163     1.4463      8.533   169.5245 5.8491e+02     9.4504      0.276      0.401    20.3732   998.1478 0.0000e+00
      0.279     -0.005     4.6252     72.586     41.175  37.414672     1.4419      8.528   170.2938 6.8253e+02     9.4136      0.273      0.395    20.3924   998.1438 0.0000e+00
      0.277     -0.005     4.5710     73.477     41.159  37.400017     1.4157      8.522   171.1077 6.9431e+02     9.3990      0.272      0.394    20.4073   998.1407 0.0000e+00
      0.276     -0.005     4.5366     74.590     41.140  37.381389     1.3634      8.515   171.8796 6.8206e+02     9.3392      0.272      0.394    20.4184   998.1383 0.0000e+00
      0.275     -0.004     4.5367     75.730     41.139  37.379864     1.3304      8.506   172.4859 6.7493e+02     9.2485      0.270      0.392    20.4255   998.1368 0.0000e+00
      0.274     -0.004     4.5689     76.733     41.139  37.381584     1.3280      8.501   173.1039 6.4257e+02     9.2198      0.269      0.390    20.4291   998.1361 0.0000e+00
      0.274     -0.003     4.6298     77.466     41.157  37.402187     1.3347      8.497   173.6733 6.0438e+02     9.3194      0.269      0.390    20.4291   998.1361 0.0000e+00
      0.273     -0.002     4.7049     77.849     41.192  37.438552     1.3421      8.494   174.1222 6.0838e+02     9.4703      0.268      0.389    20.4273   998.1365 0.0000e+00
      0.272      0.000     4.7799     77.904     41.192  37.440424     1.3396      8.490   174.6592 6.4201e+02     9.5034      0.266      0.386    20.4254   998.1369 0.0000e+00
      0.272      0.002     4.8463     77.722     41.175  37.424819     1.3306      8.484   175.2614 6.2617e+02     9.4582      0.265      0.385    20.4276   998.1365 0.0000e+00
      0.273      0.002     4.8941     77.412     41.194  37.440308     1.3290      8.475   175.8976 5.7343e+02     9.4480      0.267      0.388    20.4337   998.1351 0.0000e+00
      0.274      0.002     4.9169     77.070     41.193  37.437271     1.3462      8.463   176.6725 5.0691e+02     9.3138      0.269      0.390    20.4396   998.1339 0.0000e+00
      0.277      0.002     4.9177     76.760     41.144  37.388097     1.3827      8.450   177.3166 4.3185e+02     9.0154      0.273      0.394    20.4425   998.1334 0.0000e+00
      0.278      0.002     4.9039     76.515     41.116  37.353546     1.4050      8.437   177.8351 4.2529e+02     8.8225      0.274      0.397    20.4418   998.1335 0.0000e+00
      0.276      0.001     4.8822     76.317     41.108  37.336877     1.3985      8.423   178.4676 4.8972e+02     8.7849      0.271      0.392    20.4392   998.1340 0.0000e+00
      0.275     -0.001     4.8599     76.092     41.090  37.313500     1.3738      8.412   178.9424 5.4904e+02     8.9861      0.269      0.390    20.4370   998.1344 0.0000e+00
      0.275     -0.002     4.8394     75.767     41.108  37.324787     1.3490      8.404   179.2739 5.6333e+02     9.4203      0.270      0.392    20.4328   998.1354 0.0000e+00
      0.275     -0.002     4.8255     75.316     41.137  37.346389     1.3425      8.397   179.7218 5.7954e+02     9.6756      0.271      0.393    20.4209   998.1379 0.0000e+00
      0.275     -0.002     4.8167     74.808     41.115  37.320780     1.3388      8.389   180.3147 6.1191e+02     9.6811      0.270      0.391    20.4061   998.1410 0.0000e+00
      0.274     -0.002     4.8045     74.339     41.066  37.269045     1.3296      8.382   181.0221 5.9599e+02     9.5844      0.268      0.389    20.3978   998.1427 0.0000e+00
      0.272     -0.003     4.7859     73.939     41.031  37.228660     1.3346      8.376   181.6486 6.0980e+02     9.4245      0.267      0.387    20.3942   998.1434 0.0000e+00
      0.272     -0.003     4.7558     73.626     41.022  37.213326     1.3476      8.368   182.1261 6.5609e+02     9.3201      0.267      0.387    20.3889   998.1446 0.0000e+00
      0.272     -0.002     4.7214     73.437     41.026  37.210580     1.3483      8.361   182.5791 6.0935e+02     9.3063      0.266      0.386    20.3816   998.1461 0.0000e+00
      0.271     -0.002     4.6928     73.364     41.015  37.195453     1.3698      8.353   183.0823 5.2684e+02     9.4213      0.266      0.385    20.3720   998.1481 0.0000e+00
      0.271     -0.002     4.6684     73.379     40.978  37.157358     1.4252      8.346   183.6507 4.8250e+02     9.6283      0.265      0.385    20.3612   998.1504 0.0000e+00
      0.270     -0.002     4.6478     73.453     40.954  37.130823     1.4631      8.339   184.1165 4.6351e+02     9.7453      0.265      0.384    20.3518   998.1523 0.0000e+00
      0.269     -0.002     4.6373     73.517     40.957  37.128515     1.4640      8.330   184.4986 4.6191e+02     9.7533      0.264      0.383    20.3445   998.1539 0.0000e+00
      0.268     -0.002     4.6340     73.508     40.963  37.129449     1.4787      8.319   184.9143 4.5313e+02     9.7583      0.263      0.381    20.3389   998.1550 0.0000e+00
      0.268     -0.002     4.6354     73.405     40.981  37.142115     1.5283      8.308   185.5288 4.4287e+02     9.8067      0.263      0.381    20.3329   998.1563 0.0000e+00
      0.268     -0.002     4.6429     73.206     40.999  37.154705     1.5611      8.298   188.4014 4.6983e+02     9.8791      0.262      0.380    20.3265   998.1576 0.0000e+00
      0.268     -0.002     4.6489     72.906     41.000  37.154714     1.5714      8.287   191.2544 5.3170e+02     9.9781      0.263      0.381    20.3212   998.1587 0.0000e+00
      0.267     -0.002     4.6490     72.509     40.985  37.142229     1.5832      8.276   189.7378 5.6824e+02    10.0212      0.262      0.380    20.3164   998.1597 0.0000e+00
      0.266     -0.002     4.6428     72.051     40.972  37.130698     1.5831      8.267   187.6168 5.5285e+02     9.9078      0.260      0.378    20.3110   998.1608 0.0000e+00
      0.266     -0.002     4.6310     71.565     40.985  37.142239     1.5705      8.259   187.4629 5.2290e+02     9.7542      0.261      0.378    20.3070   998.1617 0.0000e+00
      0.265     -0.002     4.6122     71.053     41.000  37.154820     1.5692      8.250   187.6193 5.1084e+02     9.7049      0.260      0.377    20.3063   998.1618 0.0000e+00
      0.264     -0.001     4.5858     70.530     41.001  37.155860     1.5755      8.240   187.8730 5.2116e+02     9.7372      0.258      0.374    20.3074   998.1616 0.0000e+00
      0.264      0.001     4.5559     70.025     40.999  37.154820     1.5691      8.229   188.2078 5.4261e+02     9.7522      0.259      0.375    20.3077   998.1615 0.0000e+00
      0.265      0.002     4.5255     69.543     40.985  37.142240     1.5609      8.219   188.4835 5.5415e+02     9.7219      0.260      0.377    20.3071   998.1616 0.0000e+00
      0.265      0.005     4.4931     69.074     40.972  37.130711     1.5637      8.209   188.7108 5.4170e+02     9.6984      0.260      0.377    20.3066   998.1618 0.0000e+00
      0.266      0.008     4.4585     68.566     40.984  37.142367     1.5762      8.200   189.0628 5.4949e+02     9.6980      0.260      0.378    20.3069   998.1617 0.0000e+00
      0.268      0.010     4.4276     68.065     40.998  37.156225     1.5907      8.193   189.4711 6.0696e+02     9.7166      0.263      0.381    20.3075   998.1616 0.0000e+00
      0.271      0.010     4.3957     67.679     41.013  37.171322     1.5925      8.186   189.7755 6.7392e+02     9.7601      0.266      0.384    20.3077   998.1616 0.0000e+00
      0.276      0.010     4.3689     67.323     41.040  37.197960     1.5808      8.181   189.9904 6.6365e+02     9.7640      0.270      0.391    20.3076   998.1616 0.0000e+00
      0.280      0.010     4.3366     66.901     41.066  37.224410     1.5698      8.179   190.1759 5.4486e+02     9.7312      0.274      0.399    20.3079   998.1616 0.0000e+00
      0.281      0.010     4.2980     66.429     41.078  37.237221     1.5553      8.180   190.4701 4.4821e+02     9.8225      0.276      0.401    20.3090   998.1614 0.0000e+00
      0.281      0.010     4.2791     65.933     41.064  37.225907     1.5357      8.180   190.8797 4.2249e+02    10.0163      0.275      0.399    20.3114   998.1608 0.0000e+00
      0.282      0.010     4.2583     65.423     41.050  37.214577     1.5319      8.177   191.1708 4.0713e+02    10.1079      0.275      0.399    20.3147   998.1601 0.0000e+00
      0.286      0.010     4.2301     64.912     41.062  37.227167     1.5353      8.165   191.4085 4.0869e+02    10.1103      0.280      0.406    20.3179   998.1595 0.0000e+00
      0.291      0.011     4.1995     64.390     41.087  37.251182     1.5758      8.149   191.6891 4.2628e+02    10.0461      0.286      0.414    20.3201   998.1591 0.0000e+00
      0.295      0.011     4.1680     63.830     41.086  37.251048     1.6663      8.138   191.8963 4.3139e+02     9.8885      0.289      0.420    20.3215   998.1588 0.0000e+00
      0.297      0.011     4.1353     63.281     41.056  37.225554     1.7108      8.136   192.1072 4.3154e+02     9.7782      0.291      0.423    20.3230   998.1585 0.0000e+00
      0.299      0.013     4.1024     62.787     41.024  37.196835     1.6981      8.136   192.4321 4.6093e+02     9.7284      0.293      0.425    20.3249   998.1581 0.0000e+00
      0.299      0.017     4.0717     62.355     40.982  37.157713     1.6947      8.134   192.8122 4.6815e+02     9.6792      0.294      0.427    20.3268   998.1577 0.0000e+00
      0.301      0.023     4.0334     61.982     40.956  37.133374     1.7042      8.127   193.0899 4.1583e+02     9.7734      0.293      0.426    20.3285   998.1574 0.0000e+00
      0.308      0.030     3.9979     61.653     40.982  37.156453     1.7088      8.119   193.3802 3.9782e+02    10.0151      0.300      0.435    20.3304   998.1570 0.0000e+00
      0.319      0.036     3.9667     61.361     41.011  37.182863     1.7070      8.110   193.8274 4.2865e+02    10.1435      0.313      0.454    20.3311   998.1569 0.0000e+00
      0.332      0.041     3.9394     61.112     41.027  37.198793     1.6999      8.094   194.1948 4.4736e+02    10.1136      0.325      0.472    20.3298   998.1572 0.0000e+00
      0.344      0.041     3.9165     60.901     41.051  37.222111     1.7014      8.071   194.4672 4.4926e+02    10.0465      0.337      0.489    20.3278   998.1577 0.0000e+00
      0.357      0.039     3.8959     60.694     41.037  37.210902     1.7164      8.050   194.8837 4.2524e+02     9.9879      0.349      0.506    20.3275   998.1578 0.0000e+00
      0.368      0.037     3.8769     60.449     41.013  37.190217     1.7253      8.028   195.3592 3.9606e+02     9.9619      0.363      0.526    20.3282   998.1577 0.0000e+00
      0.374      0.036     3.8613     60.155     41.052  37.225908     1.7228      8.001   195.6574 4.0927e+02     9.9291      0.369      0.535    20.3286   998.1577 0.0000e+00
      0.377      0.032     3.8487     59.846     41.090  37.261589     1.7464      7.973   195.8215 4.4009e+02     9.9513      0.367      0.533    20.3314   998.1571 0.0000e+00
      0.386      0.026     3.8364     59.562     41.067  37.240787     1.8029      7.954   196.0522 4.4714e+02    10.0999      0.375      0.545    20.3340   998.1566 0.0000e+00
      0.399      0.019     3.8215     59.306     41.051  37.228297     1.8330      7.950   196.2959 4.5059e+02    10.2180      0.393      0.569    20.3345   998.1565 0.0000e+00
      0.408      0.014     3.8016     59.076     41.047  37.237524     1.8243      7.955   196.4453 4.7771e+02    10.2324      0.403      0.584    20.3356   998.1563 0.0000e+00
      0.408      0.009     3.7806     58.859     41.013  37.225420     1.8018      7.961   196.6531 4.9804e+02    10.1094      0.401      0.583    20.3371   998.1560 0.0000e+00
      0.403      0.005     3.7635     58.651     40.980  37.208927     1.7782      7.966   197.0017 5.0309e+02     9.8455      0.394      0.571    20.3353   998.1563 0.0000e+00
      0.400      0.005     3.7471     58.490     40.927  37.165080     1.7644      7.966   197.5642 4.9496e+02     9.6960      0.391      0.568    20.3334   998.1568 0.0000e+00
      0.399      0.013     3.7314     58.360     40.832  37.076123     1.7739      7.960   198.2049 4.5543e+02     9.7445      0.391      0.567    20.3503   998.1533 0.0000e+00
      0.402      0.028     3.7169     58.260     40.780  37.021997     1.8578      7.950   198.6399 4.4053e+02     9.9395      0.394      0.571    20.3820   998.1465 0.0000e+00
      0.409      0.045     3.6996     58.255     40.788  37.018431     1.9894      7.944   199.0375 4.4780e+02    10.2187      0.399      0.579    20.3993   998.1429 0.0000e+00
      0.422      0.060     3.6908     58.367     40.823  37.032989     2.0557      7.939   199.5715 4.5727e+02    10.3675      0.408      0.592    20.4008   998.1427 0.0000e+00
      0.446      0.071     3.6836     58.627     40.889  37.071045     2.0705      7.930   200.1060 4.7343e+02    10.3624      0.437      0.634    20.3980   998.1433 0.0000e+00
      0.472      0.075     3.6745     59.083     40.939  37.097690     2.0811      7.920   200.4225 4.5862e+02    10.3214      0.466      0.675    20.3888   998.1455 0.0000e+00
      0.495      0.073     3.6763     59.731     40.954  37.101222     2.1063      7.914   200.6457 4.1827e+02    10.1986      0.485      0.703    20.3758   998.1482 0.0000e+00
      0.515      0.067     3.6836     60.553     40.973  37.113733     2.1590      7.912   200.9987 3.8074e+02    10.0249      0.507      0.736    20.3572   998.1522 0.0000e+00
      0.530      0.058     3.7006     61.504     40.987  37.122001     2.1889      7.911   201.3345 3.7748e+02     9.9581      0.522      0.758    20.3255   998.1590 0.0000e+00
      0.540      0.052     3.7322     62.455     40.942  37.074239     2.1906      7.907   201.6089 3.8679e+02     9.9485      0.530      0.769    20.2982   998.1648 0.0000e+00
      0.548      0.050     3.7743     63.276     40.642  36.790134     2.1623      7.900   201.8204 3.7069e+02     9.9087      0.537      0.779    20.2884   998.1669 0.0000e+00
      0.557      0.050     3.8269     63.957     40.059  36.225826     2.0978      7.892   202.0849 3.4849e+02     9.8705      0.545      0.790    20.2843   998.1677 0.0000e+00
      0.571      0.054     3.8905     64.624     39.674  35.773312     2.0605      7.883   202.4847 3.3541e+02     9.8794      0.558      0.810    20.2808   998.1685 0.0000e+00
      0.589      0.059     3.9556     65.785     39.714  35.634779     2.0587      7.874   202.7822 3.2972e+02     9.9514      0.579      0.840    20.2755   998.1697 0.0000e+00
      0.606      0.066     4.0075     68.217     39.901  35.629596     2.0582      7.865   203.0152 3.2649e+02    10.2159      0.594      0.862    20.2596   998.1730 0.0000e+00
      0.622      0.075     4.0510     71.989     40.057  35.646927     2.0644      7.851   203.2357 3.2079e+02    10.6199      0.608      0.883    20.2453   998.1758 0.0000e+00
      0.638      0.085     4.0941     76.332     40.149  35.653757     2.0728      7.835   203.2977 3.0659e+02    10.8048      0.627      0.910    20.1262   998.2005 0.0000e+00
      0.657      0.094     4.1633     80.542     40.196  35.648615     2.0807      7.822   203.3349 2.8284e+02    10.7801      0.640      0.930    19.8523   998.2571 0.0000e+00
      0.683      0.102     4.3366     84.218     40.229  35.648169     2.1605      7.810   203.5129 2.6386e+02    10.5176      0.665      0.965    19.6121   998.3061 0.0000e+00
      0.719      0.109     4.6182     87.060     40.251  35.648327     2.3001      7.799   203.7292 2.4674e+02    10.0242      0.706      1.024    19.4716   998.3346 0.0000e+00
      0.752      0.115     4.9208     88.874     40.267  35.650488     2.3651      7.789   203.8861 2.2707e+02     9.7292      0.741      1.075    19.3847   998.3523 0.0000e+00
      0.779      0.120     5.2038     89.567     40.235  35.610818     2.3739      7.783   204.0334 2.1186e+02     9.6712      0.763      1.106    19.3327   998.3627 0.0000e+00
      0.805      0.122     5.4529     89.217     40.183  35.549485     2.4322      7.779   204.3048 1.9797e+02     9.8807      0.788      1.142    19.2970   998.3700 0.0000e+00
      0.836      0.123     5.6425     88.219     40.193  35.543591     2.5240      7.775   204.6719 1.8306e+02    10.3605      0.820      1.189    19.2757   998.3744 0.0000e+00
      0.871      0.124     5.7627     87.050     40.203  35.539540     2.5648      7.768   204.9454 1.7004e+02    10.6224      0.854      1.238    19.2630   998.3770 0.0000e+00
      0.905      0.126     5.8098     85.940     40.171  35.500483     2.5532      7.759   205.1163 1.5965e+02    10.6229      0.889      1.289    19.2505   998.3797 0.0000e+00
      0.937      0.127     5.7785     84.960     40.129  35.452158     2.5568      7.750   205.2756 1.4990e+02    10.5959      0.919      1.333    19.2306   998.3837 0.0000e+00
      0.968      0.126     5.7027     84.136     40.083  35.399518     2.6603      7.742   205.4948 1.4035e+02    10.4266      0.949      1.377    19.2091   998.3881 0.0000e+00
      1.000      0.124     5.6260     83.491     40.064  35.371767     2.8328      7.736   205.8738 1.3155e+02    10.1488      0.981      1.423    19.1936   998.3913 0.0000e+00
      1.032      0.122     5.5540     83.086     40.074  35.370482     2.9176      7.732   206.2449 1.2330e+02     9.9897      1.012      1.468    19.1826   998.3936 0.0000e+00
      1.064      0.121     5.4915     82.956     40.098  35.383976     2.9144      7.727   206.3674 1.1590e+02     9.9127      1.043      1.513    19.1692   998.3965 0.0000e+00
      1.095      0.118     5.4399     83.065     40.133  35.407970     2.8984      7.717   206.4086 1.0940e+02     9.7100      1.074      1.557    19.1539   998.3996 0.0000e+00
      1.125      0.115     5.3983     83.381     40.137  35.406701     2.8797      7.705   206.5710 1.0308e+02     9.4388      1.103      1.600    19.1383   998.4028 0.0000e+00
      1.154      0.112     5.3716     83.857     40.098  35.368622     2.8707      7.691   206.7827 9.7379e+01     9.3213      1.131      1.641    19.1251   998.4055 0.0000e+00
      1.182      0.109     5.3660     84.325     40.062  35.328367     2.8678      7.676   206.9030 9.2298e+01     9.2720      1.160      1.682    19.1170   998.4073 0.0000e+00
      1.209      0.106     5.3751     84.633     40.047  35.300787     2.8532      7.662   206.9927 8.7503e+01     9.2034      1.186      1.720    19.1091   998.4089 0.0000e+00
      1.235      0.104     5.3951     84.713     40.053  35.289022     2.8242      7.651   207.1793 8.3121e+01     9.1467      1.211      1.756    19.1013   998.4106 0.0000e+00
      1.262      0.104     5.4323     84.489     40.098  35.313029     2.8027      7.643   207.4382 7.9014e+01     9.0782      1.238      1.795    19.0992   998.4111 0.0000e+00
      1.287      0.105     5.4669     83.893     40.142  35.337159     2.8094      7.637   207.7132 7.5291e+01     9.0641      1.263      1.832    19.0927   998.4125 0.0000e+00
      1.312      0.107     5.4896     82.968     40.145  35.326879     2.8887      7.629   207.9236 7.1852e+01     9.3369      1.286      1.865    19.0710   998.4169 0.0000e+00
      1.339      0.109     5.4996     81.847     40.139  35.315653     3.0250      7.622   208.0893 6.8109e+01     9.8528      1.312      1.902    19.0468   998.4217 0.0000e+00
      1.369      0.111     5.4893     80.612     40.150  35.328357     3.1042      7.614   208.2540 6.4261e+01    10.1570      1.343      1.947    19.0291   998.4254 0.0000e+00
      1.399      0.112     5.4519     79.337     40.176  35.353537     3.1179      7.606   208.3663 6.0743e+01    10.1955      1.373      1.991    19.0107   998.4291 0.0000e+00
      1.428      0.113     5.3890     78.167     40.196  35.366231     3.1568      7.599   208.5009 5.7569e+01    10.2205      1.402      2.033    18.9915   998.4330 0.0000e+00
      1.456      0.113     5.3163     77.242     40.196  35.354892     3.2362      7.592   208.6778 5.4597e+01    10.2957      1.428      2.071    18.9831   998.4348 0.0000e+00
      1.484      0.112     5.2346     76.613     40.195  35.343364     3.2891      7.584   208.7834 5.1709e+01    10.3503      1.455      2.111    18.9903   998.4335 0.0000e+00
      1.513      0.111     5.1464     76.204     40.216  35.353771     3.2932      7.579   208.9180 4.9061e+01    10.3565      1.484      2.152    18.9989   998.4320 0.0000e+00
      1.541      0.110     5.0683     75.912     40.222  35.353773     3.2763      7.572   209.1861 4.6496e+01    10.3376      1.510      2.191    18.9911   998.4336 0.0000e+00
      1.571      0.111     5.0080     75.663     40.214  35.343378     3.2157      7.563   209.4443 4.4017e+01    10.2536      1.541      2.236    18.9725   998.4373 0.0000e+00
      1.599      0.115     4.9718     75.440     40.231  35.355022     3.1064      7.555   209.6307 4.1977e+01    10.1271      1.570      2.277    18.9582   998.4403 0.0000e+00
      1.624      0.121     4.9483     75.264     40.247  35.367621     3.0388      7.549   209.8042 4.0033e+01    10.0866      1.592      2.307    18.9497   998.4421 0.0000e+00
      1.651      0.126     4.9316     75.106     40.250  35.368767     3.0305      7.544   209.9080 3.7623e+01    10.1233      1.616      2.343    18.9440   998.4433 0.0000e+00
      1.686      0.131     4.9168     74.938     40.251  35.368870     2.9287      7.539   210.0253 3.4909e+01     9.9809      1.652      2.396    18.9391   998.4444 0.0000e+00
      1.726      0.132     4.9006     74.789     40.253  35.368870     2.7181      7.533   210.1897 3.2328e+01     9.6434      1.693      2.455    18.9349   998.4454 0.0000e+00
      1.765      0.127     4.8912     74.732     40.255  35.368758     2.5993      7.528   210.2608 3.0049e+01     9.4513      1.732      2.512    18.9327   998.4460 0.0000e+00
      1.801      0.117     4.8814     74.780     40.255  35.367509     2.5937      7.524   210.2823 2.8206e+01     9.4608      1.768      2.565    18.9328   998.4462 0.0000e+00
      1.831      0.102     4.8704     74.846     40.240  35.353766     2.5901      7.522   210.2782 2.6911e+01     9.4300      1.798      2.607    18.9315   998.4466 0.0000e+00
      1.853      0.090     4.8585     74.872     40.213  35.329533     2.5727      7.521   210.2969 2.6059e+01     9.3086      1.819      2.638    18.9283   998.4473 0.0000e+00
      1.868      0.082     4.8542     74.898     40.212  35.328388     2.5572      7.517   210.4224 2.5421e+01     9.2390      1.833      2.659    18.9255   998.4479 0.0000e+00
      1.882      0.081     4.8607     74.958     40.226  35.339917     2.5493      7.512   210.5918 2.4667e+01     9.2763      1.844      2.674    18.9239   998.4483 0.0000e+00
      1.898      0.086     4.8669     75.037     40.229  35.341997     2.5644      7.505   210.7957 2.3649e+01     9.4323      1.859      2.697    18.9237   998.4484 0.0000e+00
      1.920      0.095     4.8667     75.103     40.243  35.353527     2.6008      7.496   211.0811 2.2491e+01     9.6169      1.881      2.729    18.9237   998.4485 0.0000e+00
      1.947      0.102     4.8671     75.134     40.242  35.352381     2.6161      7.486   211.2032 2.1192e+01     9.6732      1.906      2.765    18.9231   998.4487 0.0000e+00
      1.980      0.105     4.8723     75.157     40.215  35.328148     2.6116      7.477   211.1539 1.9796e+01     9.6546      1.940      2.814    18.9221   998.4491 0.0000e+00
      2.015      0.102     4.8778     75.216     40.199  35.314406     2.6322      7.471   211.1736 1.8603e+01     9.7194      1.978      2.869    18.9213   998.4494 0.0000e+00
      2.044      0.095     4.8833     75.266     40.198  35.313157     2.6671      7.467   211.1831 1.7838e+01     9.8667      2.009      2.913    18.9207   998.4496 0.0000e+00
      2.064      0.086     4.8846     75.248     40.197  35.313053     2.6776      7.464   211.1821 1.7335e+01     9.9279      2.025      2.937    18.9200   998.4499 0.0000e+00
      2.079      0.078     4.8840     75.210     40.197  35.313146     2.6721      7.463   211.2480 1.6815e+01     9.9026      2.038      2.956    18.9194   998.4500 0.0000e+00
      2.095      0.074     4.8895     75.217     40.197  35.314289     2.6963      7.461   211.4640 1.6280e+01     9.8560      2.055      2.980    18.9192   998.4501 0.0000e+00
      2.111      0.074     4.8956     75.280     40.210  35.326868     2.7538      7.459   211.7288 1.5740e+01     9.7910      2.070      3.002    18.9189   998.4503 0.0000e+00
      2.130      0.079     4.8919     75.409     40.223  35.338294     2.7855      7.456   211.8674 1.5149e+01     9.7381      2.088      3.028    18.9194   998.4502 0.0000e+00
      2.151      0.085     4.8873     75.606     40.208  35.325506     2.7859      7.451   211.9364 1.4523e+01     9.6753      2.109      3.059    18.9212   998.4500 0.0000e+00
      2.175      0.092     4.8883     75.838     40.178  35.299183     2.7842      7.445   212.0461 1.3892e+01     9.6217      2.132      3.094    18.9228   998.4498 0.0000e+00
      2.200      0.099     4.8917     76.066     40.149  35.273910     2.7817      7.437   212.2472 1.3283e+01     9.6803      2.158      3.130    18.9241   998.4496 0.0000e+00
      2.225      0.105     4.8998     76.256     40.149  35.273805     2.7819      7.429   212.3893 1.2653e+01     9.8596      2.181      3.163    18.9247   998.4497 0.0000e+00
      2.252      0.107     4.9135     76.351     40.179  35.297915     2.7868      7.422   212.4737 1.1972e+01     9.9538      2.207      3.201    18.9250   998.4497 0.0000e+00
      2.282      0.104     4.9299     76.347     40.200  35.311535     2.7885      7.417   212.5796 1.1288e+01     9.9020      2.238      3.247    18.9247   998.4499 0.0000e+00
      2.314      0.097     4.9446     76.306     40.203  35.311535     2.7764      7.413   212.6367 1.0706e+01     9.7580      2.271      3.292    18.9242   998.4502 0.0000e+00
      2.342      0.089     4.9592     76.256     40.188  35.297915     2.7614      7.409   212.7344 1.0309e+01     9.5551      2.300      3.336    18.9248   998.4501 0.0000e+00
      2.362      0.081     4.9662     76.229     40.160  35.273797     2.7549      7.405   212.9005 1.0066e+01     9.4483      2.318      3.364    18.9221   998.4508 0.0000e+00
      2.374      0.075     4.9634     76.192     40.162  35.273807     2.7507      7.402   213.0103 9.8458e+00     9.4498      2.328      3.376    18.9141   998.4524 0.0000e+00
      2.387      0.071     4.9624     76.083     40.193  35.298030     2.7621      7.401   213.1152 9.5583e+00     9.5410      2.339      3.393    18.9092   998.4534 0.0000e+00
      2.405      0.073     4.9567     75.939     40.213  35.312794     2.7968      7.399   213.3082 9.2179e+00     9.6987      2.358      3.419    18.9112   998.4531 0.0000e+00
      2.426      0.080     4.9556     75.852     40.228  35.325384     2.8233      7.393   213.4507 8.8847e+00     9.7836      2.380      3.451    18.9134   998.4527 0.0000e+00
      2.447      0.089     4.9569     75.876     40.228  35.323304     2.8233      7.386   213.4626 8.5768e+00     9.7814      2.400      3.481    18.9107   998.4534 0.0000e+00
      2.469      0.096     4.9476     75.907     40.192  35.287647     2.8400      7.380   213.4519 8.2150e+00     9.8039      2.419      3.509    18.9056   998.4545 0.0000e+00
      2.495      0.099     4.9377     75.899     40.185  35.275059     2.8866      7.376   213.5798 7.7889e+00     9.8907      2.445      3.546    18.9029   998.4551 0.0000e+00
      2.525      0.099     4.9280     75.975     40.220  35.298035     2.9186      7.371   213.8900 7.3768e+00     9.9460      2.477      3.593    18.9017   998.4554 0.0000e+00
      2.554      0.100     4.9348     76.123     40.242  35.311551     2.9324      7.364   214.1920 7.0263e+00     9.9481      2.507      3.636    18.9000   998.4560 0.0000e+00
      2.578      0.103     4.9397     76.124     40.248  35.311540     2.9667      7.354   214.4774 6.7511e+00     9.9493      2.529      3.670    18.8956   998.4569 0.0000e+00
      2.599      0.105     4.9337     75.839     40.241  35.297901     3.0208      7.345   214.7597 6.4996e+00     9.9273      2.548      3.697    18.8862   998.4588 0.0000e+00
      2.622      0.106     4.9401     75.333     40.224  35.273565     3.0408      7.340   214.8517 6.2042e+00     9.9123      2.570      3.727    18.8761   998.4609 0.0000e+00
      2.651      0.106     4.9572     74.687     40.233  35.271164     3.0344      7.338   214.8161 5.8578e+00     9.9637      2.598      3.768    18.8695   998.4623 0.0000e+00
      2.685      0.106     4.9628     73.937     40.240  35.268858     3.0396      7.337   214.8447 5.5165e+00     9.9918      2.634      3.819    18.8633   998.4637 0.0000e+00
      2.716      0.106     4.9408     73.159     40.224  35.245666     3.0338      7.334   214.9391 5.2660e+00     9.8919      2.668      3.869    18.8544   998.4656 0.0000e+00
      2.741      0.105     4.9076     72.494     40.236  35.244607     3.0081      7.330   215.0971 5.0937e+00     9.7386      2.690      3.901    18.8421   998.4680 0.0000e+00
      2.761      0.103     4.8667     72.099     40.262  35.256052     2.9892      7.325   215.2075 4.8897e+00     9.6783      2.706      3.925    18.8283   998.4708 0.0000e+00
      2.785      0.100     4.8175     72.097     40.274  35.257093     2.9779      7.321   215.2411 4.6214e+00     9.7194      2.729      3.958    18.8177   998.4730 0.0000e+00
      2.813      0.097     4.7641     72.507     40.281  35.257178     2.8893      7.318   215.3313 4.3575e+00     9.6455      2.758      4.001    18.8081   998.4750 0.0000e+00
      2.843      0.097     4.7183     73.220     40.284  35.257073     2.7236      7.315   215.4373 4.1510e+00     9.4081      2.789      4.046    18.7938   998.4779 0.0000e+00
      2.869      0.098     4.6911     74.130     40.287  35.255815     2.6306      7.311   215.5761 4.0026e+00     9.2415      2.817      4.085    18.7785   998.4809 0.0000e+00
      2.889      0.098     4.6907     75.130     40.282  35.241969     2.6230      7.306   215.7189 3.8705e+00     9.2049      2.833      4.110    18.7661   998.4835 0.0000e+00
      2.909      0.098     4.7225     76.046     40.271  35.216584     2.5970      7.301   215.7871 3.7137e+00     9.2266      2.850      4.134    18.7581   998.4850 0.0000e+00
      2.934      0.098     4.7715     76.712     40.272  35.202738     2.5342      7.296   215.8851 3.5304e+00     9.2748      2.876      4.171    18.7558   998.4856 0.0000e+00
      2.963      0.101     4.8320     77.016     40.282  35.201482     2.4962      7.290   216.1294 3.3464e+00     9.2966      2.906      4.214    18.7546   998.4861 0.0000e+00
      2.992      0.106     4.9038     76.900     40.291  35.201379     2.5010      7.284   216.3309 3.1952e+00     9.2933      2.936      4.258    18.7429   998.4884 0.0000e+00
      3.018      0.108     4.9695     76.410     40.303  35.201485     2.5228      7.279   216.3434 3.0528e+00     9.3666      2.960      4.293    18.7190   998.4930 0.0000e+00
      3.042      0.108     5.0173     75.656     40.319  35.202755     2.5516      7.276   216.3665 2.8830e+00     9.4946      2.982      4.324    18.6984   998.4972 0.0000e+00
      3.072      0.105     5.0405     74.759     40.350  35.216709     2.5635      7.275   216.5245 2.7165e+00     9.5297      3.011      4.367    18.6875   998.4994 0.0000e+00
      3.103      0.102     5.0321     73.837     40.393  35.243243     2.5537      7.273   216.7043 2.5820e+00     9.4628      3.046      4.417    18.6813   998.5007 0.0000e+00
      3.129      0.098     4.9981     72.957     40.433  35.269691     2.5371      7.271   216.7343 2.4624e+00     9.2759      3.070      4.453    18.6695   998.5031 0.0000e+00
      3.152      0.094     4.9484     72.163     40.456  35.282606     2.5194      7.268   216.7152 2.3508e+00     9.0062      3.090      4.482    18.6509   998.5069 0.0000e+00
      3.174      0.093     4.8882     71.523     40.453  35.272441     2.5044      7.263   216.8177 2.2639e+00     8.8567      3.113      4.515    18.6339   998.5101 0.0000e+00
      3.195      0.093     4.8279     71.056     40.466  35.273713     2.4951      7.258   216.9400 2.1949e+00     8.8123      3.134      4.544    18.6196   998.5130 0.0000e+00
      3.215      0.096     4.7712     70.741     40.507  35.297968     2.5011      7.254   216.9896 2.1207e+00     8.7646      3.152      4.571    18.6090   998.5152 0.0000e+00
      3.239      0.100     4.7171     70.542     40.533  35.311817     2.5687      7.251   216.9022 2.0237e+00     8.6726      3.173      4.603    18.6032   998.5164 0.0000e+00
      3.268      0.103     4.6761     70.409     40.543  35.314203     2.6802      7.248   216.6574 1.9046e+00     8.5198      3.204      4.647    18.5953   998.5181 0.0000e+00
      3.300      0.107     4.6474     70.298     40.563  35.326812     2.7392      7.243   216.5248 1.8010e+00     8.4249      3.238      4.697    18.5807   998.5210 0.0000e+00
      3.328      0.107     4.6289     70.168     40.578  35.337322     2.7442      7.239   216.5883 1.7255e+00     8.4096      3.266      4.736    18.5653   998.5241 0.0000e+00
      3.353      0.102     4.6187     70.018     40.553  35.314339     2.6713      7.235   216.5657 1.6494e+00     8.3997      3.287      4.767    18.5535   998.5264 0.0000e+00
      3.379      0.092     4.6110     69.858     40.541  35.302799     2.5249      7.232   216.4241 1.5688e+00     8.4042      3.311      4.803    18.5456   998.5280 0.0000e+00
      3.407      0.078     4.6060     69.698     40.566  35.324734     2.4396      7.232   216.3381 1.4963e+00     8.3980      3.342      4.847    18.5408   998.5291 0.0000e+00
      3.430      0.063     4.5974     69.553     40.567  35.325679     2.4290      7.232   216.3004 1.4500e+00     8.3246      3.368      4.885    18.5379   998.5298 0.0000e+00
      3.443      0.048     4.5873     69.429     40.553  35.314224     2.4575      7.232   216.2261 1.4430e+00     8.1401      3.379      4.901    18.5366   998.5301 0.0000e+00
      3.448      0.033     4.5768     69.358     40.550  35.313184     2.5155      7.231   216.2142 1.4601e+00     7.9364      3.381      4.904    18.5362   998.5301 0.0000e+00
      3.450      0.021     4.5654     69.342     40.549  35.313100     2.5490      7.231   216.2428 1.4662e+00     7.8941      3.383      4.906    18.5359   998.5303 0.0000e+00
      3.452      0.012     4.5567     69.337     40.549  35.313205     2.5506      7.231   216.1416 1.4471e+00     7.9239      3.385      4.909    18.5359   998.5302 0.0000e+00
      3.453      0.008     4.5472     69.349     40.549  35.314452     2.5180      7.230   216.0227 1.4324e+00     7.9364      3.387      4.912    18.5366   998.5301 0.0000e+00
      3.456      0.007     4.5417     69.383     40.564  35.328186     2.4584      7.229   216.0102 1.4263e+00     8.0128      3.389      4.916    18.5382   998.5298 0.0000e+00
      3.458      0.008     4.5432     69.423     40.590  35.352314     2.4282      7.229   215.9900 1.4243e+00     8.0936      3.391      4.918    18.5397   998.5295 0.0000e+00
      3.459      0.010     4.5417     69.499     40.587  35.352314     2.4299      7.229   215.8648 1.4345e+00     8.1263      3.392      4.919    18.5402   998.5294 0.0000e+00
      3.461      0.013     4.5418     69.599     40.556  35.328185     2.4353      7.228   215.7872 1.4342e+00     8.1132      3.394      4.922    18.5407   998.5293 0.0000e+00
      3.464      0.016     4.5460     69.696     40.537  35.314452     2.4416      7.227   215.8264 1.4081e+00     8.0996      3.396      4.927    18.5418   998.5291 0.0000e+00
      3.469      0.019     4.5458     69.817     40.533  35.313207     2.4450      7.227   215.8227 1.3709e+00     8.1572      3.401      4.933    18.5438   998.5288 0.0000e+00
      3.476      0.021     4.5515     69.951     40.529  35.313138     2.4422      7.225   215.6555 1.3378e+00     8.1877      3.408      4.943    18.5467   998.5283 0.0000e+00
      3.483      0.021     4.5593     70.046     40.525  35.313625     2.4430      7.223   215.4399 1.3167e+00     8.1400      3.416      4.954    18.5503   998.5276 0.0000e+00
      3.488      0.021     4.5633     70.121     40.529  35.319097     2.5149      7.223   215.3671 1.3033e+00     8.0398      3.422      4.963    18.5541   998.5269 0.0000e+00
      3.493      0.020     4.5711     70.189     40.596  35.379303     2.6525      7.222   215.3772 1.2875e+00     7.9267      3.426      4.970    18.5569   998.5264 0.0000e+00
      3.497      0.019     4.5824     70.238     40.701  35.470353     2.7281      7.221   215.3907 1.2623e+00     7.8870      3.429      4.973    18.5606   998.5257 0.0000e+00
      3.502      0.017     4.5864     70.282     40.698  35.467928     2.7356      7.220   215.3572 1.2241e+00     7.8867      3.433      4.979    18.5654   998.5248 0.0000e+00
      3.507      0.016     4.5903     70.313     40.633  35.413453     2.7255      7.218   215.3162 1.1950e+00     7.8245      3.440      4.989    18.5691   998.5241 0.0000e+00
      3.512      0.016     4.5966     70.318     40.595  35.382928     2.7007      7.216   215.3256 1.1781e+00     7.6930      3.445      4.996    18.5704   998.5239 0.0000e+00
      3.515      0.016     4.5974     70.254     40.559  35.352732     2.6793      7.215   215.2130 1.1522e+00     7.6395      3.447      4.999    18.5694   998.5242 0.0000e+00
      3.518      0.016     4.6027     70.128     40.500  35.302242     2.6658      7.214   215.0734 1.1176e+00     7.7030      3.450      5.004    18.5695   998.5241 0.0000e+00
      3.522      0.016     4.6025     69.976     40.475  35.280208     2.5985      7.213   215.1001 1.0773e+00     7.8379      3.454      5.010    18.5729   998.5235 0.0000e+00
      3.526      0.016     4.6053     69.816     40.543  35.340195     2.4633      7.211   215.1064 1.0381e+00     8.0252      3.459      5.014    18.5772   998.5227 0.0000e+00
      3.531      0.015     4.6004     69.722     40.603  35.392848     2.3752      7.209   215.0633 1.0083e+00     8.0993      3.462      5.021    18.5786   998.5224 0.0000e+00
      3.536      0.013     4.5899     69.687     40.622  35.409078     2.3653      7.208   215.0948 9.8564e-01     8.0457      3.468      5.030    18.5779   998.5226 0.0000e+00
      3.539      0.011     4.5823     69.662     40.622  35.409495     2.4487      7.206   215.0572 9.6586e-01     7.9339      3.472      5.035    18.5786   998.5225 0.0000e+00
      3.541      0.009     4.5669     69.642     40.607  35.397890     2.5939      7.205   214.9526 9.5116e-01     7.7647      3.473      5.037    18.5792   998.5224 0.0000e+00
      3.542      0.009     4.5625     69.662     40.601  35.395690     2.6643      7.204   214.9490 9.3599e-01     7.6708      3.473      5.037    18.5787   998.5224 0.0000e+00
      3.543      0.009     4.5617     69.739     40.584  35.382901     2.6671      7.202   215.0133 9.1916e-01     7.6830      3.474      5.038    18.5782   998.5226 0.0000e+00
      3.544      0.010     4.5600     69.821     40.569  35.370209     2.6276      7.201   215.0421 8.9836e-01     7.8478      3.476      5.041    18.5787   998.5225 0.0000e+00
      3.547      0.012     4.5576     69.903     40.566  35.369169     2.5510      7.198   215.0382 8.6129e-01     8.1549      3.478      5.045    18.5816   998.5219 0.0000e+00
      3.552      0.012     4.5569     70.018     40.566  35.370334     2.5042      7.195   215.0523 8.1804e-01     8.3159      3.483      5.051    18.5855   998.5212 0.0000e+00
      3.557      0.011     4.5648     70.127     40.582  35.384288     2.4947      7.194   215.1270 7.8221e-01     8.3189      3.489      5.060    18.5877   998.5208 0.0000e+00
      3.560      0.010     4.5698     70.186     40.612  35.410950     2.5497      7.192   215.1671 7.7190e-01     8.3220      3.493      5.065    18.5884   998.5207 0.0000e+00
      3.561      0.007     4.5730     70.216     40.644  35.438829     3.1866      7.190   215.1073 7.8544e-01     8.1242      3.493      5.065    18.5898   998.5204 0.0000e+00
      3.561      0.004     4.5821     70.224     40.677  35.467490     4.3428      7.189   215.1774 7.8879e-01     7.7302      3.493      5.065    18.5915   998.5202 0.0000e+00
      3.562      0.002     4.5910     70.205     40.718  35.503608     4.9548      7.189   215.3259 7.7612e-01     7.4911      3.494      5.066    18.5919   998.5201 0.0000e+00
      3.563      0.001     4.5931     70.181     40.780  35.558173     4.9419      7.188   215.3549 7.6573e-01     7.4282      3.495      5.068    18.5922   998.5200 0.0000e+00
      3.563      0.001     4.5951     70.152     40.850  35.619482     4.3521      7.187   215.3555 7.5739e-01     7.5602      3.494      5.068    18.5920   998.5200 0.0000e+00
      3.563      0.001     4.5966     70.070     40.914  35.673654     3.2672      7.186   215.3333 7.4751e-01     7.8421      3.494      5.068    18.5917   998.5201 0.0000e+00
      3.563      0.001     4.5938     69.945     40.952  35.705395     2.6714      7.184   215.2592 7.4020e-01     7.9519      3.495      5.069    18.5925   998.5200 0.0000e+00
      3.564      0.001     4.5922     69.875     40.930  35.685907     2.6190      7.183   215.0620 7.3818e-01     7.9052      3.496      5.070    18.5931   998.5199 0.0000e+00
      3.564      0.001     4.5921     69.868     40.865  35.628442     2.6074      7.182   214.5838 7.4754e-01     7.9651      3.495      5.069    18.5929   998.5199 0.0000e+00
      3.564      0.000     4.5877     69.878     40.812  35.581814     2.5831      7.181   214.1225 7.5185e-01     8.1191      3.495      5.069    18.5916   998.5202 0.0000e+00
      3.565 1.8628e-08     4.5749     69.904     40.794  35.566432     2.5676      7.179   214.0451 7.4185e-01     8.1611      3.496      5.070    18.5897   998.5206 0.0000e+00
      3.565 2.0490e-07     4.5711     69.901     40.797  35.569393     2.5673      7.178   214.1642 7.3560e-01     8.1135      3.496      5.071    18.5887   998.5208 0.0000e+00
      3.564 2.0490e-07     4.5731     69.861     40.779  35.554146     2.5627      7.177   214.1856 7.3556e-01     8.0351      3.495      5.069    18.5882   998.5208 0.0000e+00
      3.564 1.8628e-08     4.5717     69.851     40.726  35.509024     2.5548      7.176   214.1314 7.4211e-01     7.9338      3.495      5.069    18.5879   998.5209 0.0000e+00
      3.565 1.6960e-09     4.5759     69.860     40.679  35.468119     2.5596      7.176   214.1118 7.5286e-01     7.9051      3.496      5.070    18.5878   998.5209 0.0000e+00
      3.565 1.8220e-10     4.5766     69.830     40.648  35.440384     2.5687      7.175   214.0344 7.6059e-01     7.9166      3.496      5.070    18.5883   998.5208 0.0000e+00
      3.564 3.2471e-10     4.5701     69.789     40.633  35.427571     2.5957      7.173   213.8839 7.5509e-01     7.9100      3.495      5.069    18.5900   998.5206 0.0000e+00
      3.564 3.4191e-09     4.5702     69.784     40.648  35.440129     2.6432      7.173   213.7554 7.4329e-01     7.8900      3.495      5.069    18.5906   998.5204 0.0000e+00
      3.564 3.7597e-08     4.5738     69.813     40.675  35.465286     2.6659      7.172   213.6845 7.5412e-01     7.8717      3.496      5.070    18.5900   998.5204 0.0000e+00
      3.564 4.1356e-07     4.5703     69.864     40.687  35.477864     2.6701      7.172   213.6286 7.6893e-01     7.8861      3.496      5.071    18.5899   998.5205 0.0000e+00
      3.564      0.000     4.5655     69.909     40.672  35.465274     2.6770      7.172   213.5108 7.5967e-01     7.8995      3.496      5.070    18.5899   998.5204 0.0000e+00
      3.565      0.000     4.5666     69.917     40.643  35.440001     2.7232      7.171   213.2065 7.5272e-01     7.8368      3.496      5.070    18.5890   998.5205 0.0000e+00
      3.565      0.001     4.5679     69.930     40.628  35.426164     2.8208      7.170   212.7021 7.5583e-01     7.7510      3.496      5.070    18.5909   998.5203 0.0000e+00
      3.565      0.001     4.5715     69.964     40.626  35.424906     2.8858      7.169   211.9726 7.4654e-01     7.7465      3.496      5.070    18.5943   998.5196 0.0000e+00
      3.565      0.002     4.5765     69.994     40.624  35.424794     2.8853      7.168   210.7531 7.3860e-01     7.7498      3.496      5.071    18.5948   998.5195 0.0000e+00
      3.565      0.003     4.5746     70.045     40.621  35.424816     2.8241      7.168   209.4005 7.4221e-01     7.7574      3.497      5.071    18.5939   998.5197 0.0000e+00
      3.566      0.004     4.5750     70.121     40.619  35.425174     2.7360      7.167   208.6099 7.3828e-01     7.8398      3.497      5.072    18.5934   998.5198 0.0000e+00
      3.567      0.006     4.5789     70.168     40.620  35.429121     2.6952      7.167   208.3359 7.1072e-01     7.8939      3.497      5.072    18.5948   998.5195 0.0000e+00
      3.569      0.007     4.5796     70.227     40.667  35.472542     2.6859      7.167   208.0663 6.6818e-01     7.8869      3.499      5.075    18.5967   998.5191 0.0000e+00
      3.572      0.008     4.5811     70.306     40.777  35.569364     2.6579      7.166   207.4143 6.3939e-01     7.9517      3.503      5.081    18.5986   998.5187 0.0000e+00
      3.574      0.008     4.5901     70.343     40.864  35.647731     2.6086      7.164   206.4768 6.3315e-01     8.0550      3.506      5.085    18.6026   998.5180 0.0000e+00
      3.576      0.009     4.5896     70.374     40.871  35.658435     2.5671      7.162   205.3343 6.2755e-01     8.0536      3.507      5.088    18.6065   998.5173 0.0000e+00
      3.578      0.009     4.5920     70.417     40.839  35.635320     2.5539      7.160   203.8392 6.0671e-01     8.0333      3.509      5.090    18.6093   998.5168 0.0000e+00
      3.579      0.008     4.6021     70.446     40.821  35.622132     2.5703      7.159   202.4241 5.7543e-01     7.9405      3.510      5.090    18.6107   998.5166 0.0000e+00
      3.582      0.008     4.6005     70.445     40.826  35.625929     2.6015      7.158   201.3024 5.4122e-01     7.7181      3.513      5.095    18.6121   998.5163 0.0000e+00
      3.585      0.008     4.6023     70.382     40.816  35.617769     2.6195      7.155   200.2567 5.1638e-01     7.6061      3.516      5.099    18.6185   998.5152 0.0000e+00
      3.587      0.007     4.6057     70.267     40.781  35.586934     2.6312      7.153   199.5035 4.9731e-01     7.6671      3.517      5.101    18.6260   998.5137 0.0000e+00
      3.589      0.007     4.6064     70.161     40.762  35.570456     2.7949      7.151   199.1650 4.6971e-01     7.8663      3.520      5.104    18.6283   998.5132 0.0000e+00
      3.591      0.006     4.6087     70.124     40.808  35.608942     3.1077      7.150   199.0026 4.5296e-01     8.0805      3.522      5.107    18.6272   998.5135 0.0000e+00
      3.591      0.005     4.6036     70.126     40.883  35.671446     3.2744      7.149   198.6595 4.4447e-01     8.1268      3.522      5.108    18.6267   998.5136 0.0000e+00
      3.592      0.005     4.5950     70.100     40.908  35.691477     3.2582      7.147   197.6837 4.2328e-01     8.0987      3.524      5.110    18.6283   998.5132 0.0000e+00
      3.594      0.006     4.5858     70.075     40.875  35.660727     3.0256      7.145   195.2919 4.0928e-01     8.1673      3.526      5.114    18.6281   998.5133 0.0000e+00
      3.595      0.007     4.5841     70.103     40.826  35.616993     2.6203      7.142   192.1100 4.1718e-01     8.3007      3.526      5.114    18.6250   998.5139 0.0000e+00
      3.596      0.009     4.5885     70.186     40.815  35.606980     2.4061      7.141   189.9275 4.2210e-01     8.3683      3.526      5.114    18.6218   998.5146 0.0000e+00
      3.599      0.009     4.5843     70.262     40.811  35.603138     2.3783      7.141   188.7792 4.0176e-01     8.3617      3.529      5.118    18.6193   998.5151 0.0000e+00
      3.602      0.009     4.5821     70.277     40.774  35.570536     2.3704      7.140   187.9477 3.7258e-01     8.3514      3.531      5.122    18.6174   998.5154 0.0000e+00
      3.605      0.008     4.5836     70.266     40.731  35.530149     2.4579      7.139   187.2735 3.4185e-01     8.3749      3.536      5.128    18.6155   998.5158 0.0000e+00
      3.608      0.007     4.5906     70.251     40.698  35.495636     2.6301      7.140   186.8229 3.1608e-01     8.3841      3.541      5.134    18.6148   998.5160 0.0000e+00
      3.609      0.006     4.5984     70.232     40.675  35.470579     2.7281      7.140   186.5426 3.0852e-01     8.3317      3.540      5.135    18.6155   998.5158 0.0000e+00
      3.610      0.004     4.5968     70.234     40.691  35.481064     2.7396      7.138   186.2080 3.1184e-01     8.2982      3.540      5.134    18.6157   998.5157 0.0000e+00
      3.610      0.002     4.5959     70.239     40.784  35.558928     2.8046      7.136   185.8743 3.1341e-01     8.4374      3.540      5.135    18.6123   998.5164 0.0000e+00
      3.611      0.000     4.5969     70.242     40.891  35.650392     2.9327      7.135   185.6061 3.0724e-01     8.7041      3.540      5.134    18.6045   998.5179 0.0000e+00
      3.611      0.000     4.5942     70.275     40.946  35.698357     3.0048      7.135   185.1151 2.9769e-01     8.8366      3.543      5.139    18.5976   998.5192 0.0000e+00
      3.611      0.000     4.5959     70.325     40.941  35.694572     3.0097      7.134   184.0676 2.9887e-01     8.7937      3.542      5.137    18.5939   998.5199 0.0000e+00
      3.610     -0.001     4.5976     70.355     40.910  35.668106     2.9745      7.133   182.6638 3.1265e-01     8.7749      3.540      5.134    18.5904   998.5206 0.0000e+00
      3.610     -0.002     4.5952     70.330     40.940  35.695710     2.9086      7.131   181.4776 3.2126e-01     8.8050      3.541      5.135    18.5875   998.5212 0.0000e+00
      3.610     -0.002     4.5994     70.262     41.030  35.774453     2.8806      7.130   180.3942 3.3054e-01     8.7985      3.541      5.136    18.5866   998.5214 0.0000e+00
      3.609     -0.001     4.6024     70.168     41.127  35.858529     2.9572      7.130   178.8575 3.4310e-01     8.7939      3.539      5.133    18.5876   998.5212 0.0000e+00
      3.607      0.002     4.6060     70.053     41.232  35.950606     3.7998      7.129   177.0079 3.4454e-01     8.8478      3.537      5.130    18.5900   998.5207 0.0000e+00
      3.607      0.004     4.6036     69.969     41.360  36.062621     5.3604      7.126   173.8609 3.2740e-01     8.9588      3.536      5.129    18.5920   998.5203 0.0000e+00
      3.608      0.007     4.5975     69.869     41.514  36.197358     6.3597      7.125   168.0820 2.9900e-01     9.0866      3.537      5.130    18.5915   998.5205 0.0000e+00
      3.612      0.009     4.5944     69.734     41.715  36.373723     8.0617      7.125   161.3410 2.7357e-01     9.8360      3.542      5.137    18.5900   998.5208 0.0000e+00
      3.616      0.011     4.5814     69.634     41.983  36.608228    25.9309      7.124   155.7675 2.5287e-01    17.9214      3.547      5.145    18.5901   998.5208 0.0000e+00
      3.619      0.011     4.5798     69.542     42.217  36.811178    58.6750      7.123   151.5420 2.3189e-01    32.6827      3.549      5.147    18.5908   998.5208 0.0000e+00
      3.622      0.010     4.5748     69.429     42.350  36.923367    76.5145      7.123   138.7300 2.0711e-01    40.7078      3.552      5.152    18.5914   998.5207 0.0000e+00
      3.624      0.008     4.5603     69.296     42.385  36.949097    78.0169      7.122   111.7630 2.0142e-01    41.4439      3.555      5.155    18.5928   998.5205 0.0000e+00
      3.625      0.007     4.5574     69.114     42.296  36.868381    76.8225      7.120    87.5627 2.1874e-01    41.3211      3.554      5.155    18.5944   998.5203 0.0000e+00
      3.627      0.007     4.5510     68.879     42.186  36.772590    62.0552      7.119    74.9899 2.2449e-01    38.6335      3.557      5.160    18.5945   998.5204 0.0000e+00
      3.629      0.006     4.5435     68.603     42.152  36.743011    34.9779      7.118    65.3170 2.0804e-01    33.6584      3.558      5.161    18.5898   998.5213 0.0000e+00
      3.631      0.005     4.5372     68.314     42.105  36.701173    20.1778      7.118    52.0016 1.7757e-01    30.9164      3.560      5.164    18.5819   998.5229 0.0000e+00
      3.633      0.004     4.5251     68.065     41.973  36.584098    18.4186      7.117    36.4285 1.5503e-01    30.0265      3.564      5.169    18.5784   998.5235 0.0000e+00
      3.633      0.003     4.5096     67.895     41.844  36.469988    13.6294      7.116    23.2047 1.6205e-01    22.6695      3.563      5.168    18.5800   998.5232 0.0000e+00
      3.633      0.003     4.4909     67.813     41.764  36.400517     5.0408      7.115    10.7612 1.7663e-01     9.2116      3.562      5.166    18.5803   998.5231 0.0000e+00
      3.633      0.003     4.4706     67.801     41.664  36.315397     0.3550      7.114    -2.9474 1.8279e-01     1.8384      3.562      5.166    18.5781   998.5235 0.0000e+00
      3.634      0.003     4.4537     67.846     41.532  36.202478    -0.0755      7.113   -15.4648 1.7952e-01     1.1290      3.563      5.168    18.5753   998.5240 0.0000e+00
      3.635      0.004     4.4424     67.946     41.429  36.114257    -0.1126      7.113   -26.2396 1.5739e-01     0.8635      3.564      5.170    18.5740   998.5242 0.0000e+00
      3.636      0.004     4.4377     68.107     41.382  36.073867    -0.1108      7.112   -35.0537 1.3503e-01     0.4643      3.566      5.172    18.5743   998.5241 0.0000e+00
      3.638      0.004     4.4371     68.297     41.335  36.031487    -0.1141      7.111   -40.9006 1.2631e-01     0.2350      3.567      5.175    18.5755   998.5238 0.0000e+00
      3.640      0.003     4.4399     68.474     41.280  35.982668    -0.1267      7.110   -45.2242 1.2391e-01     0.1888      3.569      5.177    18.5792   998.5231 0.0000e+00
      3.640      0.002     4.4453     68.631     41.290  35.991372    -0.1341      7.110   -49.1282 1.2374e-01     0.0698      3.570      5.177    18.5827   998.5224 0.0000e+00
      3.639      0.001     4.4571     68.764     41.385  36.073256    -0.1252      7.109   -52.1394 1.2373e-01    -0.1229      3.569      5.176    18.5821   998.5225 0.0000e+00
      3.639      0.000     4.4712     68.881     41.472  36.147590    -0.1140      7.108   -54.4444 1.2367e-01    -0.2402      3.569      5.176    18.5798   998.5230 0.0000e+00
      3.639 3.2774e-09     4.4822     68.975     41.452  36.128469    -0.1120      7.107   -56.7787 1.2367e-01    -0.2682      3.568      5.176    18.5787   998.5232 0.0000e+00
      3.639 3.6052e-08     4.4934     69.032     41.343  36.032471    -0.1085      7.106   -59.2836 1.2372e-01    -0.2641      3.568      5.176    18.5788   998.5231 0.0000e+00
      3.639 3.9657e-07     4.5012     69.086     41.235  35.938967    -0.0987      7.106   -61.7578 1.2369e-01    -0.2565      3.569      5.176    18.5785   998.5232 0.0000e+00
      3.639      0.000     4.5091     69.142     41.174  35.886531    -0.0971      7.106   -64.2381 1.2365e-01    -0.2739      3.568      5.175    18.5766   998.5236 0.0000e+00
      3.639      0.000     4.5171     69.184     41.123  35.842766    -0.1062      7.105   -66.5589 1.2366e-01    -0.2775      3.569      5.176    18.5742   998.5241 0.0000e+00
      3.639      0.001     4.5187     69.214     41.062  35.790632    -0.1133      7.103   -68.4803 1.2368e-01    -0.2674      3.569      5.176    18.5728   998.5243 0.0000e+00
      3.639      0.001     4.5223     69.215     41.032  35.763947    -0.1141      7.102   -70.2615 1.2368e-01    -0.3164      3.568      5.175    18.5731   998.5242 0.0000e+00
      3.639      0.002     4.5272     69.211     41.044  35.774008    -0.1151      7.101   -73.3822 1.2369e-01    -0.3784      3.569      5.176    18.5746   998.5239 0.0000e+00
      3.640      0.002     4.5280     69.218     41.057  35.785339    -0.1174      7.100   -75.5830 1.2372e-01    -0.3944      3.569      5.177    18.5760   998.5236 0.0000e+00
      3.641 -9.990e-29     4.5323 -9.990e-29 -9.990e-29 -9.990e-29 -9.990e-29 -9.990e-29 -9.990e-29 1.2376e-01 -9.990e-29      3.571      5.179    18.5765   998.5235 0.0000e+00
      3.643 -9.990e-29     4.5309 -9.990e-29 -9.990e-29 -9.990e-29 -9.990e-29 -9.990e-29 -9.990e-29 1.2378e-01 -9.990e-29      3.572      5.181    18.5770   998.5234 0.0000e+00
      3.644 -9.990e-29     4.5292 -9.990e-29 -9.990e-29 -9.990e-29 -9.990e-29 -9.990e-29 -9.990e-29 1.2378e-01 -9.990e-29      3.573      5.182    18.5767   998.5234 0.0000e+00
      3.644 -9.990e-29     4.5329 -9.990e-29 -9.990e-29 -9.990e-29 -9.990e-29 -9.990e-29 -9.990e-29 1.2378e-01 -9.990e-29      3.574      5.183    18.5760   998.5236 0.0000e+00
