* Sea-Bird SBE19plus  Data File:
* FileName = C:\R\Reservoirs\Data\DataNotYetUploadedToEDI\Raw_CTD\RawDownloads\101325_fcr50_S7809_0005.hex
* Software version 2.8.0.119
* Temperature SN = 7809
* Conductivity SN = 7809
* System UpLoad Time = Oct 16 2025 15:05:09
* <ApplicationData>
* <Seaterm232>
* <SoftwareVersion>2.8.0.119</SoftwareVersion>
* <BuildDate>07-Nov-2018</BuildDate>
* </Seaterm232>
* </ApplicationData>
* <InstrumentState>
* <HardwareData DeviceType='SBE19plus' SerialNumber='01907809'>
*
*    <Manufacturer>Sea-Bird Electronics, Inc.</Manufacturer>
*
*    <FirmwareVersion>3.1.8</FirmwareVersion>
*
*    <FirmwareDate>Mar  9 2016 16:22:29</FirmwareDate>
*
*    <CommandSetVersion>1.4</CommandSetVersion>
*
*    <PCBAssembly PCBSerialNum='120721' AssemblyNum='41054J'/>
*
*    <PCBAssembly PCBSerialNum='120715' AssemblyNum='41967A'/>
*
*    <PCBAssembly PCBSerialNum='116699' AssemblyNum='41606'/>
*
*    <PCBAssembly PCBSerialNum='120719' AssemblyNum='41059D'/>
*
*    <MfgDate>28-Apr-2017</MfgDate>
*
*    <InternalSensors>
*
*       <Sensor id='Main Temperature'>
*
*          <type>temperature0</type>
*
*          <SerialNumber>01907809</SerialNumber>
*
*       </Sensor>
*
*       <Sensor id='Main Conductivity'>
*
*          <type>conductivity-0</type>
*
*          <SerialNumber>01907809</SerialNumber>
*
*       </Sensor>
*
*       <Sensor id='Main Pressure'>
*
*          <type>strain-0</type>
*
*          <SerialNumber>10586018</SerialNumber>
*
*       </Sensor>
*
*    </InternalSensors>
*
*    <ExternalSensors>
*
*       <Sensor id='volt 0'>
*
*          <type>pH</type>
*
*          <SerialNumber>27-0363</SerialNumber>
*
*       </Sensor>
*
*       <Sensor id='volt 1'>
*
*          <type>ORP</type>
*
*          <SerialNumber>27-0363</SerialNumber>
*
*       </Sensor>
*
*       <Sensor id='volt 2'>
*
*          <type>OXY</type>
*
*          <SerialNumber>43-0434</SerialNumber>
*
*       </Sensor>
*
*       <Sensor id='volt 3'>
*
*          <type>PAR</type>
*
*          <SerialNumber>1122</SerialNumber>
*
*       </Sensor>
*
*       <Sensor id='volt 4'>
*
*          <type>ECO AFL/FL</type>
*
*          <SerialNumber>FLNTURT-2496</SerialNumber>
*
*       </Sensor>
*
*       <Sensor id='volt 5'>
*
*          <type>ECO-NTU</type>
*
*          <SerialNumber>FLNTURT-2496</SerialNumber>
*
*       </Sensor>
*
*       <Sensor id='serial'>
*
*          <type>not assigned</type>
*
*          <SerialNumber>not assigned</SerialNumber>
*
*       </Sensor>
*
*    </ExternalSensors>
*
* </HardwareData>
* <StatusData DeviceType='SBE19plus' SerialNumber='01907809'>
*
*    <DateTime>2025-10-16T15:01:11</DateTime>
*
*    <LoggingState>not logging</LoggingState>
*
*    <EventSummary numEvents='0'/>
*
*    <Power>
*
*       <vMain>12.0</vMain>
*
*       <vLith>8.2</vLith>
*
*       <iMain>63.0</iMain>
*
*       <iPump>196.5</iPump>
*
*       <iExt01>21.6</iExt01>
*
*       <iExt2345>40.9</iExt2345>
*
*    </Power>
*
*    <MemorySummary>
*
*       <Bytes>189290</Bytes>
*
*       <Samples>8230</Samples>
*
*       <SamplesFree>2852558</SamplesFree>
*
*       <SampleLength>23</SampleLength>
*
*       <Profiles>5</Profiles>
*
*    </MemorySummary>
*
* </StatusData>
* <ConfigurationData DeviceType='SBE19plus' SerialNumber='01907809'>
*
*    <ProfileMode>
*
*       <ScansToAverage>1</ScansToAverage>
*
*       <MinimumCondFreq>0</MinimumCondFreq>
*
*       <PumpDelay>45</PumpDelay>
*
*       <AutoRun>no</AutoRun>
*
*       <IgnoreSwitch>no</IgnoreSwitch>
*
*    </ProfileMode>
*
*    <Battery>
*
*       <Type>alkaline</Type>
*
*       <CutOff>7.5</CutOff>
*
*    </Battery>
*
*    <DataChannels>
*
*       <ExtVolt0>yes</ExtVolt0>
*
*       <ExtVolt1>yes</ExtVolt1>
*
*       <ExtVolt2>yes</ExtVolt2>
*
*       <ExtVolt3>yes</ExtVolt3>
*
*       <ExtVolt4>yes</ExtVolt4>
*
*       <ExtVolt5>yes</ExtVolt5>
*
*       <SBE38>no</SBE38>
*
*       <WETLABS>no</WETLABS>
*
*       <OPTODE>no</OPTODE>
*
*       <SBE63>no</SBE63>
*
*       <SeaFET>no</SeaFET>
*
*       <GTD>no</GTD>
*
*    </DataChannels>
*
*    <EchoCharacters>yes</EchoCharacters>
*
*    <OutputExecutedTag>yes</OutputExecutedTag>
*
*    <OutputFormat>raw HEX</OutputFormat>
*
* </ConfigurationData>
* <CalibrationCoefficients DeviceType='SBE19plus' SerialNumber='01907809'>
*
*    <Calibration format='TEMP1' id='Main Temperature'>
*
*       <SerialNum>01907809</SerialNum>
*
*       <CalDate>31-Jan-23</CalDate>
*
*       <TA0>1.218232e-03</TA0>
*
*       <TA1>2.815090e-04</TA1>
*
*       <TA2>-1.578887e-06</TA2>
*
*       <TA3>1.972343e-07</TA3>
*
*       <TOFFSET>0.000000e+00</TOFFSET>
*
*    </Calibration>
*
*    <Calibration format='WBCOND0' id='Main Conductivity'>
*
*       <SerialNum>01907809</SerialNum>
*
*       <CalDate>31-Jan-23</CalDate>
*
*       <G>-1.005652e+00</G>
*
*       <H>1.267963e-01</H>
*
*       <I>-1.561708e-04</I>
*
*       <J>2.645944e-05</J>
*
*       <CPCOR>-9.570000e-08</CPCOR>
*
*       <CTCOR>3.250000e-06</CTCOR>
*
*       <CSLOPE>1.000000e+00</CSLOPE>
*
*    </Calibration>
*
*    <Calibration format='STRAIN0' id='Main Pressure'>
*
*       <SerialNum>10586018</SerialNum>
*
*       <CalDate>20-Jan-23</CalDate>
*
*       <PA0>4.416439e-02</PA0>
*
*       <PA1>4.850502e-04</PA1>
*
*       <PA2>-3.090426e-12</PA2>
*
*       <PTCA0>5.254757e+05</PTCA0>
*
*       <PTCA1>1.050255e+01</PTCA1>
*
*       <PTCA2>-2.922435e-01</PTCA2>
*
*       <PTCB0>2.516687e+01</PTCB0>
*
*       <PTCB1>3.750000e-04</PTCB1>
*
*       <PTCB2>0.000000e+00</PTCB2>
*
*       <PTEMPA0>-5.470820e+01</PTEMPA0>
*
*       <PTEMPA1>5.485421e+01</PTEMPA1>
*
*       <PTEMPA2>-3.446578e-01</PTEMPA2>
*
*       <POFFSET>8.500000e-01</POFFSET>
*
*       <PRANGE>1.600000e+02</PRANGE>
*
*    </Calibration>
*
*    <Calibration format='VOLT0' id='Volt 0'>
*
*       <OFFSET>-4.920000e-02</OFFSET>
*
*       <SLOPE>1.248122e+00</SLOPE>
*
*    </Calibration>
*
*    <Calibration format='VOLT0' id='Volt 1'>
*
*       <OFFSET>-4.784000e-02</OFFSET>
*
*       <SLOPE>1.248871e+00</SLOPE>
*
*    </Calibration>
*
*    <Calibration format='VOLT0' id='Volt 2'>
*
*       <OFFSET>-4.864632e-02</OFFSET>
*
*       <SLOPE>1.248714e+00</SLOPE>
*
*    </Calibration>
*
*    <Calibration format='VOLT0' id='Volt 3'>
*
*       <OFFSET>-4.743790e-02</OFFSET>
*
*       <SLOPE>1.248571e+00</SLOPE>
*
*    </Calibration>
*
*    <Calibration format='VOLT0' id='Volt 4'>
*
*       <OFFSET>-4.671263e-02</OFFSET>
*
*       <SLOPE>1.248951e+00</SLOPE>
*
*    </Calibration>
*
*    <Calibration format='VOLT0' id='Volt 5'>
*
*       <OFFSET>-4.871053e-02</OFFSET>
*
*       <SLOPE>1.249136e+00</SLOPE>
*
*    </Calibration>
*
*    <Calibration format='FREQ0' id='external frequency channel'>
*
*       <EXTFREQSF>1.000014e+00</EXTFREQSF>
*
*    </Calibration>
*
* </CalibrationCoefficients>
* <EventCounters DeviceType='SBE19plus' SerialNumber='01907809'>
*
*    <EventSummary numEvents='0'/>
*
* </EventCounters></InstrumentState>
* <Headers>
*
* cast   5 13 Oct 2025 13:27:22 samples 6889 to 8230, avg = 1, stop = mag switch
*
# nquan = 15
# nvalues = 1015                        
# units = specified
# name 0 = depFM: Depth [fresh water, m]
# name 1 = dz/dtM: Descent Rate [m/s]
# name 2 = sbeox0Mg/L: Oxygen, SBE 43 [mg/l]
# name 3 = sbeox0PS: Oxygen, SBE 43 [% saturation]
# name 4 = specc: Specific Conductance [uS/cm]
# name 5 = c0uS/cm: Conductivity [uS/cm]
# name 6 = flECO-AFL: Fluorescence, WET Labs ECO-AFL/FL [mg/m^3]
# name 7 = ph: pH
# name 8 = orp: Oxidation Reduction Potential [mV]
# name 9 = par/sat/log: PAR/Logarithmic, Satlantic
# name 10 = turbWETntu0: Turbidity, WET Labs ECO [NTU]
# name 11 = prdM: Pressure, Strain Gauge [db]
# name 12 = prdE: Pressure, Strain Gauge [psi]
# name 13 = tv290C: Temperature [ITS-90, deg C]
# name 14 = flag:  0.000e+00
# span 0 =     -0.676,      5.620       
# span 1 =     -0.198,      0.333       
# span 2 =     0.2110,     9.4356       
# span 3 =      2.178,     98.899       
# span 4 =      1.223,     69.173       
# span 5 =   1.027578,  56.934372       
# span 6 =    -1.0256,     2.2946       
# span 7 =      8.468,      9.192       
# span 8 =  -149.1663,   151.6393       
# span 9 = 1.2366e-01, 1.8714e+03       
# span 10 =     1.2064,    39.3777      
# span 11 =     -0.664,      5.512      
# span 12 =     -0.962,      7.995      
# span 13 =    13.1423,    17.7028      
# span 14 = 0.0000e+00, 0.0000e+00      
# interval = seconds: 0.25
# start_time = Oct 13 2025 13:27:22 [Instrument's time stamp, header]
# bad_flag = -9.990e-29
# <Sensors count="9" >
#   <sensor Channel="1" >
#     <!-- Count, Temperature -->
#     <TemperatureSensor SensorID="58" >
#       <SerialNumber>7809</SerialNumber>
#       <CalibrationDate>31-Jan-23</CalibrationDate>
#       <A0>1.21823180e-003</A0>
#       <A1>2.81508993e-004</A1>
#       <A2>-1.57888696e-006</A2>
#       <A3>1.97234302e-007</A3>
#       <Slope>1.00000000</Slope>
#       <Offset>0.0000</Offset>
#     </TemperatureSensor>
#   </sensor>
#   <sensor Channel="2" >
#     <!-- Frequency 0, Conductivity -->
#     <ConductivitySensor SensorID="3" >
#       <SerialNumber>7809</SerialNumber>
#       <CalibrationDate>31-Jan-23</CalibrationDate>
#       <UseG_J>1</UseG_J>
#       <!-- Cell const and series R are applicable only for wide range sensors. -->
#       <SeriesR>0.0000</SeriesR>
#       <CellConst>2000.0000</CellConst>
#       <ConductivityType>0</ConductivityType>
#       <Coefficients equation="0" >
#         <A>0.00000000e+000</A>
#         <B>0.00000000e+000</B>
#         <C>0.00000000e+000</C>
#         <D>0.00000000e+000</D>
#         <M>0.0</M>
#         <CPcor>-9.57000000e-008</CPcor>
#       </Coefficients>
#       <Coefficients equation="1" >
#         <G>-1.00565232e+000</G>
#         <H>1.26796307e-001</H>
#         <I>-1.56170788e-004</I>
#         <J>2.64594368e-005</J>
#         <CPcor>-9.57000000e-008</CPcor>
#         <CTcor>3.2500e-006</CTcor>
#         <!-- WBOTC not applicable unless ConductivityType = 1. -->
#         <WBOTC>0.00000000e+000</WBOTC>
#       </Coefficients>
#       <Slope>1.00000000</Slope>
#       <Offset>0.00000</Offset>
#     </ConductivitySensor>
#   </sensor>
#   <sensor Channel="3" >
#     <!-- Count, Pressure, Strain Gauge -->
#     <PressureSensor SensorID="46" >
#       <SerialNumber>7809</SerialNumber>
#       <CalibrationDate>20-Jan-23</CalibrationDate>
#       <PA0>4.41643944e-002</PA0>
#       <PA1>4.85050239e-004</PA1>
#       <PA2>-3.09042623e-012</PA2>
#       <PTEMPA0>-5.47081996e+001</PTEMPA0>
#       <PTEMPA1>5.48542136e+001</PTEMPA1>
#       <PTEMPA2>-3.44657813e-001</PTEMPA2>
#       <PTCA0>5.25475731e+005</PTCA0>
#       <PTCA1>1.05025484e+001</PTCA1>
#       <PTCA2>-2.92243463e-001</PTCA2>
#       <PTCB0>2.51668750e+001</PTCB0>
#       <PTCB1>3.75000000e-004</PTCB1>
#       <PTCB2>0.00000000e+000</PTCB2>
#       <Offset>0.000000</Offset>
#     </PressureSensor>
#   </sensor>
#   <sensor Channel="4" >
#     <!-- A/D voltage 0, Oxygen, SBE 43 -->
#     <OxygenSensor SensorID="38" >
#       <SerialNumber>0434</SerialNumber>
#       <CalibrationDate>18-Feb-23</CalibrationDate>
#       <Use2007Equation>1</Use2007Equation>
#       <CalibrationCoefficients equation="0" >
#         <!-- Coefficients for Owens-Millard equation. -->
#         <Boc>0.0000</Boc>
#         <Soc>0.0000e+000</Soc>
#         <offset>0.0000</offset>
#         <Pcor>0.00e+000</Pcor>
#         <Tcor>0.0000</Tcor>
#         <Tau>0.0</Tau>
#       </CalibrationCoefficients>
#       <CalibrationCoefficients equation="1" >
#         <!-- Coefficients for Sea-Bird equation - SBE calibration in 2007 and later. -->
#         <Soc>5.1878e-001</Soc>
#         <offset>-0.5046</offset>
#         <A>-4.2788e-003</A>
#         <B> 1.5372e-004</B>
#         <C>-2.1853e-006</C>
#         <D0> 2.5826e+000</D0>
#         <D1> 1.92634e-004</D1>
#         <D2>-4.64803e-002</D2>
#         <E> 3.6000e-002</E>
#         <Tau20> 0.9900</Tau20>
#         <H1>-3.3000e-002</H1>
#         <H2> 5.0000e+003</H2>
#         <H3> 1.4500e+003</H3>
#       </CalibrationCoefficients>
#     </OxygenSensor>
#   </sensor>
#   <sensor Channel="5" >
#     <!-- A/D voltage 1, PAR/Logarithmic, Satlantic -->
#     <PARLog_SatlanticSensor SensorID="76" >
#       <SerialNumber>1122</SerialNumber>
#       <CalibrationDate>08-Sep-2021</CalibrationDate>
#       <a0>9.6751e-001</a0>
#       <a1>8.0992e-001</a1>
#       <Im>1.3589e+000</Im>
#       <Multiplier>1.0000e+000</Multiplier>
#     </PARLog_SatlanticSensor>
#   </sensor>
#   <sensor Channel="6" >
#     <!-- A/D voltage 2, pH -->
#     <pH_Sensor SensorID="43" >
#       <SerialNumber>0363</SerialNumber>
#       <CalibrationDate>28-Feb-23</CalibrationDate>
#       <Slope>4.7364</Slope>
#       <Offset>2.5433</Offset>
#     </pH_Sensor>
#   </sensor>
#   <sensor Channel="7" >
#     <!-- A/D voltage 3, Oxidation Reduction Potential -->
#     <OxidationReductionPotentialSensor SensorID="41" >
#       <SerialNumber>0363</SerialNumber>
#       <CalibrationDate>28-Feb-23</CalibrationDate>
#       <B>2.499480</B>
#       <M>-0.496195</M>
#       <Offset>0.0</Offset>
#     </OxidationReductionPotentialSensor>
#   </sensor>
#   <sensor Channel="8" >
#     <!-- A/D voltage 4, Fluorometer, WET Labs ECO-AFL/FL -->
#     <FluoroWetlabECO_AFL_FL_Sensor SensorID="20" >
#       <SerialNumber>FLNTURT-2496</SerialNumber>
#       <CalibrationDate>02-Sep-2021</CalibrationDate>
#       <ScaleFactor>4.80000000e+001</ScaleFactor>
#       <!-- Dark output -->
#       <Vblank>0.0550</Vblank>
#     </FluoroWetlabECO_AFL_FL_Sensor>
#   </sensor>
#   <sensor Channel="9" >
#     <!-- A/D voltage 5, Turbidity Meter, WET Labs, ECO-NTU -->
#     <TurbidityMeter SensorID="67" >
#       <SerialNumber>FLNTURT--2496</SerialNumber>
#       <CalibrationDate>02-Sep-2021</CalibrationDate>
#       <ScaleFactor>197.000000</ScaleFactor>
#       <!-- Dark output -->
#       <DarkVoltage>0.070000</DarkVoltage>
#     </TurbidityMeter>
#   </sensor>
# </Sensors>
# datcnv_date = Dec 17 2025 16:26:24, 7.26.7.129 [datcnv_vars = 14]
# datcnv_in = C:\R\Reservoirs\Data\DataNotYetUploadedToEDI\Raw_CTD\RawDownloads\101325_fcr40_S7809005.hex C:\R\Reservoirs\Data\DataNotYetUploadedToEDI\Raw_CTD\RawDownloads\SBE19plusV2_7809_start20230701.xmlcon
# datcnv_skipover = 0
# datcnv_ox_hysteresis_correction = yes
# datcnv_ox_tau_correction = yes
# filter_date = Dec 17 2025 16:27:09, 7.26.7.129
# filter_in = C:\R\Reservoirs\Data\DataNotYetUploadedToEDI\Raw_CTD\RawDownloads\101325_fcr40_S7809005.cnv
# filter_low_pass_tc_A = 0.030
# filter_low_pass_tc_B = 0.150
# filter_low_pass_A_vars = sbeox0Mg/L prdM prdE tv290C
# filter_low_pass_B_vars = depFM dz/dtM sbeox0PS specc c0uS/cm flECO-AFL ph orp par/sat/log turbWETntu0
# alignctd_date = Dec 17 2025 16:27:40, 7.26.7.129
# alignctd_in = C:\R\Reservoirs\Data\DataNotYetUploadedToEDI\Raw_CTD\RawDownloads\101325_fcr40_S7809005.cnv
# alignctd_adv = dz/dtM 1.000, sbeox0PS 1.000, specc 1.000, c0uS/cm 1.000, flECO-AFL 1.000, ph 1.000, orp 1.000, turbWETntu0 1.000                                                                                                   
# file_type = ascii
*END*
     -0.675 7.1470e-15     8.9084     92.259      1.238   1.040438     0.6130      9.046   131.7906 5.9730e+01     1.2490     -0.662     -0.960    17.0095 0.0000e+00
     -0.675 7.8617e-14     8.9135     92.275      1.253   1.052059     0.5994      9.060   135.8122 6.4267e+01     1.3305     -0.662     -0.961    17.0084 0.0000e+00
     -0.675 8.6479e-13     8.9180     92.286      1.268   1.064529     0.5709      9.067   139.6784 6.8276e+01     1.4816     -0.662     -0.961    17.0074 0.0000e+00
     -0.675 9.5127e-12     8.9154     92.284      1.268   1.064530     0.3765      9.065   143.6047 6.7586e+01     1.9831     -0.662     -0.961    17.0065 0.0000e+00
     -0.675 1.0464e-10     8.9140     92.278      1.253   1.052070     0.0310      9.055   148.2667 6.9231e+01     2.8848     -0.663     -0.961    17.0054 0.0000e+00
     -0.675 1.1510e-09     8.9176     92.274      1.239   1.040552    -0.1449      9.038   151.5642 7.6921e+01     3.4339     -0.662     -0.961    17.0044 0.0000e+00
     -0.675 1.2661e-08     8.9191     92.285      1.252   1.051957    -0.1439      9.025   151.6393 8.9921e+01     3.4994     -0.662     -0.961    17.0033 0.0000e+00
     -0.675 1.3928e-07     8.9180     92.307      1.266   1.063281    -0.1733      9.021   144.3569 1.1343e+02     2.9244     -0.663     -0.961    17.0022 0.0000e+00
     -0.675      0.000     8.9187     92.332      1.251   1.050788    -0.2672      9.019   131.0544 1.4159e+02     1.8109     -0.662     -0.961    17.0012 0.0000e+00
     -0.675      0.000     8.9165     92.335      1.223   1.027578    -0.3388      9.019   117.3627 1.5925e+02     1.2064     -0.662     -0.961    17.0004 0.0000e+00
     -0.675      0.000     8.9191     92.307      1.233   1.036024    -0.3563      9.025    96.2556 1.7354e+02     1.3543     -0.662     -0.960    16.9989 0.0000e+00
     -0.675      0.002     8.9207     92.270      1.673   1.406271    -0.5201      9.048    35.8841 2.8115e+02     3.2914     -0.662     -0.961    16.9985 0.0000e+00
     -0.676      0.012     8.9250     92.259      6.693   5.630882    -0.8542      9.094   -35.0886 4.9580e+02     6.7622     -0.662     -0.960    16.9971 0.0000e+00
     -0.676      0.042     8.9259     92.290     19.722  16.630822    -1.0256      9.139   -47.0556 6.7848e+02     8.6819     -0.663     -0.962    16.9979 0.0000e+00
     -0.675      0.089     8.9216     92.285     33.166  28.050935    -0.9699      9.163   -32.6637 9.1586e+02     8.8081     -0.662     -0.961    16.9952 0.0000e+00
     -0.669      0.145     8.9180     92.239     39.057  33.141176    -0.4795      9.177   -30.8332 1.3059e+03     7.5029     -0.664     -0.962    16.9975 0.0000e+00
     -0.633      0.204     8.9143     92.289     40.004  34.036342     0.3925      9.186   -29.4822 1.6264e+03     5.0269     -0.644     -0.934    16.9912 0.0000e+00
     -0.552      0.261     8.9128     92.498     40.029  34.116257     0.8669      9.189   -23.5558 1.7299e+03     3.6701     -0.547     -0.793    17.0461 0.0000e+00
     -0.452      0.307     8.8766     92.876     39.907  34.044038     0.9208      9.191   -18.1148 1.7422e+03     3.6007     -0.433     -0.628    17.2459 0.0000e+00
     -0.362      0.333     8.8274     93.446     39.823  33.987978     1.0022      9.192   -24.0963 1.8189e+03     3.7097     -0.356     -0.518    17.4397 0.0000e+00
     -0.273      0.332     8.8117     94.182     39.842  34.009453     1.1190      9.191   -33.8423 1.8714e+03     3.7239     -0.271     -0.394    17.5509 0.0000e+00
     -0.179      0.307     8.8193     95.031     39.888  34.049913     1.1666      9.191   -38.7287 1.4406e+03     3.7042     -0.171     -0.248    17.6220 0.0000e+00
     -0.095      0.271     8.8461     95.924     39.944  34.096514     1.1619      9.192   -41.5343 6.1542e+02     3.7111     -0.085     -0.124    17.6575 0.0000e+00
     -0.029      0.231     8.8997     96.760     39.985  34.128781     1.1538      9.192   -44.4477 1.5297e+02     3.6356     -0.025     -0.036    17.6727 0.0000e+00
      0.022      0.189     8.9706     97.466     39.980  34.122822     1.1601      9.192   -47.9709 8.8913e+01     3.6113      0.027      0.038    17.6782 0.0000e+00
      0.059      0.149     9.0530     98.026     39.940  34.087907     1.1890      9.191   -51.3524 7.4179e+01     3.7249      0.062      0.090    17.6787 0.0000e+00
      0.084      0.117     9.1428     98.420     39.866  34.023847     1.2034      9.188   -53.9287 6.6244e+01     3.8822      0.083      0.120    17.6754 0.0000e+00
      0.105      0.094     9.2260     98.651     39.821  33.982725     1.2172      9.186   -55.9767 6.2066e+01     4.0092      0.104      0.151    17.6732 0.0000e+00
      0.124      0.076     9.2930     98.784     39.816  33.971377     1.2314      9.186   -57.9600 5.9350e+01     4.0996      0.122      0.177    17.6709 0.0000e+00
      0.144      0.063     9.3477     98.866     39.805  33.950071     1.2086      9.185   -59.9260 5.7700e+01     4.1216      0.142      0.205    17.6693 0.0000e+00
      0.162      0.053     9.3863     98.899     39.776  33.915436     1.1741      9.183   -61.8507 5.7793e+01     4.0706      0.161      0.234    17.6683 0.0000e+00
      0.173      0.045     9.4049     98.889     39.731  33.869823     1.1646      9.183   -63.6796 5.8878e+01     4.0971      0.173      0.250    17.6674 0.0000e+00
      0.179      0.037     9.4177     98.863     39.706  33.842667     1.1683      9.182   -65.2615 6.0094e+01     4.1347      0.174      0.252    17.6587 0.0000e+00
      0.185      0.028     9.4296     98.828     39.711  33.840872     1.1438      9.181   -66.6082 6.0970e+01     4.0123      0.180      0.260    17.6407 0.0000e+00
      0.195      0.022     9.4356     98.791     39.728  33.848104     1.1009      9.181   -67.9169 6.1926e+01     3.8816      0.192      0.279    17.6268 0.0000e+00
      0.201      0.017     9.4346     98.766     39.756  33.866656     1.0832      9.181   -69.2980 6.2367e+01     3.8529      0.198      0.288    17.6183 0.0000e+00
      0.202      0.013     9.4330     98.722     39.767  33.874838     1.0963      9.180   -70.6590 6.1735e+01     3.9375      0.199      0.289    17.6131 0.0000e+00
      0.202      0.009     9.4319     98.656     39.776  33.883594     1.1267      9.179   -71.8977 6.0698e+01     4.1193      0.198      0.288    17.6062 0.0000e+00
      0.203      0.007     9.4281     98.598     39.801  33.909077     1.1334      9.179   -72.8308 5.9329e+01     4.1724      0.199      0.289    17.5948 0.0000e+00
      0.204      0.007     9.4296     98.535     39.817  33.929179     1.1104      9.178   -73.4240 5.7907e+01     4.1009      0.201      0.291    17.5883 0.0000e+00
      0.207      0.009     9.4262     98.467     39.818  33.936316     1.0993      9.177   -73.9936 5.6722e+01     4.0067      0.203      0.295    17.5870 0.0000e+00
      0.209      0.012     9.4165     98.415     39.808  33.931942     1.1065      9.176   -74.5549 5.6169e+01     3.9208      0.205      0.297    17.5881 0.0000e+00
      0.212      0.014     9.4126     98.402     39.813  33.939746     1.1227      9.177   -74.8764 5.6410e+01     3.9163      0.207      0.300    17.5936 0.0000e+00
      0.216      0.016     9.4038     98.427     39.842  33.967223     1.1210      9.177   -74.8698 5.6354e+01     3.8843      0.212      0.307    17.6030 0.0000e+00
      0.222      0.020     9.3950     98.489     39.887  34.010394     1.1020      9.176   -74.6466 5.6337e+01     3.8416      0.218      0.316    17.6114 0.0000e+00
      0.227      0.033     9.3883     98.592     39.963  34.081061     1.0929      9.175   -74.4149 5.6256e+01     3.8785      0.222      0.322    17.6155 0.0000e+00
      0.231      0.063     9.3863     98.697     40.005  34.123760     1.0937      9.176   -74.1333 5.5589e+01     3.9206      0.228      0.329    17.6184 0.0000e+00
      0.235      0.110     9.3894     98.759     39.948  34.082546     1.1127      9.178   -73.9956 5.4971e+01     3.9061      0.230      0.332    17.6229 0.0000e+00
      0.250      0.161     9.3910     98.456     39.878  34.026877     1.1312      9.178   -74.2981 5.3684e+01     3.8746      0.236      0.342    17.6288 0.0000e+00
      0.293      0.202     9.4046     97.317     39.877  34.021680     1.1842      9.177   -74.7794 5.0708e+01     3.9151      0.271      0.392    17.6356 0.0000e+00
      0.378      0.225     9.4100     95.599     39.894  34.019708     1.2951      9.176   -75.2551 4.6618e+01     3.9861      0.362      0.525    17.6452 0.0000e+00
      0.479      0.224     9.4211     94.014     39.899  34.003003     1.3655      9.176   -75.7477 4.3419e+01     4.0151      0.482      0.699    17.6546 0.0000e+00
      0.558      0.198     9.4229     92.880     39.925  34.010009     1.3778      9.175   -76.0896 4.1874e+01     3.9928      0.560      0.813    17.6630 0.0000e+00
      0.601      0.150     9.3006     92.176     39.970  34.040953     1.3685      9.175   -76.1195 4.0727e+01     3.8541      0.599      0.868    17.6613 0.0000e+00
      0.617      0.094     9.1053     91.707     39.992  34.059910     1.3616      9.174   -75.7647 3.9421e+01     3.7383      0.611      0.886    17.6354 0.0000e+00
      0.618      0.045     8.9556     90.963     39.974  34.048885     1.3778      9.173   -75.3273 3.8329e+01     3.7883      0.607      0.881    17.6037 0.0000e+00
      0.613      0.016     8.8528     89.334     39.951  34.034541     1.3724      9.171   -74.9603 3.7922e+01     3.7754      0.600      0.871    17.5844 0.0000e+00
      0.608      0.004     8.7902     86.555     39.921  34.013382     1.3214      9.170   -74.5969 3.8090e+01     3.6500      0.594      0.861    17.5756 0.0000e+00
      0.608      0.003     8.7643     82.856     39.882  33.983391     1.2771      9.169   -74.3750 3.8402e+01     3.6045      0.595      0.863    17.5770 0.0000e+00
      0.613      0.005     8.7174     78.765     39.887  33.989150     1.2860      9.168   -74.2569 3.9022e+01     3.6693      0.600      0.871    17.5847 0.0000e+00
      0.618      0.006     8.5697     74.777     39.923  34.019566     1.3210      9.167   -74.2877 3.9869e+01     3.7853      0.608      0.881    17.5922 0.0000e+00
      0.622      0.005     8.2944     71.207     39.939  34.033930     1.3347      9.166   -74.4885 4.0543e+01     3.8104      0.612      0.887    17.5975 0.0000e+00
      0.622      0.002     7.9197     68.245     39.940  34.035925     1.3267      9.165   -74.7055 4.0898e+01     3.7680      0.611      0.886    17.6010 0.0000e+00
      0.619     -0.002     7.5116     65.998     39.948  34.043697     1.3238      9.164   -74.8466 4.0765e+01     3.7517      0.607      0.881    17.6030 0.0000e+00
      0.617     -0.003     7.1219     64.448     39.971  34.064461     1.3410      9.163   -74.9047 4.0357e+01     3.7152      0.604      0.877    17.6032 0.0000e+00
      0.616     -0.002     6.7753     63.452     40.008  34.096640     1.3522      9.164   -74.8917 3.9933e+01     3.6683      0.604      0.876    17.6030 0.0000e+00
      0.615      0.001     6.4877     62.768     40.030  34.115550     1.3094      9.164   -74.6890 3.9320e+01     3.5947      0.604      0.876    17.6044 0.0000e+00
      0.615      0.009     6.2742     62.196     40.014  34.102757     1.2396      9.163   -74.4334 3.8671e+01     3.6106      0.603      0.874    17.6063 0.0000e+00
      0.617      0.021     6.1305     61.676     39.972  34.068862     1.2075      9.163   -74.3824 3.8251e+01     3.6899      0.604      0.876    17.6077 0.0000e+00
      0.621      0.035     6.0452     61.311     39.912  34.022953     1.2205      9.163   -74.3305 3.7923e+01     3.6996      0.608      0.882    17.6082 0.0000e+00
      0.628      0.046     5.9875     61.312     39.869  33.991798     1.2552      9.163   -74.1503 3.7852e+01     3.6938      0.612      0.888    17.6073 0.0000e+00
      0.644      0.055     5.9341     61.734     39.885  34.009400     1.2771      9.162   -73.9240 3.7660e+01     3.6203      0.626      0.907    17.6087 0.0000e+00
      0.669      0.062     5.8820     62.465     39.925  34.045449     1.2776      9.162   -73.7452 3.6845e+01     3.5964      0.659      0.956    17.6122 0.0000e+00
      0.691      0.068     5.8348     63.447     39.926  34.046998     1.2868      9.162   -73.7959 3.6317e+01     3.7115      0.684      0.992    17.6177 0.0000e+00
      0.703      0.071     5.8325     64.607     39.902  34.028127     1.2882      9.162   -74.0202 3.6037e+01     3.7824      0.689      0.998    17.6263 0.0000e+00
      0.715      0.069     5.8796     65.723     39.877  34.007611     1.2536      9.162   -74.2201 3.5515e+01     3.7360      0.697      1.011    17.6317 0.0000e+00
      0.735      0.064     5.9493     66.537     39.855  33.989280     1.2180      9.161   -74.3198 3.5119e+01     3.6286      0.719      1.043    17.6332 0.0000e+00
      0.758      0.057     6.0428     66.877     39.863  33.996815     1.2070      9.161   -74.3655 3.4573e+01     3.6114      0.746      1.082    17.6340 0.0000e+00
      0.777      0.048     6.1636     66.750     39.908  34.035275     1.2197      9.160   -74.4288 3.3962e+01     3.6996      0.765      1.109    17.6350 0.0000e+00
      0.789      0.034     6.2780     66.284     39.953  34.073632     1.2307      9.159   -74.4823 3.3538e+01     3.7038      0.775      1.125    17.6369 0.0000e+00
      0.794      0.019     6.3628     65.618     39.961  34.079919     1.2150      9.159   -74.3247 3.2996e+01     3.5938      0.781      1.132    17.6380 0.0000e+00
      0.793      0.007     6.3948     64.907     39.924  34.047848     1.2055      9.159   -73.8992 3.2432e+01     3.4970      0.780      1.130    17.6376 0.0000e+00
      0.789      0.000     6.3757     64.254     39.873  34.003090     1.2396      9.158   -73.4680 3.2115e+01     3.4892      0.774      1.123    17.6373 0.0000e+00
      0.784     -0.002     6.3292     63.707     39.851  33.982859     1.2950      9.158   -73.2409 3.1966e+01     3.5340      0.768      1.113    17.6375 0.0000e+00
      0.782     -0.002     6.2579     63.261     39.866  33.993560     1.3087      9.158   -73.1324 3.1978e+01     3.4925      0.765      1.110    17.6374 0.0000e+00
      0.784      0.001     6.1879     62.838     39.882  34.005595     1.2804      9.158   -73.0163 3.2270e+01     3.3635      0.768      1.114    17.6370 0.0000e+00
      0.787      0.005     6.1243     62.369     39.878  34.001481     1.2610      9.157   -72.9554 3.2568e+01     3.3748      0.772      1.119    17.6349 0.0000e+00
      0.789      0.007     6.0718     61.859     39.886  34.007258     1.2738      9.157   -72.9992 3.2638e+01     3.5606      0.774      1.122    17.6321 0.0000e+00
      0.791      0.007     6.0332     61.333     39.893  34.011999     1.3023      9.156   -73.2014 3.2645e+01     3.6975      0.777      1.126    17.6304 0.0000e+00
      0.792      0.006     5.9960     60.793     39.876  33.995350     1.3062      9.156   -73.3352 3.2786e+01     3.6979      0.778      1.128    17.6290 0.0000e+00
      0.793      0.003     5.9506     60.281     39.879  33.996296     1.2877      9.155   -73.2399 3.2958e+01     3.6671      0.777      1.127    17.6277 0.0000e+00
      0.794     -0.002     5.9003     59.843     39.913  34.023431     1.3197      9.154   -73.1677 3.3051e+01     3.7003      0.779      1.129    17.6266 0.0000e+00
      0.795     -0.006     5.8519     59.438     39.968  34.069653     1.3935      9.153   -73.0648 3.3064e+01     3.7586      0.780      1.132    17.6251 0.0000e+00
      0.795     -0.008     5.7989     59.064     40.017  34.111057     1.4222      9.153   -72.8558 3.3013e+01     3.7227      0.781      1.133    17.6229 0.0000e+00
      0.790     -0.006     5.7469     58.862     39.980  34.079926     1.4088      9.153   -72.7052 3.3110e+01     3.6419      0.777      1.127    17.6201 0.0000e+00
      0.782     -0.001     5.7084     58.923     39.900  34.010470     1.4063      9.153   -72.7072 3.3317e+01     3.6702      0.768      1.113    17.6180 0.0000e+00
      0.776      0.005     5.6723     59.264     39.856  33.969173     1.4335      9.153   -72.8801 3.3215e+01     3.7575      0.757      1.097    17.6161 0.0000e+00
      0.780      0.010     5.6283     59.886     39.856  33.961270     1.4544      9.153   -73.1605 3.2693e+01     3.8087      0.761      1.104    17.6162 0.0000e+00
      0.793      0.014     5.6061     60.669     39.884  33.978343     1.4589      9.153   -73.3444 3.2242e+01     3.7768      0.779      1.130    17.6165 0.0000e+00
      0.803      0.017     5.6134     61.445     39.895  33.985262     1.4474      9.152   -73.2974 3.1886e+01     3.6793      0.790      1.146    17.6176 0.0000e+00
      0.806      0.017     5.6434     62.153     39.890  33.981479     1.4232      9.152   -73.1944 3.1499e+01     3.6891      0.791      1.148    17.6144 0.0000e+00
      0.806      0.012     5.7093     62.738     39.906  33.996050     1.4245      9.152   -73.2176 3.1354e+01     3.7584      0.790      1.146    17.5991 0.0000e+00
      0.807      0.007     5.7941     63.104     39.951  34.034541     1.4208      9.152   -73.3197 3.1224e+01     3.6976      0.791      1.147    17.5893 0.0000e+00
      0.808      0.004     5.8673     63.209     39.988  34.066206     1.3950      9.152   -73.4827 3.1073e+01     3.6026      0.792      1.149    17.5890 0.0000e+00
      0.810      0.003     5.9365     63.061     39.983  34.061687     1.3878      9.151   -73.7255 3.1014e+01     3.5659      0.794      1.152    17.5905 0.0000e+00
      0.811      0.002     5.9968     62.684     39.961  34.043345     1.4082      9.150   -73.8465 3.0922e+01     3.5958      0.796      1.154    17.5920 0.0000e+00
      0.811      0.002     6.0328     62.159     39.950  34.034780     1.4342      9.149   -73.6549 3.0951e+01     3.7249      0.796      1.155    17.5917 0.0000e+00
      0.811      0.001     6.0416     61.551     39.935  34.021573     1.4276      9.148   -73.2153 3.1075e+01     3.7610      0.795      1.154    17.5911 0.0000e+00
      0.811      0.001     6.0286     60.956     39.923  34.010539     1.4117      9.148   -72.6613 3.1250e+01     3.6908      0.794      1.152    17.5909 0.0000e+00
      0.811      0.001     5.9877     60.500     39.946  34.028258     1.4247      9.148   -72.1184 3.1481e+01     3.6610      0.795      1.153    17.5917 0.0000e+00
      0.812      0.002     5.9359     60.127     39.968  34.045475     1.4431      9.147   -71.7278 3.1638e+01     3.6749      0.795      1.154    17.5918 0.0000e+00
      0.813      0.002     5.8775     59.791     39.949  34.028370     1.4677      9.147   -71.4660 3.1745e+01     3.7557      0.797      1.157    17.5917 0.0000e+00
      0.813      0.002     5.8099     59.525     39.931  34.011785     1.4812      9.147   -71.1901 3.1728e+01     3.7506      0.797      1.156    17.5910 0.0000e+00
      0.814      0.004     5.7740     59.299     39.960  34.035270     1.4639      9.148   -70.9741 3.1623e+01     3.6812      0.798      1.157    17.5888 0.0000e+00
      0.814      0.009     5.7406     59.094     39.988  34.058548     1.4591      9.148   -71.0045 3.1473e+01     3.7364      0.799      1.159    17.5868 0.0000e+00
      0.814      0.018     5.7039     58.934     39.966  34.039459     1.4809      9.148   -71.2130 3.1131e+01     3.8034      0.799      1.158    17.5852 0.0000e+00
      0.816      0.027     5.6827     58.820     39.914  33.994794     1.4953      9.148   -71.4313 3.0781e+01     3.7392      0.799      1.159    17.5838 0.0000e+00
      0.823      0.034     5.6612     58.737     39.876  33.962629     1.4824      9.148   -71.5793 3.0539e+01     3.6090      0.804      1.166    17.5826 0.0000e+00
      0.838      0.037     5.6403     58.651     39.882  33.967774     1.4749      9.147   -71.6256 3.0248e+01     3.5959      0.819      1.188    17.5820 0.0000e+00
      0.856      0.037     5.6250     58.489     39.913  33.993556     1.4960      9.147   -71.5610 2.9943e+01     3.7179      0.842      1.220    17.5816 0.0000e+00
      0.870      0.032     5.6152     58.204     39.945  34.020577     1.4960      9.147   -71.4005 2.9709e+01     3.7511      0.857      1.242    17.5811 0.0000e+00
      0.875      0.025     5.6073     57.833     39.970  34.040706     1.4667      9.146   -71.2327 2.9602e+01     3.6222      0.859      1.246    17.5813 0.0000e+00
      0.875      0.016     5.6027     57.453     39.978  34.046596     1.4499      9.145   -71.0809 2.9553e+01     3.5261      0.859      1.246    17.5818 0.0000e+00
      0.874      0.009     5.5894     57.138     39.958  34.028350     1.4518      9.145   -70.7704 2.9542e+01     3.5792      0.858      1.244    17.5807 0.0000e+00
      0.874      0.005     5.5605     56.921     39.938  34.010423     1.4733      9.145   -70.2305 2.9495e+01     3.7172      0.857      1.242    17.5788 0.0000e+00
      0.876      0.005     5.5224     56.775     39.951  34.020181     1.4839      9.145   -69.7156 2.9334e+01     3.7610      0.859      1.246    17.5780 0.0000e+00
      0.879      0.006     5.4833     56.614     39.951  34.019432     1.4637      9.145   -69.3631 2.9272e+01     3.6643      0.863      1.250    17.5777 0.0000e+00
      0.881      0.006     5.4523     56.404     39.931  34.001371     1.4538      9.144   -69.2384 2.9359e+01     3.6068      0.865      1.253    17.5765 0.0000e+00
      0.883      0.007     5.4323     56.172     39.921  33.992144     1.4888      9.144   -69.4127 2.9455e+01     3.6463      0.866      1.256    17.5745 0.0000e+00
      0.884      0.007     5.4227     55.927     39.897  33.971309     1.5375      9.144   -69.6642 2.9495e+01     3.6635      0.867      1.257    17.5727 0.0000e+00
      0.885      0.006     5.4092     55.694     39.860  33.939796     1.5353      9.144   -69.6973 2.9545e+01     3.6096      0.867      1.257    17.5716 0.0000e+00
      0.886      0.004     5.3863     55.495     39.848  33.928345     1.5035      9.144   -69.5545 2.9452e+01     3.5759      0.869      1.260    17.5709 0.0000e+00
      0.889      0.002     5.3653     55.285     39.886  33.959742     1.4944      9.143   -69.4867 2.9233e+01     3.5983      0.872      1.265    17.5705 0.0000e+00
      0.890      0.000     5.3410     55.067     39.936  34.002189     1.5089      9.142   -69.4802 2.9067e+01     3.6746      0.874      1.268    17.5704 0.0000e+00
      0.889     -0.001     5.3162     54.952     39.931  33.997460     1.5375      9.142   -69.3899 2.8891e+01     3.7130      0.873      1.266    17.5697 0.0000e+00
      0.887     -0.001     5.3007     54.968     39.894  33.966005     1.5403      9.142   -69.1692 2.8774e+01     3.6193      0.870      1.261    17.5686 0.0000e+00
      0.885     -0.001     5.2824     55.024     39.863  33.939088     1.5172      9.142   -68.7899 2.8722e+01     3.5653      0.868      1.258    17.5676 0.0000e+00
      0.885      0.000     5.2543     55.055     39.848  33.925785     1.5408      9.141   -68.2458 2.8707e+01     3.6410      0.867      1.257    17.5666 0.0000e+00
      0.886      0.002     5.2423     55.032     39.856  33.932052     1.5935      9.141   -67.6666 2.8700e+01     3.7486      0.869      1.260    17.5665 0.0000e+00
      0.888      0.004     5.2495     54.946     39.880  33.951422     1.6055      9.140   -67.2078 2.8659e+01     3.7726      0.871      1.264    17.5663 0.0000e+00
      0.890      0.004     5.2561     54.824     39.903  33.969650     1.5857      9.139   -66.9148 2.8657e+01     3.6929      0.873      1.266    17.5656 0.0000e+00
      0.890      0.004     5.2603     54.675     39.895  33.962104     1.5621      9.139   -66.7049 2.8670e+01     3.6733      0.873      1.267    17.5649 0.0000e+00
      0.891      0.004     5.2587     54.465     39.850  33.923633     1.5523      9.139   -66.4761 2.8659e+01     3.7403      0.874      1.268    17.5640 0.0000e+00
      0.891      0.004     5.2494     54.203     39.806  33.885161     1.5418      9.139   -66.2132 2.8704e+01     3.7177      0.874      1.268    17.5629 0.0000e+00
      0.891      0.005     5.2359     53.907     39.797  33.877606     1.5275      9.140   -65.9351 2.8634e+01     3.6052      0.873      1.267    17.5619 0.0000e+00
      0.893      0.005     5.2260     53.583     39.819  33.895739     1.5287      9.140   -65.6094 2.8372e+01     3.5414      0.875      1.270    17.5608 0.0000e+00
      0.895      0.005     5.2040     53.282     39.842  33.914071     1.5320      9.139   -65.2001 2.8147e+01     3.5956      0.878      1.273    17.5598 0.0000e+00
      0.898      0.004     5.1780     53.002     39.837  33.908917     1.5422      9.138   -64.8582 2.8008e+01     3.7136      0.881      1.278    17.5590 0.0000e+00
      0.900      0.002     5.1520     52.696     39.823  33.896871     1.5439      9.138   -64.7454 2.7874e+01     3.7380      0.883      1.281    17.5585 0.0000e+00
      0.901      0.000     5.1161     52.375     39.821  33.895312     1.5195      9.137   -64.6966 2.7691e+01     3.7203      0.884      1.283    17.5576 0.0000e+00
      0.899     -0.001     5.0889     52.089     39.816  33.890065     1.4890      9.137   -64.6121 2.7533e+01     3.7045      0.882      1.279    17.5566 0.0000e+00
      0.896     -0.001     5.0647     51.849     39.825  33.896873     1.4735      9.138   -64.4989 2.7569e+01     3.6835      0.878      1.274    17.5562 0.0000e+00
      0.894      0.000     5.0352     51.636     39.845  33.914185     1.4824      9.138   -64.1870 2.7792e+01     3.7394      0.876      1.271    17.5553 0.0000e+00
      0.894      0.003     5.0013     51.427     39.840  33.909050     1.4805      9.137   -63.8520 2.8077e+01     3.7319      0.876      1.270    17.5543 0.0000e+00
      0.897      0.006     4.9747     51.193     39.827  33.898233     1.4758      9.137   -63.7184 2.8348e+01     3.6949      0.879      1.275    17.5540 0.0000e+00
      0.901      0.007     4.9523     50.942     39.841  33.910288     1.5083      9.137   -63.7762 2.8524e+01     3.7702      0.883      1.281    17.5537 0.0000e+00
      0.905      0.006     4.9324     50.701     39.863  33.927911     1.5489      9.137   -64.0342 2.8563e+01     3.8224      0.887      1.287    17.5532 0.0000e+00
      0.906      0.005     4.9143     50.458     39.855  33.920971     1.5677      9.137   -64.3432 2.8536e+01     3.8141      0.890      1.290    17.5529 0.0000e+00
      0.906      0.003     4.8916     50.217     39.819  33.889821     1.5273      9.136   -64.6728 2.8440e+01     3.8062      0.889      1.290    17.5528 0.0000e+00
      0.905      0.001     4.8658     50.014     39.794  33.868500     1.4430      9.136   -65.0079 2.8150e+01     3.8297      0.888      1.288    17.5524 0.0000e+00
      0.904     -0.001     4.8440     49.845     39.777  33.853515     1.4145      9.137   -65.2122 2.7760e+01     3.8931      0.887      1.286    17.5516 0.0000e+00
      0.904     -0.001     4.8216     49.684     39.756  33.835521     1.4325      9.137   -65.3367 2.7425e+01     3.9581      0.887      1.286    17.5510 0.0000e+00
      0.904     -0.001     4.7951     49.490     39.764  33.841273     1.4275      9.137   -65.3087 2.7199e+01     3.9660      0.887      1.286    17.5506 0.0000e+00
      0.905      0.000     4.7778     49.258     39.786  33.859623     1.3959      9.137   -65.2176 2.6999e+01     3.8855      0.887      1.287    17.5503 0.0000e+00
      0.905      0.001     4.7614     49.046     39.796  33.867054     1.3830      9.137   -65.2670 2.6780e+01     3.8737      0.887      1.287    17.5497 0.0000e+00
      0.905      0.003     4.7482     48.876     39.797  33.867677     1.4125      9.137   -65.3897 2.6688e+01     3.9947      0.887      1.287    17.5492 0.0000e+00
      0.905      0.006     4.7307     48.710     39.796  33.867156     1.4529      9.136   -65.5830 2.6598e+01     4.0165      0.887      1.286    17.5486 0.0000e+00
      0.906      0.009     4.7049     48.519     39.788  33.860755     1.4801      9.135   -65.7978 2.6465e+01     3.8978      0.887      1.287    17.5478 0.0000e+00
      0.908      0.014     4.6841     48.323     39.779  33.853730     1.4916      9.135   -65.9218 2.6450e+01     3.8237      0.889      1.291    17.5469 0.0000e+00
      0.913      0.020     4.6698     48.173     39.769  33.845655     1.5097      9.136   -65.9623 2.6421e+01     3.8709      0.895      1.298    17.5463 0.0000e+00
      0.918      0.026     4.6557     48.085     39.745  33.826565     1.5246      9.136   -66.0295 2.6367e+01     3.9560      0.900      1.306    17.5461 0.0000e+00
      0.925      0.031     4.6361     48.023     39.729  33.813252     1.4966      9.136   -66.1326 2.6344e+01     3.9309      0.904      1.312    17.5470 0.0000e+00
      0.935      0.033     4.6152     47.944     39.727  33.811582     1.4546      9.136   -66.2626 2.6216e+01     3.8406      0.915      1.328    17.5479 0.0000e+00
      0.948      0.032     4.5997     47.828     39.722  33.806367     1.4408      9.135   -66.3968 2.6077e+01     3.8211      0.931      1.351    17.5487 0.0000e+00
      0.959      0.029     4.5934     47.695     39.731  33.813642     1.4378      9.135   -66.4643 2.6004e+01     3.8306      0.941      1.365    17.5497 0.0000e+00
      0.965      0.023     4.5886     47.567     39.758  33.836092     1.4345      9.136   -66.5627 2.5914e+01     3.8196      0.947      1.373    17.5500 0.0000e+00
      0.969      0.017     4.5822     47.429     39.819  33.887482     1.4262      9.136   -66.6402 2.5881e+01     3.8243      0.951      1.380    17.5498 0.0000e+00
      0.972      0.011     4.5703     47.317     39.941  33.990886     1.4037      9.136   -66.6269 2.5910e+01     3.8539      0.953      1.382    17.5497 0.0000e+00
      0.972      0.007     4.5556     47.476     40.041  34.071220     1.4043      9.136   -66.5745 2.5897e+01     3.9388      0.953      1.382    17.5489 0.0000e+00
      0.972      0.005     4.5459     48.598     40.086  34.097445     1.4409      9.136   -66.4366 2.5900e+01     3.9968      0.953      1.382    17.5485 0.0000e+00
      0.973      0.003     4.5311     51.435     40.127  34.117619     1.4807      9.136   -66.3366 2.5933e+01     3.9402      0.954      1.384    17.5474 0.0000e+00
      0.975      0.003     4.5170     55.938     40.149  34.124793     1.4852      9.137   -66.3972 2.5949e+01     3.8684      0.956      1.387    17.5478 0.0000e+00
      0.976      0.003     4.5076     61.306     40.154  34.120724     1.4538      9.136   -66.5673 2.5989e+01     3.8465      0.957      1.389    17.5458 0.0000e+00
      0.977      0.002     4.5781     66.654     40.171  34.131855     1.4505      9.136   -66.6729 2.6054e+01     3.8470      0.958      1.390    17.5284 0.0000e+00
      0.977      0.002     4.8567     71.351     40.173  34.132489     1.4710      9.136   -66.7266 2.6115e+01     3.7717      0.958      1.390    17.5064 0.0000e+00
      0.976      0.002     5.3229     75.035     40.168  34.128386     1.4683      9.136   -66.8730 2.6186e+01     3.6191      0.957      1.388    17.4917 0.0000e+00
      0.976      0.002     5.8682     77.473     40.188  34.145689     1.4596      9.136   -66.9796 2.6242e+01     3.5381      0.957      1.388    17.4818 0.0000e+00
      0.977      0.003     6.4017     78.551     40.196  34.151361     1.4653      9.136   -66.9832 2.6290e+01     3.6813      0.958      1.389    17.4774 0.0000e+00
      0.978      0.004     6.8613     78.432     40.178  34.133531     1.4878      9.136   -66.8298 2.6334e+01     3.9498      0.959      1.391    17.4772 0.0000e+00
      0.980      0.005     7.2208     77.549     40.167  34.120437     1.4905      9.136   -66.6747 2.6365e+01     3.9841      0.961      1.394    17.4783 0.0000e+00
      0.982      0.005     7.4604     76.379     40.171  34.119918     1.4647      9.136   -66.6559 2.6401e+01     3.8223      0.963      1.398    17.4786 0.0000e+00
      0.983      0.005     7.5585     75.269     40.183  34.127257     1.4505      9.136   -66.6030 2.6432e+01     3.7702      0.965      1.399    17.4774 0.0000e+00
      0.984      0.005     7.5300     74.362     40.207  34.145718     1.4602      9.136   -66.5519 2.6450e+01     3.8662      0.964      1.398    17.4740 0.0000e+00
      0.985      0.004     7.4302     73.650     40.217  34.152799     1.4815      9.135   -66.5536 2.6480e+01     3.9930      0.965      1.401    17.4683 0.0000e+00
      0.987      0.003     7.3063     73.112     40.214  34.149429     1.4840      9.135   -66.6237 2.6525e+01     3.9705      0.968      1.404    17.4630 0.0000e+00
      0.988      0.003     7.1962     72.727     40.237  34.168411     1.4653      9.135   -66.6262 2.6548e+01     3.8331      0.969      1.406    17.4606 0.0000e+00
      0.988      0.003     7.1117     72.440     40.266  34.191964     1.4545      9.135   -66.4113 2.6586e+01     3.7319      0.969      1.406    17.4591 0.0000e+00
      0.988      0.002     7.0444     72.226     40.254  34.180424     1.4619      9.135   -66.0900 2.6636e+01     3.7038      0.969      1.405    17.4570 0.0000e+00
      0.988      0.002     6.9929     72.077     40.227  34.155769     1.4717      9.135   -65.7519 2.6649e+01     3.7672      0.969      1.405    17.4553 0.0000e+00
      0.989      0.002     6.9594     71.957     40.222  34.147652     1.4642      9.134   -65.3348 2.6634e+01     3.7804      0.970      1.406    17.4548 0.0000e+00
      0.990      0.001     6.9324     71.828     40.224  34.145719     1.4383      9.134   -64.7469 2.6606e+01     3.7267      0.971      1.408    17.4545 0.0000e+00
      0.990      0.001     6.9114     71.700     40.210  34.132391     1.4173      9.134   -64.0634 2.6616e+01     3.7674      0.971      1.409    17.4523 0.0000e+00
      0.991      0.000     6.9000     71.594     40.189  34.113405     1.4176      9.134   -63.4381 2.6656e+01     3.8283      0.972      1.410    17.4498 0.0000e+00
      0.991 4.1319e-07     6.8898     71.484     40.182  34.106483     1.4251      9.135   -62.9512 2.6675e+01     3.8135      0.972      1.409    17.4457 0.0000e+00
      0.990      0.000     6.8788     71.376     40.189  34.112145     1.4339      9.135   -62.4785 2.6706e+01     3.7937      0.971      1.408    17.4400 0.0000e+00
      0.989      0.000     6.8640     71.306     40.197  34.118423     1.4569      9.134   -62.0250 2.6745e+01     3.8621      0.970      1.407    17.4375 0.0000e+00
      0.989      0.001     6.8570     71.261     40.198  34.118943     1.4874      9.134   -61.6843 2.6765e+01     3.9578      0.970      1.407    17.4371 0.0000e+00
      0.989      0.001     6.8463     71.225     40.198  34.118424     1.4862      9.134   -61.2848 2.6793e+01     3.9250      0.970      1.407    17.4361 0.0000e+00
      0.990      0.002     6.8326     71.196     40.193  34.112146     1.4585      9.134   -60.8942 2.6791e+01     3.7736      0.971      1.409    17.4351 0.0000e+00
      0.991      0.002     6.8290     71.184     40.187  34.106482     1.4443      9.134   -60.6608 2.6762e+01     3.6308      0.972      1.410    17.4345 0.0000e+00
      0.992      0.002     6.8239     71.189     40.195  34.113394     1.4560      9.133   -60.4410 2.6786e+01     3.6328      0.973      1.411    17.4345 0.0000e+00
      0.993      0.001     6.8214     71.191     40.216  34.132266     1.4834      9.133   -60.2151 2.6778e+01     3.7638      0.974      1.412    17.4335 0.0000e+00
      0.993      0.000     6.8181     71.181     40.230  34.144330     1.4843      9.133   -60.0814 2.6733e+01     3.8142      0.974      1.412    17.4311 0.0000e+00
      0.992      0.000     6.8169     71.174     40.215  34.132368     1.4583      9.133   -59.9434 2.6740e+01     3.7289      0.974      1.412    17.4297 0.0000e+00
      0.991      0.001     6.8185     71.167     40.193  34.114527     1.4443      9.132   -59.7504 2.6732e+01     3.6548      0.972      1.410    17.4307 0.0000e+00
      0.991      0.002     6.8188     71.155     40.197  34.118942     1.4563      9.132   -59.5549 2.6697e+01     3.6704      0.971      1.409    17.4320 0.0000e+00
      0.992      0.003     6.8169     71.162     40.201  34.122308     1.4780      9.132   -59.3006 2.6656e+01     3.6785      0.972      1.409    17.4319 0.0000e+00
      0.993      0.003     6.8161     71.189     40.166  34.091787     1.4730      9.132   -58.9990 2.6621e+01     3.6505      0.974      1.412    17.4328 0.0000e+00
      0.996      0.002     6.8164     71.212     40.137  34.067138     1.4466      9.132   -58.7478 2.6607e+01     3.7414      0.977      1.417    17.4350 0.0000e+00
      0.997      0.001     6.8131     71.238     40.152  34.078058     1.4426      9.132   -58.5856 2.6596e+01     3.8891      0.979      1.419    17.4361 0.0000e+00
      0.996      0.000     6.8138     71.270     40.177  34.096930     1.4660      9.133   -58.5010 2.6617e+01     3.9681      0.977      1.417    17.4353 0.0000e+00
      0.994      0.000     6.8182     71.288     40.189  34.104976     1.4790      9.134   -58.4128 2.6635e+01     3.9788      0.975      1.414    17.4351 0.0000e+00
      0.994      0.001     6.8198     71.303     40.199  34.111901     1.4680      9.133   -58.2935 2.6589e+01     3.9499      0.974      1.412    17.4352 0.0000e+00
      0.994      0.002     6.8213     71.298     40.207  34.117205     1.4490      9.131   -58.0917 2.6529e+01     3.9608      0.974      1.413    17.4334 0.0000e+00
      0.995      0.003     6.8276     71.259     40.193  34.105661     1.4571      9.131   -57.7787 2.6496e+01     4.0076      0.976      1.415    17.4298 0.0000e+00
      0.997      0.003     6.8275     71.208     40.185  34.099213     1.4906      9.132   -57.5211 2.6438e+01     4.0373      0.978      1.419    17.4264 0.0000e+00
      0.999      0.002     6.8305     71.146     40.188  34.102688     1.5046      9.132   -57.3864 2.6416e+01     4.0127      0.980      1.422    17.4242 0.0000e+00
      0.999      0.002     6.8317     71.070     40.166  34.084231     1.4844      9.132   -57.3540 2.6438e+01     3.9157      0.980      1.422    17.4232 0.0000e+00
      0.998      0.002     6.8255     71.019     40.146  34.066390     1.4539      9.131   -57.3878 2.6406e+01     3.8552      0.979      1.420    17.4230 0.0000e+00
      0.998      0.003     6.8211     71.006     40.160  34.077300     1.4616      9.131   -57.3644 2.6388e+01     3.9287      0.978      1.418    17.4237 0.0000e+00
      0.998      0.004     6.8162     71.003     40.175  34.089259     1.4857      9.131   -57.2431 2.6407e+01     3.9515      0.978      1.418    17.4246 0.0000e+00
      1.000      0.005     6.8064     71.012     40.171  34.084097     1.4790      9.131   -57.1261 2.6369e+01     3.8580      0.980      1.421    17.4251 0.0000e+00
      1.003      0.006     6.8005     71.033     40.166  34.078329     1.4637      9.130   -56.9820 2.6304e+01     3.8221      0.983      1.427    17.4245 0.0000e+00
      1.005      0.008     6.8024     71.074     40.172  34.082962     1.4592      9.130   -56.7916 2.6258e+01     3.8931      0.986      1.429    17.4229 0.0000e+00
      1.006      0.012     6.8009     71.142     40.164  34.076675     1.4660      9.130   -56.7168 2.6214e+01     3.9995      0.987      1.430    17.4218 0.0000e+00
      1.006      0.018     6.8023     71.191     40.152  34.065753     1.4628      9.130   -56.7663 2.6188e+01     3.9816      0.987      1.431    17.4201 0.0000e+00
      1.009      0.023     6.8050     71.206     40.168  34.077799     1.4448      9.131   -56.7015 2.6153e+01     3.8466      0.988      1.433    17.4175 0.0000e+00
      1.016      0.027     6.8069     71.220     40.194  34.095424     1.4401      9.131   -56.5352 2.6048e+01     3.7683      0.993      1.441    17.4168 0.0000e+00
      1.027      0.028     6.8168     71.205     40.192  34.088505     1.4472      9.131   -56.5625 2.5921e+01     3.8201      1.007      1.460    17.4172 0.0000e+00
      1.041      0.025     6.8225     71.164     40.158  34.057588     1.4476      9.132   -56.7737 2.5887e+01     3.9606      1.023      1.484    17.4179 0.0000e+00
      1.050      0.016     6.8197     71.118     40.137  34.038830     1.4288      9.132   -57.0236 2.5914e+01     3.9988      1.033      1.499    17.4168 0.0000e+00
      1.052     -0.002     6.8263     71.054     40.151  34.052038     1.4030      9.131   -57.1755 2.5929e+01     3.9061      1.034      1.500    17.4098 0.0000e+00
      1.050     -0.031     6.8246     70.946     40.192  34.090404     1.4190      9.129   -56.9753 2.5949e+01     3.8308      1.030      1.494    17.4023 0.0000e+00
      1.045     -0.065     6.8199     70.803     40.221  34.122049     1.4723      9.128   -56.7539 2.6043e+01     3.8057      1.027      1.490    17.3995 0.0000e+00
      1.033     -0.094     6.8164     70.682     40.205  34.117433     1.4982      9.128   -56.9931 2.6398e+01     3.8073      1.021      1.480    17.3992 0.0000e+00
      1.002     -0.109     6.8108     70.597     40.172  34.098050     1.4817      9.128   -57.3725 2.7119e+01     3.7479      0.993      1.440    17.3994 0.0000e+00
      0.949     -0.109     6.8015     70.574     40.143  34.078045     1.4649      9.128   -57.5560 2.7923e+01     3.7016      0.931      1.350    17.4028 0.0000e+00
      0.898     -0.095     6.7812     70.619     40.129  34.065887     1.4778      9.129   -57.5769 2.8474e+01     3.7941      0.868      1.260    17.4129 0.0000e+00
      0.872     -0.070     6.7698     70.698     40.147  34.077932     1.4799      9.130   -57.7118 2.8836e+01     3.8076      0.847      1.228    17.4264 0.0000e+00
      0.868     -0.037     6.7585     70.818     40.173  34.096794     1.4653      9.130   -57.9820 2.9039e+01     3.6605      0.850      1.233    17.4376 0.0000e+00
      0.875     -0.006     6.7534     70.949     40.184  34.103602     1.4674      9.130   -58.1769 2.9029e+01     3.5864      0.856      1.242    17.4444 0.0000e+00
      0.887      0.015     6.7626     71.034     40.180  34.096799     1.4715      9.129   -58.3471 2.9022e+01     3.6628      0.871      1.262    17.4434 0.0000e+00
      0.898      0.024     6.7678     71.089     40.159  34.077985     1.4823      9.129   -58.5772 2.9045e+01     3.7650      0.883      1.280    17.4361 0.0000e+00
      0.903      0.025     6.7812     71.134     40.142  34.066451     1.4817      9.129   -58.8947 2.8887e+01     3.7634      0.886      1.285    17.4338 0.0000e+00
      0.906      0.023     6.7980     71.164     40.158  34.084235     1.4547      9.129   -59.1739 2.8655e+01     3.6772      0.888      1.288    17.4318 0.0000e+00
      0.909      0.021     6.8049     71.196     40.177  34.102685     1.4392      9.130   -59.3723 2.8403e+01     3.6117      0.891      1.293    17.4243 0.0000e+00
      0.914      0.019     6.8095     71.245     40.169  34.099195     1.4530      9.130   -59.4862 2.8039e+01     3.6537      0.896      1.299    17.4224 0.0000e+00
      0.920      0.019     6.8143     71.297     40.174  34.105482     1.4802      9.130   -59.6043 2.7748e+01     3.7416      0.902      1.308    17.4287 0.0000e+00
      0.927      0.018     6.8154     71.357     40.186  34.115260     1.4855      9.130   -59.8546 2.7569e+01     3.7173      0.910      1.319    17.4333 0.0000e+00
      0.933      0.015     6.8166     71.424     40.159  34.090526     1.4746      9.130   -60.1029 2.7451e+01     3.5988      0.915      1.327    17.4361 0.0000e+00
      0.936      0.012     6.8229     71.460     40.126  34.060204     1.4821      9.130   -60.3692 2.7489e+01     3.4707      0.918      1.331    17.4410 0.0000e+00
      0.937      0.009     6.8260     71.449     40.135  34.065867     1.5086      9.131   -60.5788 2.7604e+01     3.4323      0.919      1.333    17.4437 0.0000e+00
      0.938      0.006     6.8320     71.427     40.173  34.095556     1.5377      9.131   -60.5723 2.7745e+01     3.5107      0.919      1.333    17.4428 0.0000e+00
      0.939      0.004     6.8401     71.412     40.182  34.101940     1.5345      9.131   -60.5492 2.7999e+01     3.5647      0.921      1.335    17.4408 0.0000e+00
      0.940      0.003     6.8458     71.384     40.156  34.079596     1.5031      9.131   -60.5576 2.8335e+01     3.6071      0.922      1.337    17.4372 0.0000e+00
      0.941      0.003     6.8423     71.350     40.155  34.079180     1.5076      9.131   -60.5023 2.8690e+01     3.7157      0.923      1.338    17.4342 0.0000e+00
      0.941      0.002     6.8399     71.310     40.175  34.096918     1.5473      9.131   -60.3966 2.8992e+01     3.7845      0.923      1.339    17.4319 0.0000e+00
      0.942      0.002     6.8409     71.273     40.181  34.103726     1.5668      9.131   -60.2261 2.9222e+01     3.7218      0.924      1.340    17.4297 0.0000e+00
      0.942      0.002     6.8365     71.255     40.173  34.098054     1.5527      9.130   -60.0749 2.9355e+01     3.6059      0.924      1.340    17.4295 0.0000e+00
      0.942      0.003     6.8342     71.255     40.163  34.091775     1.5263      9.130   -59.9452 2.9376e+01     3.5797      0.924      1.340    17.4304 0.0000e+00
      0.942      0.004     6.8293     71.254     40.160  34.091264     1.5221      9.130   -59.7766 2.9332e+01     3.6427      0.924      1.340    17.4316 0.0000e+00
      0.943      0.005     6.8253     71.239     40.160  34.091878     1.5273      9.131   -59.7570 2.9221e+01     3.6510      0.925      1.341    17.4332 0.0000e+00
      0.945      0.006     6.8227     71.214     40.169  34.099206     1.5218      9.132   -59.9671 2.9136e+01     3.5773      0.926      1.345    17.4354 0.0000e+00
      0.948      0.006     6.8238     71.188     40.189  34.116414     1.5218      9.131   -60.1664 2.9096e+01     3.5375      0.928      1.348    17.4381 0.0000e+00
      0.950      0.006     6.8237     71.193     40.182  34.109609     1.5188      9.130   -60.1867 2.9085e+01     3.5793      0.931      1.352    17.4397 0.0000e+00
      0.951      0.005     6.8212     71.238     40.148  34.080364     1.5360      9.130   -60.2130 2.9140e+01     3.6731      0.933      1.353    17.4412 0.0000e+00
      0.952      0.003     6.8201     71.307     40.147  34.080043     1.5720      9.130   -60.3985 2.9169e+01     3.6815      0.933      1.353    17.4421 0.0000e+00
      0.952      0.002     6.8146     71.382     40.176  34.105730     1.5792      9.130   -60.6223 2.9266e+01     3.5778      0.934      1.355    17.4408 0.0000e+00
      0.952      0.001     6.8159     71.442     40.212  34.137168     1.5733      9.130   -60.8537 2.9501e+01     3.5130      0.934      1.354    17.4398 0.0000e+00
      0.952      0.001     6.8211     71.495     40.218  34.142927     1.5839      9.130   -61.1322 2.9787e+01     3.5807      0.934      1.354    17.4394 0.0000e+00
      0.953      0.001     6.8276     71.545     40.181  34.111908     1.6075      9.130   -61.3221 3.0123e+01     3.7137      0.934      1.355    17.4396 0.0000e+00
      0.953      0.001     6.8364     71.576     40.142  34.079358     1.6087      9.130   -61.3432 3.0466e+01     3.7194      0.934      1.355    17.4410 0.0000e+00
      0.953      0.001     6.8406     71.575     40.127  34.066585     1.5822      9.130   -61.3870 3.0858e+01     3.6501      0.934      1.355    17.4423 0.0000e+00
      0.953      0.001     6.8457     71.550     40.147  34.084360     1.5620      9.131   -61.5080 3.1185e+01     3.6274      0.935      1.356    17.4436 0.0000e+00
      0.954      0.000     6.8507     71.511     40.169  34.103945     1.5551      9.131   -61.5157 3.1393e+01     3.6498      0.936      1.357    17.4441 0.0000e+00
      0.954     -0.001     6.8550     71.479     40.178  34.113048     1.5578      9.131   -61.3936 3.1592e+01     3.7506      0.936      1.358    17.4439 0.0000e+00
      0.954     -0.001     6.8538     71.459     40.198  34.130984     1.5528      9.131   -61.2363 3.1606e+01     3.7870      0.935      1.357    17.4440 0.0000e+00
      0.953     -0.001     6.8513     71.428     40.196  34.130473     1.5364      9.130   -61.0768 3.1593e+01     3.6806      0.934      1.355    17.4446 0.0000e+00
      0.952      0.000     6.8470     71.412     40.168  34.106874     1.5345      9.130   -61.0130 3.1742e+01     3.6592      0.933      1.354    17.4461 0.0000e+00
      0.952      0.001     6.8419     71.404     40.159  34.099434     1.5455      9.130   -61.1538 3.1832e+01     3.7679      0.933      1.353    17.4483 0.0000e+00
      0.953      0.002     6.8434     71.387     40.164  34.103953     1.5531      9.131   -61.3167 3.1862e+01     3.8332      0.934      1.355    17.4499 0.0000e+00
      0.954      0.002     6.8367     71.378     40.157  34.098072     1.5520      9.131   -61.3478 3.1949e+01     3.7648      0.935      1.356    17.4503 0.0000e+00
      0.955      0.002     6.8361     71.379     40.149  34.091774     1.5650      9.130   -61.4443 3.2080e+01     3.6249      0.936      1.358    17.4510 0.0000e+00
      0.955      0.002     6.8371     71.396     40.149  34.091254     1.6023      9.129   -61.6225 3.2221e+01     3.5762      0.937      1.359    17.4517 0.0000e+00
      0.955      0.002     6.8326     71.405     40.151  34.091774     1.6114      9.129   -61.6960 3.2433e+01     3.5515      0.937      1.360    17.4516 0.0000e+00
      0.955      0.002     6.8340     71.391     40.160  34.098071     1.5999      9.130   -61.6444 3.2753e+01     3.4634      0.937      1.359    17.4514 0.0000e+00
      0.955      0.002     6.8317     71.362     40.167  34.103943     1.5967      9.130   -61.5149 3.3151e+01     3.4668      0.937      1.359    17.4521 0.0000e+00
      0.956      0.002     6.8358     71.338     40.162  34.099319     1.5897      9.129   -61.4200 3.3519e+01     3.5933      0.937      1.360    17.4522 0.0000e+00
      0.958      0.002     6.8370     71.351     40.169  34.105616     1.5983      9.129   -61.4432 3.3783e+01     3.7289      0.939      1.362    17.4505 0.0000e+00
      0.958      0.002     6.8352     71.375     40.182  34.116632     1.6089      9.129   -61.4516 3.4041e+01     3.7397      0.940      1.364    17.4485 0.0000e+00
      0.958      0.002     6.8331     71.393     40.168  34.105616     1.5931      9.130   -61.4351 3.4272e+01     3.6549      0.939      1.363    17.4476 0.0000e+00
      0.958      0.001     6.8270     71.429     40.161  34.099318     1.5664      9.131   -61.3302 3.4438e+01     3.6274      0.940      1.363    17.4480 0.0000e+00
      0.959      0.001     6.8315     71.498     40.167  34.103932     1.5607      9.131   -61.0439 3.4653e+01     3.6802      0.941      1.364    17.4486 0.0000e+00
      0.959      0.002     6.8341     71.577     40.161  34.097957     1.5818      9.130   -60.7271 3.4898e+01     3.7807      0.940      1.364    17.4491 0.0000e+00
      0.959      0.003     6.8341     71.652     40.153  34.090517     1.5881      9.130   -60.5116 3.5060e+01     3.7828      0.940      1.363    17.4493 0.0000e+00
      0.959      0.003     6.8372     71.733     40.138  34.077411     1.5872      9.130   -60.4163 3.5195e+01     3.7059      0.939      1.362    17.4490 0.0000e+00
      0.961      0.004     6.8447     71.796     40.126  34.066386     1.6203      9.130   -60.2634 3.5420e+01     3.7392      0.942      1.366    17.4484 0.0000e+00
      0.963      0.005     6.8541     71.816     40.148  34.084105     1.6562      9.130   -60.1253 3.5692e+01     3.8102      0.945      1.370    17.4477 0.0000e+00
      0.964      0.005     6.8590     71.802     40.168  34.101313     1.6628      9.129   -60.2087 3.6089e+01     3.8124      0.945      1.371    17.4469 0.0000e+00
      0.965      0.005     6.8688     71.764     40.147  34.084109     1.6338      9.129   -60.3255 3.6733e+01     3.6972      0.946      1.373    17.4461 0.0000e+00
      0.966      0.004     6.8764     71.712     40.126  34.066436     1.5891      9.130   -60.4199 3.7263e+01     3.5446      0.947      1.373    17.4449 0.0000e+00
      0.967      0.004     6.8769     71.661     40.140  34.077971     1.5801      9.131   -60.4896 3.7592e+01     3.5386      0.948      1.375    17.4440 0.0000e+00
      0.969      0.005     6.8760     71.613     40.163  34.096683     1.5986      9.131   -60.4798 3.7997e+01     3.5911      0.950      1.379    17.4441 0.0000e+00
      0.969      0.005     6.8717     71.568     40.170  34.102342     1.6216      9.130   -60.5588 3.8335e+01     3.6671      0.950      1.379    17.4440 0.0000e+00
      0.970      0.005     6.8660     71.532     40.147  34.082950     1.6339      9.130   -60.7572 3.8646e+01     3.8077      0.951      1.380    17.4441 0.0000e+00
      0.972      0.004     6.8614     71.512     40.111  34.052553     1.6304      9.130   -60.8990 3.8922e+01     3.9257      0.953      1.383    17.4443 0.0000e+00
      0.974      0.003     6.8568     71.497     40.111  34.052033     1.6466      9.131   -60.8967 3.8996e+01     4.0005      0.955      1.385    17.4437 0.0000e+00
      0.975      0.002     6.8525     71.482     40.141  34.076673     1.6465      9.131   -60.9013 3.9087e+01     3.9262      0.956      1.387    17.4434 0.0000e+00
      0.975      0.001     6.8481     71.465     40.164  34.096689     1.6121      9.131   -60.8690 3.9217e+01     3.7097      0.957      1.389    17.4437 0.0000e+00
      0.975      0.000     6.8473     71.420     40.172  34.103706     1.5968      9.130   -60.7650 3.9349e+01     3.5683      0.956      1.388    17.4438 0.0000e+00
      0.974     -0.001     6.8460     71.375     40.165  34.098061     1.5949      9.130   -60.7610 3.9636e+01     3.5838      0.955      1.385    17.4431 0.0000e+00
      0.973     -0.001     6.8436     71.371     40.157  34.091888     1.5983      9.130   -60.8210 4.0001e+01     3.6923      0.954      1.384    17.4425 0.0000e+00
      0.973      0.000     6.8451     71.375     40.157  34.092523     1.5962      9.130   -60.9739 4.0437e+01     3.7184      0.954      1.384    17.4426 0.0000e+00
      0.973      0.001     6.8387     71.354     40.172  34.105731     1.5780      9.130   -61.2333 4.1017e+01     3.6260      0.954      1.384    17.4433 0.0000e+00
      0.973      0.002     6.8316     71.335     40.195  34.124698     1.5696      9.130   -61.4631 4.1665e+01     3.5664      0.954      1.384    17.4438 0.0000e+00
      0.974      0.003     6.8335     71.353     40.203  34.131514     1.5692      9.130   -61.6007 4.2382e+01     3.5784      0.955      1.386    17.4442 0.0000e+00
      0.975      0.003     6.8358     71.401     40.194  34.124698     1.5810      9.129   -61.6923 4.3119e+01     3.6687      0.956      1.387    17.4449 0.0000e+00
      0.977      0.003     6.8317     71.470     40.170  34.105730     1.5956      9.129   -61.7965 4.3793e+01     3.7359      0.958      1.390    17.4452 0.0000e+00
      0.979      0.002     6.8282     71.540     40.154  34.092514     1.5795      9.130   -61.9144 4.4235e+01     3.6735      0.960      1.392    17.4450 0.0000e+00
      0.979      0.000     6.8311     71.591     40.153  34.091785     1.5691      9.131   -62.0859 4.4350e+01     3.6659      0.960      1.393    17.4456 0.0000e+00
      0.979     -0.001     6.8351     71.621     40.158  34.096927     1.5786      9.131   -62.3211 4.4335e+01     3.7806      0.961      1.394    17.4466 0.0000e+00
      0.978     -0.001     6.8428     71.631     40.150  34.091245     1.5693      9.130   -62.5214 4.4345e+01     3.8305      0.959      1.391    17.4473 0.0000e+00
      0.976      0.000     6.8500     71.630     40.143  34.086525     1.5399      9.130   -62.6142 4.4488e+01     3.7563      0.957      1.388    17.4479 0.0000e+00
      0.975      0.001     6.8550     71.642     40.162  34.103299     1.5144      9.130   -62.6696 4.4688e+01     3.6699      0.956      1.386    17.4486 0.0000e+00
      0.977      0.002     6.8573     71.660     40.161  34.103723     1.5354      9.130   -62.7611 4.4884e+01     3.6734      0.958      1.389    17.4494 0.0000e+00
      0.979      0.002     6.8587     71.673     40.145  34.091659     1.5780      9.130   -62.9457 4.5271e+01     3.6965      0.961      1.394    17.4503 0.0000e+00
      0.981      0.002     6.8565     71.700     40.135  34.084333     1.5962      9.130   -63.1813 4.5692e+01     3.6420      0.962      1.395    17.4513 0.0000e+00
      0.981      0.001     6.8578     71.715     40.128  34.078584     1.6056      9.131   -63.3720 4.5968e+01     3.5940      0.962      1.395    17.4521 0.0000e+00
      0.980     -0.001     6.8614     71.718     40.136  34.085596     1.6340      9.131   -63.5301 4.6381e+01     3.6293      0.961      1.394    17.4537 0.0000e+00
      0.979     -0.001     6.8590     71.737     40.159  34.105667     1.6898      9.131   -63.6302 4.6840e+01     3.6931      0.960      1.392    17.4563 0.0000e+00
      0.977     -0.001     6.8642     71.751     40.187  34.130932     1.7138      9.131   -63.7217 4.7142e+01     3.6816      0.958      1.390    17.4581 0.0000e+00
      0.977     -0.001     6.8659     71.746     40.193  34.137285     1.6999      9.130   -63.7765 4.7531e+01     3.6275      0.958      1.390    17.4585 0.0000e+00
      0.978      0.000     6.8629     71.730     40.171  34.119042     1.6544      9.130   -63.8632 4.8067e+01     3.6203      0.959      1.391    17.4586 0.0000e+00
      0.978 4.2879e-07     6.8676     71.709     40.149  34.100691     1.5808      9.130   -64.0808 4.8524e+01     3.6623      0.959      1.391    17.4594 0.0000e+00
      0.979      0.000     6.8684     71.697     40.154  34.105740     1.5501      9.130   -64.2567 4.8844e+01     3.7255      0.960      1.392    17.4605 0.0000e+00
      0.979      0.000     6.8670     71.686     40.167  34.116641     1.5414      9.132   -64.3548 4.9363e+01     3.7007      0.960      1.393    17.4618 0.0000e+00
      0.978      0.001     6.8660     71.674     40.154  34.105606     1.5165      9.132   -64.4071 4.9613e+01     3.6016      0.959      1.392    17.4639 0.0000e+00
      0.978      0.002     6.8623     71.687     40.147  34.099203     1.4833      9.130   -64.5446 4.9348e+01     3.5530      0.959      1.391    17.4647 0.0000e+00
      0.978      0.002     6.8622     71.732     40.152  34.102673     1.4644      9.130   -64.7275 4.9183e+01     3.6246      0.959      1.391    17.4639 0.0000e+00
      0.979      0.003     6.8616     71.792     40.130  34.084113     1.4785      9.130   -64.7254 4.8688e+01     3.7506      0.961      1.393    17.4639 0.0000e+00
      0.981      0.004     6.8590     71.852     40.107  34.065137     1.4792      9.130   -64.6055 4.8189e+01     3.7433      0.963      1.396    17.4644 0.0000e+00
      0.982      0.004     6.8593     71.887     40.105  34.063577     1.4733      9.130   -64.3958 4.8134e+01     3.6732      0.963      1.397    17.4641 0.0000e+00
      0.983      0.003     6.8657     71.887     40.106  34.065250     1.5067      9.130   -64.0828 4.7804e+01     3.7229      0.964      1.398    17.4626 0.0000e+00
      0.984      0.001     6.8710     71.881     40.130  34.085361     1.5497      9.130   -63.8329 4.7447e+01     3.7979      0.966      1.400    17.4625 0.0000e+00
      0.984      0.000     6.8777     71.868     40.167  34.116401     1.5617      9.130   -63.7837 4.7372e+01     3.7949      0.965      1.400    17.4638 0.0000e+00
      0.984      0.000     6.8823     71.848     40.175  34.123322     1.5432      9.130   -63.8316 4.7244e+01     3.7199      0.965      1.400    17.4648 0.0000e+00
      0.983     -0.001     6.8792     71.834     40.154  34.105604     1.5175      9.130   -63.8966 4.7314e+01     3.6434      0.965      1.399    17.4650 0.0000e+00
      0.983     -0.001     6.8803     71.846     40.138  34.092510     1.5172      9.130   -63.9665 4.7739e+01     3.6894      0.963      1.397    17.4647 0.0000e+00
      0.983     -0.001     6.8787     71.870     40.137  34.091887     1.5398      9.131   -63.9882 4.7950e+01     3.7296      0.964      1.397    17.4645 0.0000e+00
      0.983      0.000     6.8764     71.858     40.144  34.098070     1.5576      9.131   -64.0737 4.8219e+01     3.6510      0.964      1.398    17.4644 0.0000e+00
      0.982      0.000     6.8740     71.823     40.151  34.103829     1.5663      9.131   -64.1392 4.8703e+01     3.5931      0.963      1.397    17.4646 0.0000e+00
      0.982      0.001     6.8749     71.797     40.145  34.098071     1.5703      9.131   -64.0921 4.8903e+01     3.6445      0.963      1.396    17.4648 0.0000e+00
      0.983      0.001     6.8813     71.787     40.139  34.091897     1.5886      9.131   -64.1060 4.9069e+01     3.7604      0.964      1.398    17.4649 0.0000e+00
      0.984      0.002     6.8778     71.792     40.141  34.092626     1.5876      9.131   -64.1360 4.9027e+01     3.7641      0.965      1.399    17.4653 0.0000e+00
      0.984      0.002     6.8733     71.810     40.157  34.106884     1.5334      9.131   -64.1104 4.8687e+01     3.6557      0.965      1.399    17.4652 0.0000e+00
      0.985      0.001     6.8712     71.830     40.192  34.137395     1.4986      9.131   -64.1406 4.8396e+01     3.6111      0.966      1.400    17.4639 0.0000e+00
      0.985      0.000     6.8701     71.854     40.201  34.144307     1.5085      9.130   -64.2428 4.7989e+01     3.6678      0.966      1.400    17.4629 0.0000e+00
      0.985      0.000     6.8709     71.908     40.181  34.127014     1.5199      9.130   -64.3999 4.7436e+01     3.7276      0.966      1.401    17.4625 0.0000e+00
      0.985      0.000     6.8727     71.970     40.171  34.118649     1.5199      9.130   -64.5776 4.6915e+01     3.6848      0.966      1.401    17.4630 0.0000e+00
      0.984     -0.001     6.8760     72.005     40.158  34.106603     1.5166      9.130   -64.6710 4.6433e+01     3.6288      0.965      1.399    17.4636 0.0000e+00
      0.984     -0.001     6.8745     71.980     40.161  34.108258     1.5302      9.130   -64.7547 4.5977e+01     3.6649      0.965      1.399    17.4637 0.0000e+00
      0.984      0.000     6.8826     71.911     40.197  34.138656     1.5511      9.131   -64.9009 4.5818e+01     3.7454      0.965      1.400    17.4637 0.0000e+00
      0.984 4.6957e-07     6.8890     71.847     40.218  34.156912     1.5526      9.132   -64.9763 4.5900e+01     3.7822      0.964      1.398    17.4631 0.0000e+00
      0.984      0.000     6.8939     71.748     40.196  34.138660     1.5322      9.132   -64.9768 4.5993e+01     3.7348      0.965      1.399    17.4618 0.0000e+00
      0.984      0.000     6.8930     71.616     40.159  34.108309     1.5119      9.132   -64.9939 4.6214e+01     3.6508      0.965      1.400    17.4600 0.0000e+00
      0.985      0.001     6.8800     71.485     40.157  34.107165     1.5244      9.132   -65.0108 4.6390e+01     3.6547      0.966      1.401    17.4594 0.0000e+00
      0.985      0.002     6.8801     71.368     40.177  34.124827     1.5659      9.131   -65.0945 4.6505e+01     3.7136      0.966      1.401    17.4603 0.0000e+00
      0.984      0.004     6.8682     71.302     40.185  34.131524     1.6067      9.131   -65.2317 4.6692e+01     3.7133      0.965      1.399    17.4616 0.0000e+00
      0.984      0.005     6.8537     71.304     40.177  34.124698     1.6092      9.131   -65.2932 4.6611e+01     3.6849      0.964      1.397    17.4625 0.0000e+00
      0.986      0.006     6.8424     71.358     40.156  34.105730     1.5796      9.131   -65.3227 4.6094e+01     3.6782      0.967      1.402    17.4638 0.0000e+00
      0.990      0.006     6.8279     71.438     40.141  34.092521     1.5736      9.131   -65.3296 4.5406e+01     3.6666      0.971      1.408    17.4643 0.0000e+00
      0.993      0.005     6.8220     71.545     40.141  34.091889     1.5871      9.130   -65.3763 4.4572e+01     3.5442      0.974      1.413    17.4639 0.0000e+00
      0.994      0.003     6.8221     71.660     40.150  34.098081     1.5928      9.130   -65.5434 4.3620e+01     3.3936      0.976      1.416    17.4639 0.0000e+00
      0.993      0.000     6.8299     71.752     40.157  34.103942     1.5928      9.131   -65.7151 4.2751e+01     3.3483      0.975      1.414    17.4637 0.0000e+00
      0.992     -0.002     6.8359     71.805     40.152  34.099317     1.5622      9.131   -65.7322 4.1936e+01     3.4410      0.973      1.411    17.4625 0.0000e+00
      0.991     -0.004     6.8476     71.820     40.160  34.105605     1.5137      9.130   -65.6641 4.1450e+01     3.6268      0.972      1.409    17.4603 0.0000e+00
      0.989     -0.004     6.8604     71.811     40.175  34.116518     1.4804      9.130   -65.5792 4.1294e+01     3.6822      0.970      1.407    17.4590 0.0000e+00
      0.989     -0.003     6.8691     71.779     40.161  34.104369     1.4510      9.130   -65.4810 4.1268e+01     3.5980      0.970      1.407    17.4591 0.0000e+00
      0.988     -0.002     6.8751     71.737     40.138  34.085601     1.4335      9.131   -65.5950 4.1467e+01     3.5311      0.969      1.406    17.4590 0.0000e+00
      0.988     -0.001     6.8747     71.703     40.130  34.079936     1.4427      9.131   -65.7526 4.1895e+01     3.5566      0.969      1.405    17.4580 0.0000e+00
      0.988     -0.001     6.8754     71.676     40.150  34.099319     1.4710      9.131   -65.7521 4.2623e+01     3.7014      0.969      1.405    17.4560 0.0000e+00
      0.988      0.000     6.8715     71.652     40.183  34.129621     1.4849      9.131   -65.7613 4.3291e+01     3.7787      0.968      1.404    17.4552 0.0000e+00
      0.988      0.002     6.8663     71.641     40.180  34.129100     1.4685      9.131   -65.7777 4.3815e+01     3.6716      0.969      1.405    17.4564 0.0000e+00
      0.988      0.003     6.8635     71.649     40.137  34.093021     1.4642      9.131   -65.8634 4.4387e+01     3.6358      0.969      1.405    17.4582 0.0000e+00
      0.989      0.005     6.8605     71.678     40.115  34.074063     1.4915      9.131   -66.0235 4.4585e+01     3.7550      0.969      1.405    17.4605 0.0000e+00
      0.991      0.005     6.8577     71.732     40.134  34.090223     1.5072      9.131   -66.0792 4.4307e+01     3.8153      0.972      1.409    17.4630 0.0000e+00
      0.993      0.004     6.8553     71.776     40.143  34.098072     1.4878      9.132   -66.0202 4.3959e+01     3.7501      0.975      1.413    17.4657 0.0000e+00
      0.995      0.002     6.8569     71.793     40.152  34.105513     1.4812      9.133   -65.8265 4.3354e+01     3.6840      0.976      1.415    17.4673 0.0000e+00
      0.995     -0.000     6.8579     71.813     40.165  34.116745     1.5102      9.133   -65.6304 4.2491e+01     3.7000      0.977      1.417    17.4671 0.0000e+00
      0.994     -0.003     6.8656     71.848     40.154  34.106987     1.5397      9.132   -65.6276 4.1798e+01     3.6698      0.976      1.416    17.4667 0.0000e+00
      0.992     -0.005     6.8711     71.870     40.164  34.114419     1.5545      9.131   -65.7061 4.1015e+01     3.6273      0.972      1.412    17.4665 0.0000e+00
      0.990     -0.005     6.8700     71.845     40.199  34.143161     1.5310      9.131   -65.8062 4.0295e+01     3.6629      0.970      1.408    17.4664 0.0000e+00
      0.988     -0.004     6.8721     71.795     40.194  34.137286     1.4890      9.132   -65.8909 3.9965e+01     3.6908      0.969      1.405    17.4662 0.0000e+00
      0.988     -0.002     6.8763     71.775     40.162  34.106823     1.4876      9.132   -65.8694 3.9682e+01     3.7593      0.968      1.404    17.4659 0.0000e+00
      0.988      0.001     6.8811     71.798     40.147  34.092055     1.5062      9.132   -65.7184 3.9549e+01     3.7735      0.969      1.405    17.4653 0.0000e+00
      0.988      0.003     6.8772     71.814     40.140  34.085617     1.5135      9.132   -65.3564 3.9579e+01     3.6925      0.969      1.405    17.4641 0.0000e+00
      0.989      0.005     6.8704     71.784     40.149  34.092419     1.5098      9.131   -64.7624 3.9379e+01     3.7364      0.971      1.407    17.4618 0.0000e+00
      0.991      0.005     6.8680     71.714     40.170  34.110856     1.5114      9.130   -64.1284 3.9023e+01     3.8597      0.973      1.411    17.4576 0.0000e+00
      0.993      0.005     6.8737     71.623     40.179  34.118201     1.5328      9.130   -63.7139 3.8454e+01     3.9537      0.974      1.413    17.4540 0.0000e+00
      0.995      0.005     6.8767     71.537     40.178  34.117776     1.5437      9.131   -63.6219 3.7711e+01     3.9504      0.976      1.415    17.4532 0.0000e+00
      0.995      0.005     6.8731     71.466     40.163  34.105719     1.5348      9.132   -63.8766 3.6997e+01     3.7855      0.977      1.416    17.4534 0.0000e+00
      0.995      0.005     6.8663     71.422     40.154  34.099317     1.5254      9.132   -64.3849 3.6162e+01     3.6339      0.976      1.416    17.4536 0.0000e+00
      0.996      0.005     6.8557     71.419     40.158  34.103818     1.5218      9.132   -64.8638 3.5149e+01     3.6204      0.977      1.416    17.4535 0.0000e+00
      0.998      0.005     6.8479     71.445     40.149  34.096698     1.5327      9.132   -65.1919 3.4176e+01     3.6914      0.979      1.419    17.4538 0.0000e+00
      1.001      0.005     6.8404     71.501     40.126  34.076673     1.5245      9.133   -65.4265 3.3386e+01     3.7069      0.983      1.424    17.4553 0.0000e+00
      1.004      0.004     6.8349     71.596     40.096  34.052032     1.4807      9.134   -65.7217 3.2701e+01     3.6022      0.985      1.428    17.4567 0.0000e+00
      1.004      0.003     6.8356     71.675     40.096  34.052552     1.4607      9.133   -66.0085 3.2161e+01     3.5866      0.985      1.429    17.4573 0.0000e+00
      1.003      0.001     6.8385     71.683     40.130  34.082959     1.4826      9.133   -66.1402 3.1744e+01     3.7232      0.984      1.427    17.4574 0.0000e+00
      1.003      0.001     6.8416     71.637     40.153  34.102455     1.5037      9.132   -66.1960 3.1543e+01     3.8200      0.983      1.426    17.4576 0.0000e+00
      1.003      0.001     6.8539     71.583     40.148  34.097935     1.4912      9.132   -66.0803 3.1462e+01     3.7665      0.983      1.426    17.4581 0.0000e+00
      1.003      0.002     6.8638     71.550     40.141  34.091762     1.4564      9.132   -65.8607 3.1238e+01     3.6561      0.983      1.426    17.4594 0.0000e+00
      1.004      0.002     6.8631     71.527     40.141  34.091262     1.4570      9.132   -65.6059 3.1120e+01     3.6809      0.985      1.428    17.4609 0.0000e+00
      1.006      0.002     6.8568     71.517     40.142  34.091887     1.4985      9.132   -65.2359 3.1022e+01     3.7249      0.986      1.430    17.4615 0.0000e+00
      1.006      0.002     6.8503     71.549     40.151  34.099318     1.5345      9.132   -64.9148 3.0815e+01     3.6421      0.987      1.431    17.4616 0.0000e+00
      1.006      0.002     6.8480     71.607     40.174  34.117670     1.5418      9.132   -64.6492 3.0698e+01     3.5677      0.987      1.431    17.4612 0.0000e+00
      1.006      0.003     6.8468     71.659     40.182  34.123438     1.5213      9.132   -64.3469 3.0449e+01     3.6107      0.987      1.431    17.4605 0.0000e+00
      1.006      0.005     6.8430     71.706     40.163  34.105616     1.5113      9.132   -64.0989 3.0082e+01     3.7862      0.986      1.429    17.4599 0.0000e+00
      1.007      0.007     6.8474     71.738     40.149  34.092512     1.4950      9.132   -63.8889 2.9731e+01     3.9129      0.987      1.431    17.4593 0.0000e+00
      1.010      0.007     6.8556     71.749     40.151  34.091888     1.4494      9.132   -63.6142 2.9266e+01     3.8794      0.990      1.436    17.4585 0.0000e+00
      1.014      0.006     6.8585     71.732     40.161  34.098071     1.4346      9.131   -63.4440 2.8898e+01     3.8249      0.995      1.443    17.4571 0.0000e+00
      1.017      0.005     6.8654     71.680     40.170  34.103820     1.4652      9.131   -63.5518 2.8644e+01     3.8012      0.998      1.448    17.4557 0.0000e+00
      1.017      0.004     6.8677     71.608     40.164  34.097952     1.4952      9.131   -63.7133 2.8404e+01     3.7975      0.998      1.447    17.4541 0.0000e+00
      1.016      0.002     6.8697     71.546     40.154  34.090567     1.4888      9.132   -63.7618 2.8296e+01     3.7456      0.996      1.444    17.4509 0.0000e+00
      1.015      0.002     6.8694     71.517     40.138  34.077973     1.4548      9.132   -63.7936 2.8174e+01     3.6179      0.994      1.442    17.4472 0.0000e+00
      1.015      0.002     6.8639     71.526     40.130  34.072572     1.4340      9.132   -63.7544 2.8039e+01     3.5515      0.995      1.443    17.4450 0.0000e+00
      1.017      0.002     6.8560     71.543     40.149  34.088717     1.4699      9.132   -63.6314 2.7971e+01     3.6256      0.997      1.447    17.4440 0.0000e+00
      1.019      0.003     6.8491     71.528     40.144  34.082846     1.5391      9.133   -63.5974 2.7848e+01     3.7626      0.999      1.449    17.4449 0.0000e+00
      1.019      0.005     6.8457     71.473     40.124  34.065023     1.5553      9.133   -63.5153 2.7766e+01     3.7734      1.000      1.450    17.4471 0.0000e+00
      1.019      0.008     6.8474     71.392     40.122  34.063558     1.5236      9.133   -63.2408 2.7712e+01     3.6539      1.000      1.450    17.4483 0.0000e+00
      1.019      0.012     6.8513     71.323     40.124  34.065136     1.5474      9.132   -63.0327 2.7532e+01     3.6834      0.999      1.448    17.4482 0.0000e+00
      1.022      0.015     6.8493     71.280     40.147  34.084095     1.6357      9.132   -62.9781 2.7301e+01     3.8910      1.000      1.450    17.4469 0.0000e+00
      1.028      0.017     6.8449     71.261     40.171  34.102445     1.6833      9.132   -62.9245 2.7022e+01     4.0125      1.006      1.460    17.4459 0.0000e+00
      1.036      0.018     6.8345     71.273     40.168  34.096679     1.6652      9.133   -62.9006 2.6793e+01     3.9570      1.016      1.475    17.4458 0.0000e+00
      1.043      0.013     6.8278     71.309     40.148  34.077818     1.6078      9.133   -62.9476 2.6701e+01     3.8350      1.025      1.486    17.4457 0.0000e+00
      1.047     -0.001     6.8244     71.339     40.135  34.064733     1.5553      9.132   -62.8901 2.6580e+01     3.7667      1.027      1.490    17.4451 0.0000e+00
      1.049     -0.026     6.8222     71.348     40.135  34.065349     1.5464      9.132   -62.6351 2.6515e+01     3.7118      1.028      1.492    17.4425 0.0000e+00
      1.048     -0.060     6.8238     71.342     40.155  34.085269     1.5427      9.131   -62.5323 2.6790e+01     3.6835      1.031      1.495    17.4387 0.0000e+00
      1.036     -0.098     6.8295     71.330     40.186  34.115261     1.5189      9.129   -62.5940 2.7566e+01     3.6988      1.023      1.484    17.4352 0.0000e+00
      1.005     -0.133     6.8331     71.319     40.177  34.110760     1.4917      9.128   -62.5206 2.8675e+01     3.6917      0.992      1.438    17.4332 0.0000e+00
      0.955     -0.161     6.8333     71.299     40.152  34.094299     1.4884      9.128   -62.4195 2.9754e+01     3.7332      0.938      1.361    17.4336 0.0000e+00
      0.897     -0.172     6.8325     71.296     40.160  34.106572     1.4959      9.129   -62.2310 3.0879e+01     3.7232      0.878      1.274    17.4368 0.0000e+00
      0.840     -0.163     6.8291     71.334     40.185  34.132271     1.4818      9.130   -61.8761 3.2084e+01     3.6385      0.823      1.192    17.4427 0.0000e+00
      0.789     -0.137     6.8296     71.401     40.207  34.151237     1.4602      9.131   -61.3977 3.2803e+01     3.6322      0.768      1.114    17.4475 0.0000e+00
      0.754     -0.103     6.8249     71.470     40.203  34.145564     1.4591      9.131   -60.9217 3.2898e+01     3.6806      0.730      1.059    17.4520 0.0000e+00
      0.739     -0.073     6.8225     71.523     40.184  34.127119     1.4768      9.130   -60.7662 3.2706e+01     3.7453      0.720      1.045    17.4588 0.0000e+00
      0.738     -0.055     6.8263     71.563     40.174  34.118544     1.4822      9.129   -60.8944 3.2280e+01     3.7315      0.722      1.048    17.4659 0.0000e+00
      0.741     -0.051     6.8330     71.588     40.155  34.105335     1.4665      9.129   -61.0093 3.2175e+01     3.6161      0.728      1.056    17.4684 0.0000e+00
      0.740     -0.057     6.8416     71.595     40.138  34.094311     1.4704      9.129   -61.0365 3.3080e+01     3.6142      0.732      1.062    17.4623 0.0000e+00
      0.721     -0.071     6.8464     71.605     40.156  34.112142     1.4955      9.130   -60.7935 3.4156e+01     3.7427      0.715      1.036    17.4568 0.0000e+00
      0.687     -0.091     6.8504     71.629     40.176  34.130597     1.5037      9.130   -60.1365 3.4838e+01     3.8377      0.673      0.976    17.4581 0.0000e+00
      0.653     -0.116     6.8529     71.651     40.173  34.127122     1.4785      9.129   -59.6314 3.6093e+01     3.8064      0.636      0.922    17.4624 0.0000e+00
      0.629     -0.142     6.8516     71.665     40.178  34.133570     1.4237      9.128   -59.5052 3.7928e+01     3.6719      0.614      0.891    17.4673 0.0000e+00
      0.607     -0.162     6.8512     71.678     40.184  34.145124     1.3985      9.128   -59.4706 3.9554e+01     3.6453      0.601      0.873    17.4717 0.0000e+00
      0.567     -0.174     6.8547     71.688     40.167  34.139935     1.4235      9.128   -59.6433 4.0921e+01     3.7585      0.566      0.822    17.4727 0.0000e+00
      0.503     -0.180     6.8573     71.711     40.150  34.134281     1.4523      9.129   -60.0445 4.3541e+01     3.8107      0.495      0.717    17.4705 0.0000e+00
      0.434     -0.186     6.8576     71.758     40.151  34.140228     1.4629      9.129   -60.5360 4.7339e+01     3.7307      0.417      0.605    17.4716 0.0000e+00
      0.382     -0.193     6.8583     71.798     40.156  34.148408     1.4517      9.129   -60.9387 4.8627e+01     3.6108      0.366      0.531    17.4800 0.0000e+00
      0.349     -0.198     6.8568     71.831     40.177  34.169742     1.4506      9.129   -61.1278 4.7302e+01     3.5913      0.342      0.495    17.4939 0.0000e+00
      0.317     -0.198     6.8555     71.877     40.216  34.207847     1.4490      9.130   -61.2747 4.6724e+01     3.6307      0.319      0.462    17.5059 0.0000e+00
      0.269     -0.193     6.8621     71.951     40.231  34.228469     1.4244      9.131   -61.5100 4.6737e+01     3.6091      0.274      0.397    17.5126 0.0000e+00
      0.202     -0.184     6.8646     72.063     40.220  34.228754     1.4105      9.131   -61.8214 4.8821e+01     3.6037      0.199      0.289    17.5159 0.0000e+00
      0.132     -0.173     6.8665     72.164     40.188  34.211308     1.3980      9.132   -62.1153 5.5009e+01     3.6682      0.118      0.171    17.5175 0.0000e+00
      0.083     -0.156     6.8703     72.219     40.177  34.207872     1.3979      9.133   -62.3098 5.9120e+01     3.7397      0.071      0.102    17.5240 0.0000e+00
      0.060     -0.134     6.8736     72.261     40.222  34.250658     1.4098      9.133   -62.5379 5.8967e+01     3.7162      0.057      0.082    17.5356 0.0000e+00
      0.045     -0.110     6.8858     72.327     40.256  34.284519     1.3997      9.133   -62.7223 6.1400e+01     3.5892      0.047      0.069    17.5483 0.0000e+00
      0.025     -0.090     6.8952     72.397     40.266  34.300067     1.3917      9.134   -62.7323 6.7648e+01     3.5013      0.028      0.040    17.5605 0.0000e+00
     -0.001     -0.077     6.8974     72.430     40.271  34.311767     1.3883      9.135   -62.6600 7.3909e+01     3.5072     -0.002     -0.003    17.5687 0.0000e+00
     -0.028     -0.069     6.8990     72.424     40.248  34.299101     1.3262      9.136   -62.4504 8.0906e+01     3.5923     -0.030     -0.043    17.5730 0.0000e+00
     -0.048     -0.064     6.9055     72.414     40.210  34.273831     1.1983      9.136   -62.2629 8.7696e+01     3.6766     -0.049     -0.071    17.5778 0.0000e+00
     -0.058     -0.060     6.9132     72.410     40.189  34.260017     1.1068      9.137   -62.2845 9.2173e+01     3.6385     -0.062     -0.089    17.5875 0.0000e+00
     -0.061     -0.054     6.9150     72.410     40.189  34.258968     1.1026      9.137   -62.3670 9.7362e+01     3.6437     -0.058     -0.084    17.5971 0.0000e+00
     -0.070     -0.048     6.9111     72.421     40.194  34.261153     1.1481      9.137   -62.4008 1.0619e+02     3.7742     -0.061     -0.087    17.6051 0.0000e+00
     -0.091     -0.040     6.9085     72.441     40.227  34.286427     1.1899      9.138   -62.4360 1.1520e+02     3.8152     -0.091     -0.130    17.6156 0.0000e+00
     -0.112     -0.033     6.9082     72.476     40.255  34.310766     1.1919      9.138   -62.3618 1.0832e+02     3.7298     -0.116     -0.167    17.6217 0.0000e+00
     -0.121     -0.027     6.9069     72.519     40.238  34.301650     1.1723      9.138   -62.1053 9.9722e+01     3.6298     -0.123     -0.179    17.6195 0.0000e+00
     -0.120     -0.017     6.9100     72.551     40.232  34.303107     1.1697      9.138   -62.0018 1.1426e+02     3.5631     -0.119     -0.173    17.6154 0.0000e+00
     -0.115     -0.006     6.9119     72.593     40.255  34.328390     1.1848      9.139   -62.2293 1.2614e+02     3.4692     -0.111     -0.161    17.6100 0.0000e+00
     -0.114      0.002     6.9148     72.625     40.278  34.353569     1.1970      9.141   -62.5338 1.2404e+02     3.4170     -0.110     -0.160    17.6088 0.0000e+00
     -0.116      0.004     6.9203     72.615     40.268  34.353769     1.1922      9.142   -62.6715 1.5356e+02     3.4452     -0.114     -0.166    17.6186 0.0000e+00
     -0.117      0.004     6.9187     72.576     40.232  34.330809     1.1933      9.142   -62.6895 3.9326e+02     3.4686     -0.116     -0.169    17.6285 0.0000e+00
     -0.115      0.002     6.9238     72.525     40.226  34.329759     1.2353      9.142   -62.8377 8.3468e+02     3.5286     -0.113     -0.164    17.6334 0.0000e+00
     -0.112      0.001     6.9279     72.466     40.240  34.341086     1.2753      9.142   -63.0863 1.1173e+03     3.5216     -0.110     -0.159    17.6408 0.0000e+00
     -0.110      0.000     6.9233     72.391     40.243  34.340868     1.2774      9.142   -63.2008 1.2284e+03     3.4523     -0.107     -0.155    17.6526 0.0000e+00
     -0.110     -0.001     6.9184     72.301     40.231  34.327121     1.2692      9.142   -63.3612 1.5442e+03     3.5103     -0.106     -0.153    17.6632 0.0000e+00
     -0.113     -0.003     6.9116     72.211     40.206  34.301752     1.2754      9.142   -63.7357 1.7858e+03     3.6761     -0.111     -0.160    17.6685 0.0000e+00
     -0.116     -0.004     6.9076     72.138     40.195  34.287921     1.2939      9.142   -64.0293 1.4690e+03     3.8181     -0.115     -0.167    17.6673 0.0000e+00
     -0.117     -0.005     6.9006     72.113     40.200  34.286766     1.3029      9.142   -64.1572 1.1681e+03     3.7919     -0.116     -0.168    17.6625 0.0000e+00
     -0.117     -0.005     6.8919     72.152     40.206  34.287796     1.2921      9.143   -64.2500 1.1544e+03     3.6673     -0.116     -0.168    17.6585 0.0000e+00
     -0.117     -0.004     6.8837     72.224     40.225  34.300361     1.2721      9.143   -64.2914 1.1385e+03     3.6083     -0.114     -0.166    17.6543 0.0000e+00
     -0.118     -0.004     6.8767     72.291     40.245  34.311792     1.2685      9.143   -64.3999 1.2113e+03     3.6254     -0.115     -0.165    17.6470 0.0000e+00
     -0.120     -0.003     6.8740     72.357     40.235  34.299113     1.2905      9.144   -64.7008 1.2978e+03     3.7044     -0.119     -0.171    17.6394 0.0000e+00
     -0.122     -0.002     6.8799     72.437     40.209  34.273945     1.3054      9.144   -65.0038 1.3514e+03     3.7088     -0.121     -0.175    17.6366 0.0000e+00
     -0.123     -0.001     6.8894     72.490     40.197  34.261265     1.2987      9.143   -65.1387 1.2249e+03     3.6102     -0.122     -0.177    17.6321 0.0000e+00
     -0.123      0.001     6.8960     72.464     40.215  34.272686     1.3010      9.142   -65.2984 1.0864e+03     3.6052     -0.120     -0.175    17.6231 0.0000e+00
     -0.121      0.002     6.9024     72.402     40.236  34.285148     1.3163      9.143   -65.5592 1.3924e+03     3.7163     -0.118     -0.172    17.6176 0.0000e+00
     -0.120      0.002     6.9112     72.355     40.242  34.285033     1.3256      9.144   -65.7107 1.6014e+03     3.7925     -0.118     -0.171    17.6165 0.0000e+00
     -0.119      0.001     6.9210     72.321     40.231  34.271296     1.3297      9.144   -65.7533 1.3550e+03     3.7416     -0.117     -0.169    17.6132 0.0000e+00
     -0.119      0.000     6.9158     72.293     40.205  34.245938     1.3332      9.144   -65.8157 1.1409e+03     3.6815     -0.116     -0.168    17.6077 0.0000e+00
     -0.120     -0.001     6.9085     72.248     40.192  34.232210     1.3507      9.145   -65.8634 1.1487e+03     3.7489     -0.117     -0.170    17.6010 0.0000e+00
     -0.121     -0.001     6.9068     72.186     40.195  34.232201     1.3753      9.145   -65.9849 1.2518e+03     3.8051     -0.118     -0.171    17.5925 0.0000e+00
     -0.122     -0.001     6.9031     72.151     40.212  34.245824     1.3809      9.144   -66.2530 1.3364e+03     3.7126     -0.120     -0.173    17.5882 0.0000e+00
     -0.122      0.000     6.9028     72.164     40.242  34.270039     1.3679      9.143   -66.4378 1.4194e+03     3.5868     -0.119     -0.174    17.5859 0.0000e+00
     -0.121      0.001     6.8991     72.174     40.244  34.271193     1.3434      9.145   -66.4989 1.4013e+03     3.6160     -0.118     -0.172    17.5811 0.0000e+00
     -0.121      0.002     6.8918     72.149     40.231  34.259772     1.3339      9.146   -66.5609 1.2557e+03     3.7584     -0.118     -0.172    17.5776 0.0000e+00
     -0.120      0.003     6.8867     72.108     40.230  34.258838     1.3041      9.146   -66.5849 1.1278e+03     3.7023     -0.118     -0.171    17.5769 0.0000e+00
     -0.119      0.003     6.8911     72.080     40.230  34.259906     1.2324      9.146   -66.6176 1.0373e+03     3.4498     -0.117     -0.170    17.5761 0.0000e+00
     -0.118      0.003     6.8938     72.093     40.240  34.272691     1.1905      9.146   -66.6981 1.1286e+03     3.3028     -0.116     -0.168    17.5752 0.0000e+00
     -0.117      0.002     6.8898     72.140     40.246  34.286534     1.1718      9.146   -66.7842 1.4102e+03     3.3250     -0.115     -0.167    17.5742 0.0000e+00
     -0.117      0.001     6.8857     72.205     40.250  34.300394     1.1561      9.146   -66.8841 1.5270e+03     3.4102     -0.115     -0.166    17.5743 0.0000e+00
     -0.117      0.001     6.8805     72.265     40.252  34.313396     1.1423      9.146   -66.9597 1.3775e+03     3.4795     -0.113     -0.164    17.5755 0.0000e+00
     -0.117      0.000     6.8826     72.300     40.244  34.316865     1.1134      9.145   -67.0098 1.3296e+03     3.5480     -0.114     -0.165    17.5787 0.0000e+00
     -0.117      0.000     6.8859     72.338     40.262  34.342347     1.0895      9.145   -67.0599 1.4106e+03     3.5892     -0.115     -0.166    17.5908 0.0000e+00
     -0.117      0.003     6.8904     72.397     40.279  34.367725     1.0866      9.145   -67.0490 1.2892e+03     3.6364     -0.116     -0.167    17.6056 0.0000e+00
     -0.117      0.011     6.8960     72.432     40.269  34.369937     1.1029      9.146   -66.8781 1.1283e+03     3.7421     -0.115     -0.166    17.6185 0.0000e+00
     -0.117      0.024     6.8954     72.422     40.257  34.369105     1.1123      9.146   -66.6285 1.1558e+03     3.7398     -0.114     -0.167    17.6332 0.0000e+00
     -0.115      0.039     6.8959     72.384     40.236  34.357682     1.0928      9.146   -66.4402 9.9172e+02     3.6428     -0.116     -0.169    17.6440 0.0000e+00
     -0.104      0.055     6.9029     72.323     40.232  34.358721     1.0910      9.146   -66.3224 5.9657e+02     3.6968     -0.107     -0.156    17.6570 0.0000e+00
     -0.083      0.070     6.9048     72.266     40.256  34.381666     1.1570      9.147   -66.2368 3.6060e+02     3.8113     -0.083     -0.121    17.6727 0.0000e+00
     -0.058      0.084     6.9000     72.248     40.255  34.381332     1.2501      9.147   -66.0933 2.6683e+02     3.7980     -0.055     -0.080    17.6832 0.0000e+00
     -0.033      0.094     6.8967     72.253     40.228  34.354687     1.2933      9.146   -65.7913 2.2128e+02     3.7067     -0.033     -0.048    17.6924 0.0000e+00
     -0.009      0.098     6.8887     72.256     40.190  34.313273     1.2885      9.146   -65.3390 1.9801e+02     3.5962     -0.010     -0.016    17.6980 0.0000e+00
      0.018      0.095     6.8807     72.246     40.147  34.261271     1.3166      9.147   -64.8404 1.9267e+02     3.5891      0.017      0.025    17.7000 0.0000e+00
      0.046      0.090     6.8802     72.221     40.138  34.233474     1.3828      9.147   -64.4954 2.0692e+02     3.6552      0.047      0.069    17.7028 0.0000e+00
      0.071      0.086     6.8818     72.194     40.159  34.230935     1.4234      9.148   -64.3509 1.9340e+02     3.6780      0.072      0.104    17.6996 0.0000e+00
      0.090      0.086     6.8841     72.158     40.174  34.230551     1.4325      9.149   -64.0394 1.6549e+02     3.6943      0.089      0.128    17.6869 0.0000e+00
      0.106      0.095     6.8863     72.120     40.180  34.228815     1.4266      9.151   -63.3967 1.3941e+02     3.7837      0.104      0.151    17.6690 0.0000e+00
      0.121      0.111     6.8865     72.126     40.167  34.209928     1.4271      9.151   -62.8612 1.1843e+02     3.9383      0.117      0.171    17.6412 0.0000e+00
      0.143      0.129     6.8890     72.200     40.158  34.192520     1.4305      9.151   -62.6402 1.0202e+02     3.9579      0.133      0.193    17.6115 0.0000e+00
      0.182      0.141     6.8880     72.300     40.187  34.208665     1.4089      9.152   -62.3595 9.4543e+01     3.8501      0.172      0.249    17.5956 0.0000e+00
      0.237      0.143     6.8828     72.379     40.200  34.214787     1.3823      9.152   -62.0486 9.8878e+01     3.7962      0.233      0.338    17.5901 0.0000e+00
      0.292      0.135     6.8833     72.423     40.189  34.203082     1.3925      9.152   -61.8917 1.0538e+02     3.8197      0.292      0.425    17.5827 0.0000e+00
      0.331      0.119     6.8946     72.430     40.181  34.194024     1.4240      9.152   -61.6676 1.1164e+02     3.8262      0.331      0.481    17.5671 0.0000e+00
      0.351      0.098     6.9080     72.404     40.154  34.168711     1.4379      9.153   -61.3178 1.1813e+02     3.7382      0.348      0.506    17.5556 0.0000e+00
      0.360      0.076     6.9157     72.349     40.134  34.150809     1.4278      9.153   -60.7595 1.1870e+02     3.6098      0.353      0.512    17.5514 0.0000e+00
      0.369      0.057     6.9212     72.291     40.154  34.167903     1.4016      9.153   -59.9935 1.0895e+02     3.5716      0.358      0.520    17.5484 0.0000e+00
      0.384      0.043     6.9212     72.248     40.171  34.185058     1.3960      9.153   -59.4557 9.5501e+01     3.6517      0.376      0.545    17.5452 0.0000e+00
      0.401      0.035     6.9202     72.220     40.149  34.167896     1.4177      9.153   -59.2472 8.3834e+01     3.7584      0.395      0.572    17.5420 0.0000e+00
      0.413      0.032     6.9135     72.230     40.129  34.150739     1.4229      9.153   -59.1933 7.2004e+01     3.7684      0.410      0.593    17.5403 0.0000e+00
      0.415      0.034     6.9067     72.265     40.151  34.167951     1.4087      9.154   -59.3204 6.2321e+01     3.6709      0.410      0.595    17.5409 0.0000e+00
      0.411      0.038     6.9037     72.289     40.176  34.185671     1.4130      9.154   -59.5795 5.6026e+01     3.6731      0.400      0.581    17.5455 0.0000e+00
      0.415      0.043     6.8979     72.316     40.169  34.174648     1.4335      9.154   -59.8308 5.2061e+01     3.7946      0.402      0.583    17.5484 0.0000e+00
      0.431      0.049     6.9000     72.356     40.157  34.161553     1.4397      9.153   -60.0367 5.0932e+01     3.8416      0.419      0.607    17.5471 0.0000e+00
      0.456      0.055     6.9060     72.356     40.150  34.154227     1.4385      9.153   -60.1758 5.1667e+01     3.7635      0.448      0.650    17.5460 0.0000e+00
      0.477      0.058     6.9078     72.290     40.143  34.149510     1.4435      9.154   -60.2217 5.3580e+01     3.6697      0.472      0.685    17.5409 0.0000e+00
      0.491      0.058     6.9096     72.182     40.163  34.167970     1.4590      9.154   -60.1613 5.7145e+01     3.6983      0.482      0.699    17.5331 0.0000e+00
      0.500      0.056     6.9182     72.086     40.184  34.187092     1.4841      9.154   -59.8763 6.2536e+01     3.7681      0.491      0.712    17.5290 0.0000e+00
      0.509      0.056     6.9186     72.061     40.189  34.190377     1.4973      9.153   -59.4433 6.8904e+01     3.7273      0.498      0.723    17.5284 0.0000e+00
      0.520      0.059     6.9106     72.091     40.209  34.207681     1.4848      9.153   -58.9685 7.4176e+01     3.6488      0.508      0.737    17.5300 0.0000e+00
      0.537      0.066     6.8991     72.138     40.205  34.205979     1.4578      9.154   -58.5238 7.6446e+01     3.6737      0.526      0.762    17.5324 0.0000e+00
      0.558      0.073     6.8855     72.193     40.160  34.169804     1.4454      9.154   -58.2833 7.6061e+01     3.7896      0.547      0.794    17.5341 0.0000e+00
      0.580      0.078     6.8854     72.252     40.136  34.150967     1.4430      9.154   -58.2112 7.4591e+01     3.8196      0.569      0.825    17.5334 0.0000e+00
      0.600      0.080     6.8898     72.308     40.157  34.168558     1.4208      9.154   -58.1678 7.2276e+01     3.7636      0.588      0.853    17.5314 0.0000e+00
      0.622      0.077     6.8941     72.362     40.186  34.192153     1.4018      9.153   -58.1885 6.9254e+01     3.7952      0.608      0.883    17.5337 0.0000e+00
      0.644      0.070     6.8984     72.395     40.174  34.182474     1.4050      9.153   -58.3759 6.6518e+01     3.8939      0.633      0.918    17.5395 0.0000e+00
      0.663      0.061     6.9044     72.389     40.168  34.178422     1.4183      9.152   -58.5404 6.4044e+01     4.0014      0.652      0.945    17.5426 0.0000e+00
      0.678      0.051     6.9097     72.379     40.199  34.206608     1.4375      9.152   -58.6291 6.2463e+01     3.9678      0.667      0.967    17.5403 0.0000e+00
      0.689      0.042     6.9155     72.403     40.197  34.206035     1.4455      9.152   -58.8464 6.2459e+01     3.7610      0.677      0.982    17.5372 0.0000e+00
      0.694      0.035     6.9208     72.440     40.155  34.171505     1.4489      9.153   -59.1032 6.3222e+01     3.6874      0.681      0.989    17.5377 0.0000e+00
      0.699      0.030     6.9174     72.485     40.152  34.169785     1.4609      9.153   -59.2383 6.4657e+01     3.7602      0.685      0.994    17.5400 0.0000e+00
      0.705      0.028     6.9139     72.550     40.170  34.185230     1.4917      9.153   -59.1902 6.6960e+01     3.7879      0.691      1.001    17.5428 0.0000e+00
      0.712      0.028     6.9180     72.598     40.149  34.167917     1.5301      9.152   -58.9513 6.9366e+01     3.7489      0.698      1.013    17.5446 0.0000e+00
      0.722      0.029     6.9220     72.608     40.129  34.150794     1.5335      9.152   -58.6723 7.1684e+01     3.6646      0.707      1.027    17.5457 0.0000e+00
      0.730      0.030     6.9237     72.600     40.149  34.168525     1.5326      9.153   -58.4843 7.3901e+01     3.6561      0.717      1.039    17.5470 0.0000e+00
      0.737      0.030     6.9329     72.578     40.177  34.191965     1.5364      9.153   -58.3130 7.5262e+01     3.7831      0.722      1.047    17.5470 0.0000e+00
      0.744      0.029     6.9385     72.578     40.168  34.180430     1.5128      9.153   -58.0635 7.5419e+01     3.8675      0.728      1.057    17.5464 0.0000e+00
      0.753      0.027     6.9369     72.601     40.147  34.155942     1.4800      9.152   -57.8763 7.4729e+01     3.7883      0.738      1.072    17.5464 0.0000e+00
      0.761      0.026     6.9383     72.601     40.147  34.149655     1.4561      9.152   -57.8570 7.3681e+01     3.6453      0.747      1.083    17.5471 0.0000e+00
      0.766      0.026     6.9326     72.596     40.171  34.167855     1.4569      9.152   -57.9156 7.2512e+01     3.6425      0.752      1.091    17.5488 0.0000e+00
      0.771      0.026     6.9329     72.603     40.191  34.185655     1.4729      9.152   -58.0691 7.1282e+01     3.7195      0.756      1.098    17.5450 0.0000e+00
      0.777      0.028     6.9410     72.582     40.176  34.174532     1.4831      9.152   -58.4222 7.0290e+01     3.7234      0.762      1.105    17.5329 0.0000e+00
      0.783      0.033     6.9397     72.529     40.158  34.160269     1.4801      9.152   -58.7435 6.9683e+01     3.7224      0.767      1.113    17.5245 0.0000e+00
      0.791      0.041     6.9382     72.472     40.134  34.140087     1.4873      9.152   -58.8562 6.9234e+01     3.7080      0.775      1.124    17.5223 0.0000e+00
      0.801      0.051     6.9418     72.407     40.115  34.120850     1.5281      9.153   -59.0109 6.9101e+01     3.6858      0.786      1.140    17.5237 0.0000e+00
      0.814      0.061     6.9393     72.338     40.119  34.118010     1.5408      9.153   -59.1505 6.9250e+01     3.6593      0.796      1.155    17.5271 0.0000e+00
      0.832      0.071     6.9316     72.266     40.114  34.105736     1.5079      9.152   -59.0816 6.9491e+01     3.5931      0.814      1.181    17.5291 0.0000e+00
      0.853      0.077     6.9275     72.178     40.115  34.099325     1.4882      9.152   -58.8666 6.9443e+01     3.5686      0.836      1.211    17.5294 0.0000e+00
      0.878      0.079     6.9214     72.096     40.128  34.103939     1.5017      9.153   -58.7017 6.9044e+01     3.7040      0.860      1.248    17.5252 0.0000e+00
      0.904      0.078     6.9155     72.040     40.126  34.098068     1.5379      9.153   -58.7237 6.8898e+01     3.9326      0.888      1.288    17.5173 0.0000e+00
      0.924      0.075     6.9114     71.994     40.122  34.091771     1.5519      9.153   -58.7876 6.8698e+01     3.9754      0.909      1.318    17.5076 0.0000e+00
      0.938      0.069     6.9034     71.973     40.126  34.091250     1.5299      9.153   -58.7864 6.8388e+01     3.8798      0.920      1.334    17.4969 0.0000e+00
      0.951      0.060     6.8949     71.986     40.133  34.091761     1.5129      9.153   -58.7948 6.7370e+01     3.9037      0.929      1.349    17.4889 0.0000e+00
      0.969      0.051     6.8927     72.002     40.144  34.097945     1.5042      9.154   -58.8891 6.5645e+01     3.9911      0.951      1.379    17.4843 0.0000e+00
      0.986      0.043     6.8872     72.023     40.151  34.102569     1.5001      9.154   -59.0663 6.4720e+01     4.0141      0.970      1.406    17.4808 0.0000e+00
      0.996      0.037     6.8845     72.054     40.132  34.084218     1.4882      9.154   -59.3029 6.4258e+01     3.9429      0.978      1.419    17.4766 0.0000e+00
      1.001      0.031     6.8899     72.058     40.114  34.066395     1.4604      9.153   -59.5125 6.3937e+01     3.8131      0.982      1.424    17.4688 0.0000e+00
      1.005      0.025     6.8909     71.996     40.128  34.077411     1.4631      9.153   -59.6212 6.3831e+01     3.7426      0.984      1.428    17.4640 0.0000e+00
      1.010      0.021     6.8923     71.886     40.141  34.090515     1.4956      9.152   -59.7574 6.3415e+01     3.7404      0.991      1.437    17.4654 0.0000e+00
      1.016      0.021     6.8974     71.760     40.146  34.097946     1.5127      9.152   -60.1266 6.3063e+01     3.7867      0.997      1.445    17.4620 0.0000e+00
      1.020      0.022     6.9007     71.631     40.150  34.103817     1.5206      9.152   -60.6441 6.3113e+01     3.8583      1.000      1.451    17.4563 0.0000e+00
      1.025      0.024     6.8935     71.518     40.144  34.098063     1.5397      9.152   -60.9374 6.3204e+01     3.9223      1.005      1.458    17.4560 0.0000e+00
      1.031      0.027     6.8810     71.442     40.139  34.091825     1.5694      9.152   -61.0059 6.3266e+01     3.9801      1.011      1.466    17.4584 0.0000e+00
      1.038      0.031     6.8687     71.427     40.144  34.091825     1.6052      9.152   -61.1280 6.3368e+01     3.9767      1.018      1.476    17.4633 0.0000e+00
      1.047      0.034     6.8543     71.472     40.158  34.098055     1.6404      9.152   -61.2954 6.3502e+01     3.9147      1.025      1.487    17.4669 0.0000e+00
      1.057      0.036     6.8440     71.547     40.169  34.103704     1.6534      9.152   -61.3957 6.3468e+01     3.8451      1.037      1.503    17.4664 0.0000e+00
      1.068      0.037     6.8352     71.608     40.161  34.096677     1.6370      9.152   -61.4797 6.3116e+01     3.8523      1.049      1.521    17.4649 0.0000e+00
      1.077      0.037     6.8345     71.624     40.140  34.076538     1.6345      9.151   -61.7097 6.2611e+01     3.9340      1.057      1.534    17.4583 0.0000e+00
      1.086      0.036     6.8420     71.618     40.114  34.050547     1.6557      9.151   -62.0248 6.2031e+01     3.9452      1.065      1.545    17.4485 0.0000e+00
      1.095      0.035     6.8504     71.619     40.102  34.036185     1.6437      9.152   -62.1928 6.1852e+01     3.8165      1.075      1.559    17.4452 0.0000e+00
      1.104      0.035     6.8585     71.598     40.099  34.029775     1.5969      9.152   -62.1916 6.1792e+01     3.6418      1.082      1.570    17.4462 0.0000e+00
      1.112      0.034     6.8588     71.536     40.110  34.036488     1.5733      9.152   -62.0964 6.1277e+01     3.6093      1.090      1.581    17.4438 0.0000e+00
      1.122      0.034     6.8571     71.463     40.134  34.053896     1.5829      9.152   -61.9875 6.0855e+01     3.7303      1.101      1.596    17.4370 0.0000e+00
      1.131      0.033     6.8598     71.377     40.133  34.049915     1.5884      9.151   -61.9936 6.0425e+01     3.8413      1.110      1.610    17.4321 0.0000e+00
      1.140      0.033     6.8601     71.263     40.138  34.051797     1.5641      9.151   -62.0842 5.9796e+01     3.8578      1.118      1.621    17.4287 0.0000e+00
      1.147      0.032     6.8516     71.136     40.168  34.076656     1.5560      9.152   -62.2235 5.9326e+01     3.8958      1.125      1.631    17.4239 0.0000e+00
      1.155      0.030     6.8460     70.972     40.190  34.096691     1.5821      9.152   -62.4727 5.9042e+01     3.9941      1.133      1.643    17.4214 0.0000e+00
      1.163      0.030     6.8400     70.773     40.196  34.103708     1.6128      9.151   -62.6888 5.8960e+01     4.0207      1.141      1.655    17.4175 0.0000e+00
      1.170      0.029     6.8269     70.590     40.188  34.098054     1.6361      9.151   -62.7711 5.8942e+01     3.9443      1.148      1.665    17.4129 0.0000e+00
      1.177      0.027     6.8175     70.449     40.178  34.091777     1.6306      9.151   -62.8651 5.8716e+01     3.8224      1.154      1.674    17.4123 0.0000e+00
      1.185      0.025     6.8015     70.369     40.174  34.091257     1.6302      9.151   -62.9650 5.8424e+01     3.8116      1.162      1.685    17.4153 0.0000e+00
      1.192      0.023     6.7786     70.360     40.172  34.091777     1.6639      9.151   -62.9462 5.8471e+01     3.8467      1.168      1.696    17.4174 0.0000e+00
      1.197      0.021     6.7614     70.385     40.176  34.098064     1.7050      9.151   -62.9817 5.8560e+01     3.8023      1.174      1.703    17.4183 0.0000e+00
      1.201      0.021     6.7465     70.433     40.179  34.103831     1.7112      9.151   -63.2220 5.8464e+01     3.7528      1.178      1.709    17.4215 0.0000e+00
      1.205      0.020     6.7370     70.504     40.169  34.098063     1.6804      9.151   -63.4427 5.8400e+01     3.6593      1.181      1.714    17.4248 0.0000e+00
      1.210      0.020     6.7388     70.565     40.159  34.091774     1.6664      9.151   -63.5001 5.7879e+01     3.6283      1.186      1.719    17.4276 0.0000e+00
      1.216      0.020     6.7404     70.589     40.158  34.091245     1.6669      9.151   -63.5711 5.7023e+01     3.6848      1.192      1.728    17.4310 0.0000e+00
      1.222      0.019     6.7434     70.585     40.158  34.091661     1.6439      9.151   -63.7851 5.6371e+01     3.6596      1.199      1.738    17.4361 0.0000e+00
      1.228      0.017     6.7521     70.575     40.165  34.096804     1.6136      9.151   -64.0231 5.5932e+01     3.5970      1.205      1.747    17.4399 0.0000e+00
      1.232      0.014     6.7583     70.569     40.157  34.089989     1.6084      9.150   -64.1251 5.5924e+01     3.5768      1.209      1.754    17.4412 0.0000e+00
      1.235      0.012     6.7601     70.574     40.134  34.072699     1.6305      9.150   -64.2446 5.6061e+01     3.6538      1.211      1.758    17.4430 0.0000e+00
      1.237      0.011     6.7583     70.578     40.136  34.078098     1.6472      9.149   -64.5218 5.6133e+01     3.7085      1.213      1.759    17.4432 0.0000e+00
      1.237      0.012     6.7581     70.570     40.147  34.091816     1.6360      9.149   -64.6367 5.6263e+01     3.6234      1.213      1.759    17.4409 0.0000e+00
      1.238      0.016     6.7567     70.559     40.167  34.111678     1.6203      9.149   -64.6007 5.6102e+01     3.5813      1.212      1.759    17.4406 0.0000e+00
      1.242      0.022     6.7577     70.554     40.187  34.127927     1.6153      9.150   -64.6899 5.5598e+01     3.7127      1.216      1.764    17.4433 0.0000e+00
      1.249      0.027     6.7576     70.567     40.152  34.097934     1.6178      9.150   -64.8552 5.5076e+01     3.9134      1.225      1.777    17.4492 0.0000e+00
      1.259      0.031     6.7553     70.602     40.115  34.066260     1.6083      9.150   -65.0500 5.4300e+01     3.9586      1.234      1.790    17.4561 0.0000e+00
      1.270      0.035     6.7534     70.656     40.114  34.062185     1.5841      9.149   -65.2382 5.3381e+01     3.8831      1.244      1.805    17.4600 0.0000e+00
      1.280      0.037     6.7528     70.742     40.109  34.048664     1.5997      9.149   -65.4102 5.2896e+01     3.9569      1.255      1.822    17.4582 0.0000e+00
      1.289      0.037     6.7544     70.877     40.104  34.029650     1.6552      9.149   -65.4950 5.2332e+01     4.1340      1.265      1.834    17.4558 0.0000e+00
      1.296      0.035     6.7572     71.011     40.117  34.022615     1.6817      9.149   -65.4027 5.1368e+01     4.2140      1.271      1.842    17.4590 0.0000e+00
      1.306      0.032     6.7633     71.096     40.139  34.027022     1.6610      9.149   -65.3268 5.0273e+01     4.1722      1.279      1.855    17.4548 0.0000e+00
      1.316      0.030     6.7705     71.136     40.138  34.019469     1.5884      9.149   -65.3516 4.9286e+01     4.0043      1.292      1.874    17.4438 0.0000e+00
      1.324      0.028     6.7894     71.154     40.111  33.994724     1.5027      9.150   -65.3589 4.8703e+01     3.8576      1.301      1.888    17.4261 0.0000e+00
      1.329      0.026     6.8080     71.114     40.097  33.981609     1.4827      9.150   -65.3287 4.8330e+01     3.7997      1.303      1.890    17.3978 0.0000e+00
      1.333      0.023     6.8184     70.945     40.109  33.987792     1.4963      9.149   -65.2451 4.7902e+01     3.7482      1.306      1.893    17.3777 0.0000e+00
      1.340      0.021     6.8217     70.673     40.140  34.006031     1.4840      9.149   -65.2072 4.7402e+01     3.7125      1.314      1.906    17.3717 0.0000e+00
      1.346      0.020     6.8238     70.372     40.156  34.011790     1.4583      9.150   -65.3008 4.7086e+01     3.6750      1.322      1.917    17.3718 0.0000e+00
      1.350      0.022     6.8251     70.070     40.141  33.993967     1.4603      9.150   -65.4312 4.6956e+01     3.7051      1.325      1.921    17.3717 0.0000e+00
      1.354      0.026     6.8077     69.789     40.130  33.980863     1.4833      9.150   -65.5789 4.6660e+01     3.7354      1.327      1.924    17.3668 0.0000e+00
      1.358      0.031     6.7794     69.548     40.134  33.980240     1.4783      9.150   -65.7969 4.6246e+01     3.6664      1.331      1.931    17.3544 0.0000e+00
      1.366      0.038     6.7526     69.338     40.147  33.986424     1.4334      9.151   -66.0011 4.5622e+01     3.6209      1.339      1.941    17.3429 0.0000e+00
      1.376      0.046     6.7231     69.177     40.159  33.992181     1.3906      9.151   -66.0692 4.4722e+01     3.6979      1.348      1.955    17.3391 0.0000e+00
      1.391      0.051     6.6953     69.097     40.157  33.986405     1.3926      9.150   -66.1897 4.3671e+01     3.8116      1.363      1.976    17.3354 0.0000e+00
      1.408      0.053     6.6744     69.068     40.153  33.980023     1.4166      9.150   -66.4262 4.2407e+01     3.7665      1.381      2.002    17.3298 0.0000e+00
      1.426      0.051     6.6541     69.003     40.153  33.978454     1.4136      9.150   -66.5189 4.1282e+01     3.6648      1.399      2.029    17.3236 0.0000e+00
      1.440      0.046     6.6377     68.898     40.140  33.967430     1.4068      9.150   -66.6224 4.0578e+01     3.7433      1.415      2.052    17.3173 0.0000e+00
      1.450      0.040     6.6312     68.788     40.145  33.973620     1.4179      9.150   -66.9043 4.0081e+01     3.9293      1.423      2.064    17.3122 0.0000e+00
      1.455      0.035     6.6343     68.643     40.163  33.989865     1.4229      9.150   -67.1733 3.9636e+01     4.0357      1.426      2.069    17.3083 0.0000e+00
      1.461      0.031     6.6282     68.471     40.144  33.973512     1.4002      9.150   -67.3794 3.9079e+01     3.9716      1.432      2.078    17.3058 0.0000e+00
      1.468      0.030     6.6142     68.320     40.139  33.966224     1.3511      9.150   -67.5032 3.8390e+01     3.8371      1.440      2.089    17.3057 0.0000e+00
      1.477      0.030     6.6071     68.208     40.140  33.965184     1.3372      9.149   -67.5526 3.7767e+01     3.8442      1.449      2.102    17.3096 0.0000e+00
      1.486      0.031     6.5918     68.155     40.137  33.960938     1.3576      9.148   -67.5466 3.7211e+01     3.9550      1.457      2.114    17.3125 0.0000e+00
      1.493      0.031     6.5726     68.160     40.159  33.978332     1.3733      9.148   -67.4298 3.6737e+01     4.0148      1.465      2.125    17.3106 0.0000e+00
      1.500      0.031     6.5594     68.185     40.168  33.985157     1.3770      9.148   -67.3456 3.6364e+01     3.9864      1.471      2.134    17.3074 0.0000e+00
      1.508      0.030     6.5475     68.182     40.163  33.980015     1.3606      9.147   -67.4746 3.5883e+01     3.8858      1.478      2.143    17.3044 0.0000e+00
      1.516      0.029     6.5427     68.156     40.163  33.979599     1.3584      9.146   -67.6989 3.5332e+01     3.8568      1.487      2.157    17.3021 0.0000e+00
      1.525      0.029     6.5450     68.152     40.164  33.980128     1.3673      9.146   -67.8214 3.4957e+01     3.9087      1.497      2.171    17.3006 0.0000e+00
      1.532      0.030     6.5494     68.185     40.172  33.986406     1.3681      9.146   -67.9228 3.4682e+01     3.9330      1.503      2.179    17.2993 0.0000e+00
      1.537      0.031     6.5496     68.218     40.181  33.992070     1.3683      9.146   -68.1510 3.4378e+01     3.9116      1.508      2.187    17.2984 0.0000e+00
      1.543      0.033     6.5442     68.230     40.174  33.985158     1.3531      9.146   -68.5147 3.4005e+01     3.8203      1.512      2.194    17.2982 0.0000e+00
      1.552      0.035     6.5434     68.236     40.153  33.966278     1.3334      9.145   -68.8784 3.3493e+01     3.7523      1.521      2.205    17.2979 0.0000e+00
      1.564      0.036     6.5488     68.245     40.139  33.954127     1.3302      9.145   -69.1931 3.2901e+01     3.7043      1.533      2.223    17.2969 0.0000e+00
      1.576      0.036     6.5532     68.245     40.152  33.965133     1.3310      9.144   -69.5666 3.2380e+01     3.6148      1.546      2.242    17.2952 0.0000e+00
      1.587      0.034     6.5536     68.222     40.161  33.972461     1.3265      9.143   -69.7810 3.1994e+01     3.5589      1.557      2.259    17.2935 0.0000e+00
      1.595      0.031     6.5535     68.146     40.169  33.979276     1.3255      9.143   -69.8066 3.1679e+01     3.5406      1.565      2.270    17.2923 0.0000e+00
      1.601      0.027     6.5558     68.036     40.175  33.984099     1.3361      9.142   -69.9623 3.1382e+01     3.5984      1.571      2.278    17.2917 0.0000e+00
      1.605      0.024     6.5552     67.948     40.155  33.967325     1.3464      9.142   -70.2866 3.1078e+01     3.6773      1.574      2.284    17.2914 0.0000e+00
      1.610      0.024     6.5553     67.903     40.155  33.966797     1.3415      9.143   -70.6300 3.0649e+01     3.6409      1.579      2.290    17.2916 0.0000e+00
      1.616      0.025     6.5475     67.894     40.168  33.977707     1.3524      9.143   -70.8443 3.0038e+01     3.6360      1.584      2.297    17.2920 0.0000e+00
      1.623      0.028     6.5331     67.897     40.162  33.972355     1.4109      9.143   -70.9853 2.9348e+01     3.7893      1.590      2.307    17.2917 0.0000e+00
      1.631      0.033     6.5257     67.880     40.155  33.965529     1.4751      9.143   -71.1299 2.8640e+01     3.9563      1.599      2.320    17.2912 0.0000e+00
      1.639      0.036     6.5207     67.833     40.148  33.958617     1.4874      9.143   -71.3020 2.7887e+01     3.9826      1.608      2.331    17.2905 0.0000e+00
      1.648      0.038     6.5213     67.769     40.141  33.952226     1.4675      9.142   -71.6036 2.6962e+01     3.9026      1.614      2.340    17.2900 0.0000e+00
      1.660      0.039     6.5226     67.692     40.141  33.951696     1.4679      9.142   -72.0245 2.5890e+01     3.8766      1.627      2.359    17.2898 0.0000e+00
      1.673      0.040     6.5219     67.597     40.142  33.952216     1.4834      9.141   -72.4331 2.4953e+01     3.9070      1.643      2.383    17.2887 0.0000e+00
      1.682      0.042     6.5166     67.532     40.150  33.958503     1.4891      9.141   -72.7578 2.4208e+01     3.9276      1.650      2.394    17.2870 0.0000e+00
      1.688      0.042     6.5098     67.490     40.158  33.964270     1.4776      9.141   -73.1118 2.3457e+01     3.9216      1.654      2.398    17.2861 0.0000e+00
      1.699      0.041     6.5048     67.429     40.152  33.958504     1.4532      9.141   -73.6149 2.2622e+01     3.8338      1.665      2.413    17.2861 0.0000e+00
      1.714      0.040     6.4913     67.369     40.144  33.952226     1.4519      9.141   -74.1948 2.1867e+01     3.7549      1.681      2.439    17.2863 0.0000e+00
      1.726      0.041     6.4861     67.343     40.144  33.951811     1.4791      9.141   -74.6173 2.1232e+01     3.7192      1.693      2.456    17.2860 0.0000e+00
      1.734      0.045     6.4854     67.377     40.146  33.953485     1.4820      9.141   -74.9372 2.0660e+01     3.6411      1.702      2.468    17.2846 0.0000e+00
      1.741      0.051     6.4774     67.468     40.168  33.972461     1.4614      9.141   -75.3948 2.0138e+01     3.5961      1.707      2.477    17.2834 0.0000e+00
      1.750      0.056     6.4711     67.576     40.191  33.990917     1.4555      9.141   -75.8481 1.9453e+01     3.7216      1.712      2.483    17.2830 0.0000e+00
      1.766      0.061     6.4672     67.675     40.186  33.986297     1.4695      9.141   -76.2886 1.8513e+01     3.9293      1.728      2.507    17.2833 0.0000e+00
      1.789      0.065     6.4702     67.771     40.180  33.980048     1.4884      9.141   -76.8497 1.7549e+01     3.9897      1.757      2.547    17.2845 0.0000e+00
      1.812      0.067     6.4810     67.846     40.179  33.978800     1.4760      9.141   -77.3842 1.6781e+01     3.9049      1.780      2.581    17.2848 0.0000e+00
      1.829      0.066     6.4930     67.881     40.170  33.971209     1.4364      9.140   -77.8465 1.6219e+01     3.8262      1.794      2.602    17.2831 0.0000e+00
      1.843      0.063     6.5010     67.861     40.147  33.951708     1.4169      9.140   -78.2234 1.5733e+01     3.8579      1.807      2.620    17.2813 0.0000e+00
      1.856      0.059     6.5120     67.794     40.126  33.933346     1.4232      9.140   -78.5002 1.5256e+01     3.9467      1.820      2.639    17.2807 0.0000e+00
      1.870      0.054     6.5196     67.722     40.133  33.939528     1.4301      9.140   -78.6982 1.4800e+01     3.9437      1.832      2.659    17.2803 0.0000e+00
      1.884      0.049     6.5238     67.665     40.161  33.963014     1.4326      9.139   -78.7238 1.4347e+01     3.7867      1.847      2.680    17.2801 0.0000e+00
      1.899      0.040     6.5220     67.634     40.161  33.963534     1.4452      9.139   -78.7240 1.3920e+01     3.6538      1.864      2.703    17.2800 0.0000e+00
      1.913      0.028     6.5129     67.631     40.140  33.945814     1.4657      9.139   -78.8720 1.3596e+01     3.7040      1.878      2.724    17.2800 0.0000e+00
      1.920      0.017     6.5061     67.633     40.131  33.939102     1.4727      9.138   -79.0509 1.3438e+01     3.7780      1.887      2.736    17.2803 0.0000e+00
      1.920      0.009     6.4999     67.613     40.138  33.945826     1.4396      9.138   -79.2524 1.3423e+01     3.7294      1.886      2.735    17.2804 0.0000e+00
      1.914      0.006     6.4968     67.573     40.159  33.963659     1.3733      9.138   -79.5870 1.3464e+01     3.5944      1.878      2.723    17.2804 0.0000e+00
      1.908      0.009     6.4974     67.519     40.160  33.964387     1.3443      9.138   -79.9997 1.3442e+01     3.5798      1.868      2.709    17.2803 0.0000e+00
      1.908      0.018     6.4989     67.469     40.149  33.954628     1.3645      9.138   -80.2843 1.3252e+01     3.7247      1.867      2.707    17.2806 0.0000e+00
      1.917      0.033     6.4964     67.451     40.171  33.972555     1.3759      9.138   -80.4468 1.2982e+01     3.8432      1.879      2.725    17.2819 0.0000e+00
      1.930      0.048     6.4920     67.466     40.193  33.990812     1.3655      9.138   -80.6742 1.2717e+01     3.8497      1.893      2.745    17.2826 0.0000e+00
      1.944      0.058     6.4869     67.495     40.187  33.985036     1.3470      9.138   -80.9687 1.2381e+01     3.8045      1.905      2.763    17.2819 0.0000e+00
      1.963      0.062     6.4803     67.520     40.166  33.966155     1.3439      9.138   -81.2540 1.1993e+01     3.8429      1.924      2.791    17.2813 0.0000e+00
      1.985      0.058     6.4790     67.534     40.151  33.952851     1.3529      9.137   -81.5420 1.1660e+01     3.8708      1.948      2.825    17.2810 0.0000e+00
      2.004      0.050     6.4814     67.546     40.149  33.951074     1.3719      9.136   -81.8706 1.1414e+01     3.7998      1.967      2.853    17.2799 0.0000e+00
      2.016      0.041     6.4848     67.557     40.142  33.944672     1.4156      9.136   -82.3018 1.1259e+01     3.7700      1.979      2.870    17.2785 0.0000e+00
      2.021      0.033     6.4883     67.555     40.136  33.938885     1.4486      9.136   -82.8839 1.1174e+01     3.7835      1.983      2.876    17.2775 0.0000e+00
      2.022      0.028     6.4886     67.537     40.143  33.944547     1.4712      9.136   -83.4881 1.1082e+01     3.8269      1.983      2.876    17.2768 0.0000e+00
      2.025      0.027     6.4898     67.479     40.149  33.949691     1.5139      9.135   -84.0142 1.0931e+01     3.8162      1.984      2.877    17.2766 0.0000e+00
      2.031      0.031     6.4919     67.388     40.135  33.937636     1.5564      9.135   -84.5135 1.0718e+01     3.6540      1.990      2.886    17.2763 0.0000e+00
      2.041      0.038     6.4908     67.308     40.122  33.925676     1.5860      9.135   -84.8788 1.0476e+01     3.6084      2.002      2.903    17.2759 0.0000e+00
      2.054      0.047     6.4908     67.248     40.130  33.931974     1.5971      9.135   -85.0748 1.0251e+01     3.7086      2.016      2.922    17.2758 0.0000e+00
      2.067      0.053     6.4856     67.207     40.152  33.950335     1.6074      9.135   -85.3343 1.0033e+01     3.7387      2.027      2.939    17.2756 0.0000e+00
      2.081      0.055     6.4734     67.188     40.161  33.957342     1.6354      9.135   -85.6078 9.7867e+00     3.6984      2.040      2.958    17.2750 0.0000e+00
      2.098      0.054     6.4670     67.167     40.156  33.953246     1.6445      9.134   -85.7999 9.5466e+00     3.6315      2.056      2.982    17.2745 0.0000e+00
      2.115      0.051     6.4614     67.159     40.169  33.964263     1.6513      9.134   -86.1094 9.3646e+00     3.6465      2.076      3.010    17.2740 0.0000e+00
      2.128      0.046     6.4563     67.192     40.168  33.963649     1.6763      9.135   -86.5099 9.2331e+00     3.7438      2.090      3.032    17.2733 0.0000e+00
      2.137      0.040     6.4569     67.215     40.147  33.945827     1.6891      9.135   -86.8574 9.1359e+00     3.7823      2.097      3.042    17.2727 0.0000e+00
      2.144      0.035     6.4540     67.167     40.139  33.939115     1.6726      9.135   -87.2996 9.0508e+00     3.7029      2.103      3.050    17.2724 0.0000e+00
      2.152      0.031     6.4507     67.052     40.147  33.945945     1.6352      9.133   -87.8982 8.9643e+00     3.5689      2.110      3.060    17.2723 0.0000e+00
      2.159      0.029     6.4568     66.910     40.169  33.964959     1.5942      9.133   -88.4169 8.8858e+00     3.5630      2.117      3.071    17.2725 0.0000e+00
      2.167      0.027     6.4619     66.792     40.186  33.978677     1.5430      9.133   -88.7530 8.7891e+00     3.6660      2.125      3.081    17.2724 0.0000e+00
      2.175      0.026     6.4565     66.752     40.194  33.984917     1.4988      9.133   -88.9500 8.6817e+00     3.7205      2.134      3.094    17.2726 0.0000e+00
      2.182      0.026     6.4439     66.778     40.184  33.976961     1.4762      9.132   -89.0785 8.6038e+00     3.7096      2.141      3.104    17.2734 0.0000e+00
      2.186      0.025     6.4288     66.840     40.147  33.945930     1.4612      9.132   -89.2742 8.5264e+00     3.7060      2.144      3.110    17.2733 0.0000e+00
      2.191      0.024     6.4145     66.934     40.125  33.926945     1.4667      9.131   -89.6812 8.4158e+00     3.7449      2.149      3.117    17.2729 0.0000e+00
      2.198      0.023     6.4116     67.025     40.137  33.937751     1.4936      9.131   -90.2134 8.3002e+00     3.7021      2.155      3.125    17.2727 0.0000e+00
      2.205      0.023     6.4166     67.094     40.151  33.949693     1.4946      9.131   -90.5473 8.1973e+00     3.5983      2.163      3.137    17.2727 0.0000e+00
      2.212      0.023     6.4203     67.141     40.145  33.944444     1.4625      9.130   -90.8780 8.0993e+00     3.5492      2.170      3.147    17.2728 0.0000e+00
      2.218      0.022     6.4323     67.164     40.137  33.937730     1.4461      9.130   -92.0618 8.0263e+00     3.6206      2.174      3.154    17.2728 0.0000e+00
      2.223      0.021     6.4414     67.176     40.130  33.931962     1.4635      9.130   -94.1055 7.9686e+00     3.7786      2.180      3.161    17.2730 0.0000e+00
      2.227      0.020     6.4471     67.193     40.137  33.938155     1.4810      9.130   -95.9711 7.8936e+00     3.7849      2.184      3.168    17.2736 0.0000e+00
      2.231      0.019     6.4526     67.212     40.150  33.949162     1.4754      9.130   -97.3249 7.8300e+00     3.6628      2.188      3.174    17.2740 0.0000e+00
      2.236      0.019     6.4540     67.222     40.137  33.938156     1.5037      9.130   -98.4284 7.7792e+00     3.6686      2.193      3.180    17.2740 0.0000e+00
      2.242      0.019     6.4545     67.236     40.130  33.931964     1.5733      9.129   -99.3326 7.7214e+00     3.7870      2.198      3.188    17.2739 0.0000e+00
      2.247      0.020     6.4560     67.245     40.137  33.937731     1.6091      9.129  -100.0846 7.6813e+00     3.8304      2.204      3.197    17.2737 0.0000e+00
      2.252      0.020     6.4588     67.200     40.145  33.944443     1.6042      9.130  -100.8093 7.6592e+00     3.7492      2.209      3.203    17.2736 0.0000e+00
      2.257      0.020     6.4592     67.115     40.152  33.949683     1.5970      9.130  -101.4694 7.6211e+00     3.6936      2.212      3.208    17.2733 0.0000e+00
      2.262      0.019     6.4598     67.030     40.138  33.937636     1.6222      9.129  -101.9582 7.5659e+00     3.8070      2.218      3.217    17.2729 0.0000e+00
      2.267      0.016     6.4642     66.924     40.124  33.925676     1.6590      9.129  -102.3304 7.5199e+00     3.9595      2.225      3.227    17.2728 0.0000e+00
      2.272      0.013     6.4593     66.834     40.132  33.931964     1.6673      9.129  -102.5283 7.4891e+00     4.0004      2.229      3.234    17.2727 0.0000e+00
      2.275      0.010     6.4471     66.823     40.153  33.950211     1.6479      9.128  -102.4582 7.4782e+00     3.8909      2.232      3.238    17.2724 0.0000e+00
      2.277      0.006     6.4432     66.869     40.160  33.955970     1.6158      9.127  -102.2572 7.4809e+00     3.6946      2.233      3.238    17.2717 0.0000e+00
      2.278      0.002     6.4308     66.945     40.139  33.938156     1.6114      9.127  -102.1629 7.4885e+00     3.6421      2.234      3.240    17.2711 0.0000e+00
      2.278     -0.001     6.4180     67.067     40.123  33.925156     1.6449      9.127  -102.0922 7.5036e+00     3.7348      2.235      3.241    17.2710 0.0000e+00
      2.277     -0.001     6.4198     67.216     40.123  33.925677     1.6631      9.126  -101.9190 7.5200e+00     3.7561      2.233      3.239    17.2711 0.0000e+00
      2.275      0.001     6.4255     67.330     40.146  33.944455     1.6323      9.126  -101.7893 7.5352e+00     3.6609      2.230      3.235    17.2711 0.0000e+00
      2.274      0.005     6.4308     67.389     40.167  33.961862     1.5881      9.126  -101.7292 7.5388e+00     3.5744      2.229      3.233    17.2717 0.0000e+00
      2.274      0.010     6.4429     67.394     40.148  33.945811     1.5785      9.125  -101.7079 7.5114e+00     3.5983      2.229      3.234    17.2725 0.0000e+00
      2.277      0.015     6.4609     67.356     40.142  33.940715     1.5995      9.125  -101.6181 7.4483e+00     3.6766      2.231      3.237    17.2724 0.0000e+00
      2.284      0.018     6.4717     67.327     40.170  33.963691     1.6003      9.126  -101.4179 7.3463e+00     3.6665      2.238      3.247    17.2720 0.0000e+00
      2.293      0.018     6.4768     67.336     40.178  33.969836     1.5713      9.126  -101.3519 7.2442e+00     3.5788      2.250      3.263    17.2721 0.0000e+00
      2.300      0.017     6.4785     67.358     40.156  33.951565     1.5568      9.126  -101.3363 7.2038e+00     3.5729      2.259      3.275    17.2723 0.0000e+00
      2.303      0.015     6.4713     67.381     40.134  33.933108     1.5753      9.126  -101.0569 7.2038e+00     3.6971      2.260      3.276    17.2714 0.0000e+00
      2.303      0.014     6.4678     67.392     40.139  33.937012     1.5948      9.126  -100.6412 7.1942e+00     3.7830      2.258      3.274    17.2705 0.0000e+00
      2.303      0.013     6.4706     67.380     40.137  33.935330     1.5763      9.126  -100.2680 7.1587e+00     3.7235      2.258      3.274    17.2702 0.0000e+00
      2.307      0.016     6.4726     67.345     40.110  33.912770     1.5605      9.125   -99.9857 7.0856e+00     3.6955      2.262      3.279    17.2700 0.0000e+00
      2.314      0.023     6.4752     67.292     40.116  33.918017     1.5696      9.124   -99.8955 7.0031e+00     3.7851      2.269      3.291    17.2700 0.0000e+00
      2.319      0.038     6.4771     67.240     40.137  33.935329     1.5614      9.125   -99.8658 6.9611e+00     3.8853      2.275      3.301    17.2701 0.0000e+00
      2.324      0.058     6.4755     67.210     40.133  33.931746     1.5361      9.126   -99.6262 6.9096e+00     3.9161      2.278      3.303    17.2705 0.0000e+00
      2.334      0.081     6.4721     67.201     40.141  33.938138     1.5134      9.127   -99.3222 6.7408e+00     3.8841      2.284      3.312    17.2704 0.0000e+00
      2.357      0.101     6.4667     67.212     40.155  33.949171     1.5206      9.127   -99.2013 6.4324e+00     3.9077      2.306      3.344    17.2702 0.0000e+00
      2.393      0.116     6.4601     67.225     40.142  33.938261     1.5906      9.128   -99.1967 6.0649e+00     3.9288      2.344      3.399    17.2699 0.0000e+00
      2.437      0.123     6.4583     67.214     40.136  33.933109     1.6841      9.128   -99.1807 5.7417e+00     3.8996      2.391      3.467    17.2696 0.0000e+00
      2.478      0.122     6.4570     67.189     40.156  33.950317     1.7194      9.128   -99.0937 5.5004e+00     3.8966      2.434      3.529    17.2690 0.0000e+00
      2.510      0.113     6.4586     67.158     40.163  33.955990     1.7004      9.129   -99.0060 5.3235e+00     3.8583      2.465      3.574    17.2687 0.0000e+00
      2.532      0.101     6.4615     67.109     40.142  33.938262     1.7054      9.129   -98.9804 5.1977e+00     3.8471      2.485      3.604    17.2687 0.0000e+00
      2.548      0.090     6.4596     67.056     40.128  33.926301     1.7547      9.129   -99.1283 5.0762e+00     3.8636      2.499      3.623    17.2686 0.0000e+00
      2.567      0.084     6.4566     67.037     40.142  33.938261     1.7799      9.129   -99.3310 4.9028e+00     3.8186      2.515      3.648    17.2687 0.0000e+00
      2.590      0.082     6.4547     67.083     40.163  33.955980     1.7601      9.130   -99.3668 4.7075e+00     3.8153      2.541      3.685    17.2687 0.0000e+00
      2.612      0.084     6.4494     67.161     40.156  33.950203     1.7483      9.131   -99.3890 4.5424e+00     3.8574      2.563      3.717    17.2686 0.0000e+00
      2.633      0.087     6.4429     67.194     40.135  33.931852     1.7540      9.131   -99.4270 4.3961e+00     3.9175      2.582      3.745    17.2685 0.0000e+00
      2.655      0.087     6.4395     67.170     40.126  33.924430     1.7540      9.131   -99.3969 4.2661e+00     3.9618      2.605      3.778    17.2684 0.0000e+00
      2.677      0.083     6.4444     67.125     40.125  33.923910     1.7317      9.131   -99.3684 4.1413e+00     3.8805      2.625      3.808    17.2683 0.0000e+00
      2.700      0.076     6.4567     67.079     40.127  33.925565     1.7005      9.131   -99.3414 3.9847e+00     3.8229      2.646      3.838    17.2681 0.0000e+00
      2.724      0.066     6.4596     67.044     40.150  33.944435     1.6931      9.131   -99.3284 3.8533e+00     3.9144      2.674      3.879    17.2681 0.0000e+00
      2.743      0.057     6.4551     67.020     40.170  33.961738     1.7012      9.132   -99.3831 3.8033e+00     3.9956      2.694      3.909    17.2681 0.0000e+00
      2.752      0.048     6.4511     67.008     40.149  33.944435     1.6977      9.132   -99.4864 3.7869e+00     3.9507      2.700      3.915    17.2682 0.0000e+00
      2.757      0.040     6.4452     67.008     40.127  33.925565     1.6677      9.132   -99.6306 3.7501e+00     3.8499      2.702      3.919    17.2680 0.0000e+00
      2.763      0.034     6.4426     66.995     40.126  33.923911     1.6219      9.131   -99.7509 3.6896e+00     3.8009      2.708      3.928    17.2681 0.0000e+00
      2.774      0.030     6.4404     66.980     40.127  33.924441     1.5850      9.130   -99.7350 3.6290e+00     3.8024      2.720      3.945    17.2682 0.0000e+00
      2.785      0.029     6.4378     66.987     40.136  33.931967     1.5715      9.129   -99.6969 3.5938e+00     3.8001      2.733      3.964    17.2681 0.0000e+00
      2.792      0.028     6.4409     66.998     40.160  33.951472     1.5666      9.129   -99.7208 3.5812e+00     3.7392      2.740      3.974    17.2679 0.0000e+00
      2.796      0.025     6.4385     67.006     40.181  33.969932     1.5676      9.128   -99.6800 3.5603e+00     3.6470      2.742      3.978    17.2673 0.0000e+00
      2.801      0.021     6.4350     67.009     40.176  33.964836     1.5998      9.128   -99.5474 3.5292e+00     3.6421      2.745      3.982    17.2668 0.0000e+00
      2.807      0.017     6.4381     66.993     40.166  33.953301     1.6481      9.127   -99.4086 3.5067e+00     3.7145      2.752      3.992    17.2662 0.0000e+00
      2.812      0.015     6.4387     66.955     40.175  33.957350     1.6771      9.126   -99.2919 3.4973e+00     3.7695      2.759      4.000    17.2662 0.0000e+00
      2.816      0.013     6.4393     66.883     40.170  33.950341     1.6766      9.126   -99.0824 3.4778e+00     3.7269      2.762      4.006    17.2666 0.0000e+00
      2.818      0.010     6.4408     66.771     40.150  33.932000     1.6746      9.126   -98.8551 3.4486e+00     3.6438      2.764      4.009    17.2662 0.0000e+00
      2.820      0.009     6.4391     66.649     40.143  33.925910     1.6943      9.126   -98.7811 3.4449e+00     3.6863      2.765      4.010    17.2633 0.0000e+00
      2.821      0.011     6.4366     66.542     40.161  33.940157     1.7232      9.126   -98.7891 3.4528e+00     3.7628      2.766      4.012    17.2574 0.0000e+00
      2.821      0.014     6.4314     66.457     40.207  33.977371     1.7329      9.126   -98.7801 3.4355e+00     3.7149      2.766      4.012    17.2534 0.0000e+00
      2.823      0.016     6.4186     66.388     40.232  33.995195     1.7117      9.126   -98.6722 3.3944e+00     3.6197      2.767      4.013    17.2526 0.0000e+00
      2.829      0.018     6.4063     66.310     40.201  33.965317     1.6913      9.126   -98.4312 3.3398e+00     3.6029      2.773      4.022    17.2517 0.0000e+00
      2.839      0.018     6.3963     66.225     40.163  33.933342     1.7023      9.126   -98.1025 3.2856e+00     3.6816      2.785      4.039    17.2516 0.0000e+00
      2.847      0.019     6.3877     66.180     40.152  33.925807     1.7293      9.125   -97.7953 3.2710e+00     3.7518      2.795      4.054    17.2504 0.0000e+00
      2.848      0.022     6.3836     66.184     40.163  33.937664     1.7262      9.125   -97.4704 3.2877e+00     3.7001      2.795      4.054    17.2440 0.0000e+00
      2.848      0.027     6.3773     66.182     40.175  33.949814     1.7137      9.125   -97.1859 3.2844e+00     3.6367      2.791      4.047    17.2372 0.0000e+00
      2.853      0.032     6.3666     66.152     40.167  33.945821     1.7119      9.125   -97.1938 3.2468e+00     3.7029      2.795      4.054    17.2385 0.0000e+00
      2.863      0.040     6.3603     66.113     40.172  33.952838     1.7050      9.125   -97.2217 3.1832e+00     3.7835      2.807      4.071    17.2437 0.0000e+00
      2.877      0.048     6.3642     66.082     40.193  33.971210     1.7051      9.125   -97.0928 3.1057e+00     3.7907      2.821      4.091    17.2456 0.0000e+00
      2.893      0.053     6.3640     66.060     40.205  33.977621     1.6960      9.125   -97.0984 3.0210e+00     3.7900      2.837      4.115    17.2486 0.0000e+00
      2.910      0.054     6.3592     66.051     40.200  33.966910     1.6952      9.125   -97.2902 2.9349e+00     3.8438      2.855      4.140    17.2527 0.0000e+00
      2.925      0.050     6.3548     66.060     40.209  33.968594     1.7207      9.124   -97.4328 2.8844e+00     3.9290      2.870      4.161    17.2562 0.0000e+00
      2.938      0.044     6.3514     66.079     40.249  33.997964     1.7382      9.124   -97.4453 2.8565e+00     3.9663      2.881      4.178    17.2582 0.0000e+00
      2.948      0.037     6.3501     66.119     40.260  34.004792     1.7242      9.125   -97.5276 2.8125e+00     3.9519      2.891      4.194    17.2535 0.0000e+00
      2.956      0.031     6.3493     66.166     40.242  33.987699     1.6925      9.125   -97.5682 2.7797e+00     3.8929      2.900      4.206    17.2428 0.0000e+00
      2.961      0.029     6.3531     66.189     40.235  33.981631     1.6871      9.125   -97.4195 2.7602e+00     3.9012      2.904      4.212    17.2343 0.0000e+00
      2.966      0.032     6.3540     66.205     40.250  33.994869     1.7086      9.124   -97.1922 2.7351e+00     4.0523      2.909      4.219    17.2309 0.0000e+00
      2.971      0.037     6.3584     66.240     40.282  34.020873     1.7110      9.124   -96.8852 2.7061e+00     4.1143      2.914      4.225    17.2268 0.0000e+00
      2.979      0.043     6.3663     66.252     40.314  34.042261     1.6913      9.125   -96.5465 2.6584e+00     4.0361      2.918      4.232    17.2239 0.0000e+00
      2.993      0.049     6.3664     66.191     40.352  34.063122     1.6787      9.125   -96.2805 2.5835e+00     4.0298      2.933      4.254    17.2256 0.0000e+00
      3.012      0.054     6.3664     66.087     40.388  34.082748     1.6671      9.126   -96.0785 2.5077e+00     4.0718      2.955      4.286    17.2266 0.0000e+00
      3.028      0.058     6.3713     65.950     40.403  34.089218     1.6588      9.126   -95.8243 2.4562e+00     4.0310      2.971      4.311    17.2267 0.0000e+00
      3.041      0.060     6.3768     65.747     40.393  34.077884     1.6533      9.126   -95.5308 2.4059e+00     3.9815      2.982      4.325    17.2219 0.0000e+00
      3.056      0.060     6.3705     65.503     40.384  34.072599     1.6347      9.125   -95.3686 2.3391e+00     3.9850      2.996      4.345    17.2026 0.0000e+00
      3.071      0.061     6.3613     65.219     40.399  34.088764     1.6245      9.123   -95.3258 2.2856e+00     4.0059      3.013      4.371    17.1873 0.0000e+00
      3.086      0.062     6.3532     64.887     40.394  34.083007     1.6295      9.123   -95.1850 2.2437e+00     4.0970      3.025      4.389    17.1815 0.0000e+00
      3.101      0.062     6.3308     64.557     40.380  34.066432     1.6206      9.123   -94.8718 2.1877e+00     4.1646      3.039      4.408    17.1751 0.0000e+00
      3.120      0.063     6.3071     64.237     40.400  34.078697     1.5921      9.123   -94.5507 2.1351e+00     4.1059      3.060      4.438    17.1811 0.0000e+00
      3.138      0.065     6.2808     63.909     40.437  34.104396     1.5686      9.123   -94.3127 2.0973e+00     4.1039      3.079      4.466    17.1891 0.0000e+00
      3.152      0.070     6.2454     63.639     40.469  34.123365     1.5190      9.123   -94.2322 2.0566e+00     4.2424      3.092      4.484    17.1862 0.0000e+00
      3.166      0.074     6.2143     63.464     40.471  34.117702     1.4334      9.123   -94.2651 1.9993e+00     4.4146      3.102      4.499    17.1789 0.0000e+00
      3.184      0.078     6.1874     63.343     40.456  34.099372     1.3741      9.122   -94.1947 1.9116e+00     4.4441      3.120      4.525    17.1728 0.0000e+00
      3.208      0.081     6.1519     63.230     40.452  34.092058     1.3435      9.122   -94.1552 1.8228e+00     4.3258      3.145      4.562    17.1673 0.0000e+00
      3.233      0.082     6.1255     63.104     40.457  34.092709     1.3297      9.122   -94.2177 1.7689e+00     4.2827      3.172      4.600    17.1558 0.0000e+00
      3.256      0.079     6.1134     62.976     40.478  34.107235     1.3327      9.121   -94.2614 1.7191e+00     4.2982      3.194      4.632    17.1443 0.0000e+00
      3.277      0.072     6.1029     62.854     40.521  34.140799     1.3288      9.120   -94.4267 1.6637e+00     4.2747      3.215      4.663    17.1386 0.0000e+00
      3.295      0.064     6.0946     62.733     40.570  34.181297     1.3155      9.120   -94.6670 1.6274e+00     4.2030      3.234      4.691    17.1355 0.0000e+00
      3.308      0.055     6.0810     62.599     40.615  34.216218     1.3295      9.119   -94.7577 1.6034e+00     4.0801      3.245      4.706    17.1309 0.0000e+00
      3.319      0.049     6.0700     62.468     40.655  34.245800     1.3822      9.118   -94.8345 1.5811e+00     4.0867      3.254      4.720    17.1253 0.0000e+00
      3.329      0.044     6.0581     62.392     40.709  34.285185     1.4288      9.117   -94.9935 1.5645e+00     4.2151      3.267      4.738    17.1224 0.0000e+00
      3.339      0.041     6.0475     62.371     40.749  34.311735     1.4351      9.116   -94.9600 1.5439e+00     4.2320      3.276      4.751    17.1224 0.0000e+00
      3.349      0.039     6.0349     62.351     40.759  34.313025     1.4083      9.114   -94.7730 1.5059e+00     4.1544      3.282      4.762    17.1202 0.0000e+00
      3.360      0.037     6.0199     62.318     40.752  34.300767     1.3623      9.113   -94.7116 1.4725e+00     4.0963      3.295      4.780    17.1142 0.0000e+00
      3.371      0.036     6.0134     62.274     40.746  34.290407     1.3207      9.112   -94.6480 1.4620e+00     4.1109      3.308      4.798    17.1068 0.0000e+00
      3.379      0.036     6.0156     62.174     40.781  34.314643     1.3132      9.111   -94.5196 1.4601e+00     4.1254      3.315      4.807    17.0962 0.0000e+00
      3.386      0.037     6.0157     61.982     40.815  34.340021     1.3129      9.111   -94.5357 1.4457e+00     4.0670      3.320      4.814    17.0870 0.0000e+00
      3.395      0.037     6.0108     61.706     40.823  34.343464     1.3178      9.111   -94.5856 1.4162e+00     4.0882      3.329      4.828    17.0809 0.0000e+00
      3.405      0.037     6.0115     61.403     40.843  34.356269     1.3388      9.110   -94.5199 1.3941e+00     4.2103      3.339      4.842    17.0737 0.0000e+00
      3.415      0.037     6.0028     61.117     40.863  34.367940     1.3502      9.109   -94.4297 1.3745e+00     4.2794      3.348      4.856    17.0677 0.0000e+00
      3.429      0.040     5.9853     60.827     40.854  34.357675     1.3643      9.108   -94.3560 1.3524e+00     4.2409      3.362      4.877    17.0640 0.0000e+00
      3.439      0.047     5.9564     60.572     40.857  34.359047     1.3676      9.106   -94.3170 1.3512e+00     4.1879      3.376      4.898    17.0607 0.0000e+00
      3.444      0.054     5.9249     60.394     40.890  34.384530     1.3562      9.106   -94.3020 1.3437e+00     4.2882      3.377      4.897    17.0550 0.0000e+00
      3.452      0.061     5.9017     60.238     40.929  34.411998     1.3522      9.105   -94.2609 1.2994e+00     4.4632      3.378      4.899    17.0478 0.0000e+00
      3.473      0.066     5.8716     60.073     40.966  34.437368     1.3522      9.104   -94.1636 1.2437e+00     4.5284      3.402      4.934    17.0444 0.0000e+00
      3.500      0.073     5.8439     59.956     40.971  34.437483     1.3397      9.104   -94.0718 1.1971e+00     4.4614      3.436      4.982    17.0449 0.0000e+00
      3.523      0.079     5.8306     59.893     40.946  34.413385     1.3008      9.104   -94.1842 1.1586e+00     4.3352      3.458      5.015    17.0426 0.0000e+00
      3.539      0.082     5.8190     59.856     40.933  34.399782     1.2888      9.104   -94.4893 1.1134e+00     4.3357      3.470      5.034    17.0344 0.0000e+00
      3.556      0.081     5.7991     59.821     40.940  34.399897     1.3120      9.103   -94.7498 1.0618e+00     4.4675      3.484      5.053    17.0261 0.0000e+00
      3.577      0.079     5.7894     59.756     40.967  34.414771     1.3069      9.102   -94.9245 1.0170e+00     4.5277      3.507      5.086    17.0213 0.0000e+00
      3.602      0.077     5.7850     59.672     41.021  34.452714     1.2601      9.100   -95.1397 9.7820e-01     4.4490      3.533      5.125    17.0192 0.0000e+00
      3.624      0.073     5.7816     59.587     41.058  34.477979     1.2210      9.099   -95.3724 9.5592e-01     4.3361      3.555      5.158    17.0169 0.0000e+00
      3.642      0.067     5.7819     59.470     41.050  34.466454     1.2331      9.099   -95.5014 9.5038e-01     4.3240      3.572      5.180    17.0092 0.0000e+00
      3.658      0.059     5.7753     59.294     41.024  34.440256     1.2487      9.098   -95.5808 9.3462e-01     4.3365      3.588      5.204    16.9978 0.0000e+00
      3.671      0.053     5.7676     59.092     40.998  34.415003     1.2272      9.096   -95.7304 9.0200e-01     4.2810      3.603      5.224    16.9889 0.0000e+00
      3.681      0.048     5.7611     58.902     41.002  34.414901     1.2054      9.096   -95.9333 8.7603e-01     4.2687      3.609      5.235    16.9828 0.0000e+00
      3.690      0.046     5.7531     58.758     41.037  34.439012     1.2015      9.095   -96.1407 8.6571e-01     4.2898      3.618      5.248    16.9760 0.0000e+00
      3.701      0.046     5.7338     58.711     41.059  34.452741     1.2213      9.093   -96.3447 8.4417e-01     4.3320      3.629      5.263    16.9705 0.0000e+00
      3.714      0.047     5.7137     58.766     41.065  34.453999     1.2626      9.092   -96.5937 8.1300e-01     4.4367      3.642      5.282    16.9679 0.0000e+00
      3.726      0.047     5.6955     58.879     41.068  34.454219     1.2845      9.091   -96.9146 7.9990e-01     4.4973      3.655      5.302    16.9639 0.0000e+00
      3.739      0.044     5.6788     58.987     41.072  34.455395     1.2770      9.090   -97.1278 7.8762e-01     4.5522      3.666      5.317    16.9572 0.0000e+00
      3.753      0.041     5.6764     59.082     41.088  34.468211     1.2729      9.090   -97.1913 7.7004e-01     4.6223      3.680      5.338    16.9506 0.0000e+00
      3.765      0.042     5.6826     59.195     41.106  34.482276     1.3259      9.089   -97.3390 7.6499e-01     4.7643      3.694      5.360    16.9460 0.0000e+00
      3.771      0.048     5.6977     59.303     41.128  34.498558     1.4265      9.089   -97.6231 7.6886e-01     5.0046      3.700      5.367    16.9433 0.0000e+00
      3.774      0.057     5.7085     59.363     41.179  34.538189     1.4743      9.089   -97.9593 7.6411e-01     5.0683      3.699      5.365    16.9409 0.0000e+00
      3.784      0.065     5.7149     59.384     41.238  34.580769     1.4792      9.088   -98.3066 7.3778e-01     5.2611      3.704      5.372    16.9397 0.0000e+00
      3.808      0.071     5.7281     59.415     41.311  34.632698     1.6767      9.088   -98.6386 6.9342e-01     7.6091      3.730      5.410    16.9387 0.0000e+00
      3.840      0.075     5.7402     59.452     41.428  34.721917     2.0651      9.087   -98.9623 6.4244e-01    11.7330      3.770      5.467    16.9372 0.0000e+00
      3.867      0.078     5.7466     59.451     42.179  35.342260     2.2876      9.086   -99.2949 6.1065e-01    13.8918      3.797      5.506    16.9339 0.0000e+00
      3.883      0.078     5.7467     59.413     44.862  37.564784     2.2946      9.085   -99.5632 6.0976e-01    14.0354      3.810      5.526    16.9251 0.0000e+00
      3.894      0.078     5.7508     59.333     48.327  40.399698     2.2167      9.085   -99.7102 6.0857e-01    14.3235      3.818      5.539    16.9128 0.0000e+00
      3.905      0.079     5.7598     59.179     52.213  43.537220     2.1029      9.085   -99.7817 5.8299e-01    14.8810      3.825      5.549    16.9031 0.0000e+00
      3.925      0.083     5.7585     58.919     57.986  48.206066     2.0420      9.085   -99.8257 5.5020e-01    15.1395      3.846      5.578    16.8923 0.0000e+00
      3.954      0.088     5.7562     58.451     63.192  52.347858     2.0310      9.085   -99.8973 5.2904e-01    15.0582      3.875      5.621    16.8880 0.0000e+00
      3.985      0.091     5.7587     57.435     66.726  55.076228     1.9947      9.085  -100.0455 5.1160e-01    14.9229      3.909      5.670    16.8131 0.0000e+00
      4.012      0.090     5.7591     55.284     69.173  56.934372     1.7440      9.082  -100.2413 4.9581e-01    14.5624      3.939      5.713    16.6917 0.0000e+00
      4.031      0.085     5.7475     51.539     68.907  56.586040     1.3138      9.077  -100.3717 4.7632e-01    14.0134      3.954      5.734    16.5912 0.0000e+00
      4.047      0.077     5.7318     46.222     66.306  54.357619     1.0792      9.067  -100.3316 4.4106e-01    13.7506      3.967      5.753    16.4245 0.0000e+00
      4.066      0.067     5.6778     39.764     63.500  52.029324     1.0551      9.055  -100.1010 4.1207e-01    13.8450      3.987      5.783    16.2514 0.0000e+00
      4.085      0.058     5.4976     32.661     61.719  50.598609     0.9557      9.042   -99.8198 4.0374e-01    15.2226      4.007      5.812    16.1478 0.0000e+00
      4.102      0.050     5.1385     25.329     60.470  49.632203     0.7599      9.029   -99.7703 4.0191e-01    17.7676      4.023      5.834    16.0481 0.0000e+00
      4.114      0.045     4.6040     18.411     58.587  48.154519     0.6522      9.017  -100.0195 3.9219e-01    19.1341      4.036      5.854    15.9612 0.0000e+00
      4.120      0.043     3.9484     12.831     57.652  47.462023     0.6600      9.005  -100.2520 3.8390e-01    19.3791      4.042      5.863    15.9495 0.0000e+00
      4.124      0.043     3.2340      9.156     60.052  49.449700     0.6796      8.994  -100.2582 3.8835e-01    20.4562      4.042      5.862    15.9795 0.0000e+00
      4.132      0.044     2.4899      7.382     63.469  52.059272     0.6564      8.987  -100.0944 3.8795e-01    22.2505      4.049      5.872    16.0343 0.0000e+00
      4.147      0.044     1.7624      7.298     64.772  52.726435     0.6133      8.982   -99.9059 3.8125e-01    23.1750      4.065      5.896    16.0896 0.0000e+00
      4.166      0.044     1.1912      8.690     65.152  52.690589     0.5911      8.977   -99.8725 3.7360e-01    23.2991      4.085      5.927    16.1618 0.0000e+00
      4.181      0.045     0.8340     11.245     65.264  52.641634     0.5870      8.972  -100.0342 3.6000e-01    23.9214      4.103      5.951    16.2461 0.0000e+00
      4.190      0.047     0.6695     14.299     65.056  52.388370     0.5886      8.967  -100.2267 3.4718e-01    24.9600      4.111      5.964    16.0960 0.0000e+00
      4.194      0.052     0.6752     16.948     65.571  52.549473     0.5846      8.962  -100.3923 3.3196e-01    25.4735      4.112      5.964    15.6622 0.0000e+00
      4.201      0.062     0.8250     18.522     66.313  52.684151     0.5636      8.954  -100.3164 3.1561e-01    25.5189      4.116      5.970    15.3561 0.0000e+00
      4.215      0.075     1.1061     18.884     66.592  52.428622     0.5103      8.941   -99.5673 3.0019e-01    25.6444      4.131      5.991    15.3096 0.0000e+00
      4.238      0.086     1.4482     18.234     66.637  52.126463     0.4644      8.925   -99.0778 2.7997e-01    25.9320      4.152      6.022    15.3145 0.0000e+00
      4.270      0.090     1.7466     16.805     66.656  51.951520     0.4660      8.908  -100.7650 2.6041e-01    26.1275      4.184      6.069    15.1508 0.0000e+00
      4.306      0.087     1.9240     14.786     66.614  51.837249     0.4723      8.890  -104.3940 2.4285e-01    26.1300      4.225      6.129    14.7168 0.0000e+00
      4.334      0.079     1.9680     12.357     66.391  51.633765     0.4405      8.873  -107.9380 2.3260e-01    25.7224      4.258      6.175    14.3105 0.0000e+00
      4.347      0.068     1.9028      9.767     65.970  51.269224     0.3812      8.860  -110.5764 2.3114e-01    24.9569      4.267      6.187    14.0726 0.0000e+00
      4.352      0.055     1.7549      7.352     65.607  50.922081     0.3630      8.849  -112.6336 2.3059e-01    24.5939      4.265      6.186    13.9348 0.0000e+00
      4.360      0.044     1.5424      5.340     65.547  50.801902     0.3945      8.838  -114.4846 2.2271e-01    24.6470      4.273      6.197    13.8922 0.0000e+00
      4.373      0.038     1.2838      3.802     65.652  50.832049     0.3961      8.828  -116.1799 2.1646e-01    24.6433      4.289      6.220    13.8873 0.0000e+00
      4.387      0.037     1.0018      2.773     65.696  50.842025     0.3659      8.819  -117.3855 2.1418e-01    24.5489      4.304      6.242    13.8646 0.0000e+00
      4.397      0.038     0.7440      2.248     65.733  50.858995     0.3534      8.811  -117.9628 2.0194e-01    24.4964      4.314      6.257    13.8069 0.0000e+00
      4.402      0.038     0.5373      2.178     65.798  50.910228     0.3534      8.804  -118.2554 1.9560e-01    24.5203      4.317      6.261    13.7420 0.0000e+00
      4.407      0.039     0.3753      2.513     65.673  50.826488     0.3576      8.796  -118.6014 1.9568e-01    24.5987      4.320      6.265    13.7007 0.0000e+00
      4.417      0.040     0.2692      3.143     65.399  50.608500     0.3800      8.787  -119.0477 1.8947e-01    24.5222      4.330      6.281    13.6897 0.0000e+00
      4.430      0.042     0.2174      3.898     65.314  50.496994     0.3904      8.781  -119.6940 1.8534e-01    24.1425      4.345      6.302    13.6813 0.0000e+00
      4.444      0.045     0.2110      4.673     65.388  50.494184     0.3668      8.776  -120.5648 1.8277e-01    23.8325      4.358      6.321    13.6760 0.0000e+00
      4.458      0.049     0.2489      5.418     65.388  50.447460     0.3444      8.769  -121.6616 1.7983e-01    23.7803      4.372      6.341    13.6990 0.0000e+00
      4.468      0.056     0.3225      6.081     65.340  50.376487     0.3448      8.762  -123.1467 1.7088e-01    23.7848      4.384      6.358    13.7042 0.0000e+00
      4.477      0.065     0.4050      6.710     65.322  50.334494     0.3548      8.755  -125.0990 1.6120e-01    23.7841      4.389      6.367    13.6567 0.0000e+00
      4.490      0.072     0.4858      7.421     65.342  50.320676     0.3484      8.747  -127.3713 1.5590e-01    23.7385      4.398      6.379    13.6023 0.0000e+00
      4.513      0.077     0.5681      8.266     65.406  50.336374     0.3348      8.737  -129.8847 1.4288e-01    23.6086      4.422      6.412    13.5685 0.0000e+00
      4.544      0.081     0.6353      9.233     65.529  50.397257     0.3317      8.728  -132.5161 1.2974e-01    23.4095      4.457      6.464    13.5442 0.0000e+00
      4.572      0.083     0.6944     10.310     65.684  50.485295     0.3355      8.720  -134.9234 1.3273e-01    23.2443      4.489      6.510    13.5252 0.0000e+00
      4.590      0.083     0.7679     11.535     65.754  50.511832     0.3558      8.711  -137.0512 1.4298e-01    23.2500      4.503      6.531    13.5044 0.0000e+00
      4.602      0.079     0.8574     13.002     65.728  50.464089     0.3692      8.701  -138.9712 1.3974e-01    23.2736      4.510      6.542    13.4769 0.0000e+00
      4.619      0.075     0.9593     14.682     65.698  50.415994     0.3479      8.692  -140.5855 1.2883e-01    22.8472      4.528      6.568    13.4490 0.0000e+00
      4.641      0.073     1.0719     16.362     65.668  50.374777     0.3142      8.684  -141.9429 1.2428e-01    22.0565      4.552      6.602    13.4264 0.0000e+00
      4.664      0.072     1.1944     17.938     65.648  50.346702     0.3033      8.676  -143.1649 1.2384e-01    21.7062      4.574      6.634    13.4065 0.0000e+00
      4.684      0.069     1.3469     19.494     65.645  50.330517     0.3248      8.668  -144.0898 1.2381e-01    21.8229      4.594      6.664    13.3842 0.0000e+00
      4.701      0.062     1.5365     21.099     65.631  50.306053     0.3490      8.658  -144.7799 1.2377e-01    21.8279      4.610      6.686    13.3638 0.0000e+00
      4.716      0.053     1.7165     22.720     65.642  50.304879     0.3542      8.649  -145.4008 1.2373e-01    21.6644      4.625      6.708    13.3512 0.0000e+00
      4.729      0.044     1.8750     24.248     65.663  50.316318     0.3381      8.641  -145.8319 1.2375e-01    21.5194      4.639      6.728    13.3436 0.0000e+00
      4.739      0.038     2.0360     25.620     65.667  50.317357     0.3045      8.634  -146.2068 1.2379e-01    21.4758      4.649      6.742    13.3334 0.0000e+00
      4.745      0.034     2.2053     26.905     65.666  50.317442     0.2892      8.627  -146.6641 1.2379e-01    21.4790      4.653      6.748    13.3197 0.0000e+00
      4.750      0.031     2.3806     28.112     65.664  50.317348     0.3026      8.620  -147.1451 1.2378e-01    21.4899      4.657      6.754    13.3124 0.0000e+00
      4.756      0.031     2.5447     29.130     65.664  50.316213     0.3254      8.613  -147.7208 1.2377e-01    21.5041      4.664      6.764    13.3113 0.0000e+00
      4.765      0.031     2.6829     29.906     65.651  50.303724     0.3316      8.608  -148.2908 1.2376e-01    21.4463      4.673      6.778    13.3079 0.0000e+00
      4.776      0.030     2.8152     30.460     65.641  50.293336     0.3110      8.603  -148.6162 1.2374e-01    21.4403      4.684      6.793    13.3091 0.0000e+00
      4.786      0.029     2.9499     30.825     65.676  50.317601     0.3010      8.597  -148.7296 1.2371e-01    21.5671      4.694      6.808    13.3118 0.0000e+00
      4.793      0.028     3.0565     31.046     65.710  50.343126     0.3190      8.592  -148.8025 1.2370e-01    21.6479      4.703      6.821    13.3108 0.0000e+00
      4.798      0.028     3.1369     31.141     65.709  50.347957     0.3448      8.588  -148.9810 1.2372e-01    21.5974      4.707      6.826    13.3084 0.0000e+00
      4.801      0.031     3.1942     31.121     65.732  50.376019     0.3464      8.585  -149.1663 1.2377e-01    21.5032      4.707      6.826    13.3066 0.0000e+00
      4.806      0.036     3.2303     31.091     65.780  50.428446     0.3217      8.581  -149.0635 1.2380e-01    21.5669      4.711      6.834    13.3039 0.0000e+00
      4.816      0.042     3.2525     31.136     65.811  50.473879     0.3037      8.578  -148.5986 1.2375e-01    21.7878      4.723      6.850    13.3018 0.0000e+00
      4.830      0.049     3.2642     31.204     65.782  50.480897     0.3126      8.575  -147.9340 1.2370e-01    21.9543      4.735      6.867    13.3067 0.0000e+00
      4.845      0.056     3.2561     31.244     65.705  50.449837     0.3385      8.573  -147.2234 1.2371e-01    22.0421      4.750      6.891    13.3147 0.0000e+00
      4.862      0.062     3.2461     31.223     65.642  50.415852     0.3421      8.570  -146.5453 1.2376e-01    22.0293      4.769      6.918    13.3260 0.0000e+00
      4.877      0.067     3.2558     31.073     65.612  50.387488     0.3143      8.566  -146.0156 1.2379e-01    21.9371      4.784      6.938    13.3423 0.0000e+00
      4.892      0.070     3.2614     30.696     65.613  50.360878     0.2938      8.563  -145.5513 1.2378e-01    21.9174      4.797      6.957    13.3663 0.0000e+00
      4.910      0.071     3.2648     30.043     65.653  50.348064     0.3027      8.562  -144.9758 1.2373e-01    21.9968      4.813      6.981    13.3931 0.0000e+00
      4.932      0.071     3.2641     29.204     65.718  50.359497     0.3300      8.559  -144.4771 1.2372e-01    22.0768      4.835      7.013    13.4042 0.0000e+00
      4.953      0.070     3.2525     28.367     65.762  50.372074     0.3499      8.555  -144.0808 1.2377e-01    22.0644      4.859      7.048    13.4008 0.0000e+00
      4.972      0.068     3.2186     27.799     65.783  50.373117     0.3347      8.553  -143.1966 1.2382e-01    21.9830      4.878      7.074    13.3814 0.0000e+00
      4.987      0.065     3.1479     27.777     65.817  50.372090     0.3034      8.550  -141.3574 1.2380e-01    21.8795      4.891      7.093    13.3390 0.0000e+00
      5.001      0.061     3.0568     28.472     65.849  50.359624     0.2965      8.546  -139.0513 1.2380e-01    21.8367      4.904      7.113    13.3041 0.0000e+00
      5.015      0.057     2.9594     29.861     65.884  50.349346     0.3178      8.544  -136.9951 1.2386e-01    21.9779      4.918      7.133    13.2943 0.0000e+00
      5.030      0.056     2.8889     31.763     65.954  50.374765     0.3451      8.542  -135.0808 1.2387e-01    22.2895      4.933      7.154    13.2886 0.0000e+00
      5.045      0.056     2.8813     33.971     66.029  50.412935     0.3351      8.540  -133.0275 1.2383e-01    22.4964      4.947      7.176    13.2673 0.0000e+00
      5.059      0.056     2.9563     36.265     66.069  50.429860     0.3046      8.537  -131.0118 1.2377e-01    22.4629      4.962      7.196    13.2341 0.0000e+00
      5.071      0.055     3.1140     38.486     66.110  50.452385     0.3101      8.534  -129.1213 1.2378e-01    22.3970      4.973      7.212    13.2052 0.0000e+00
      5.085      0.054     3.3203     40.544     66.173  50.494788     0.3350      8.533  -127.2063 1.2383e-01    22.3828      4.985      7.230    13.1843 0.0000e+00
      5.101      0.053     3.5628     42.244     66.182  50.498064     0.3385      8.532  -125.3225 1.2380e-01    22.3600      5.003      7.258    13.1699 0.0000e+00
      5.116      0.055     3.8109     43.330     66.094  50.428491     0.3188      8.530  -123.6384 1.2378e-01    22.2921      5.019      7.281    13.1604 0.0000e+00
      5.127      0.058     4.0445     43.692     65.994  50.352046     0.2966      8.529  -122.2449 1.2382e-01    22.2096      5.026      7.291    13.1541 0.0000e+00
      5.138      0.061     4.2688     43.412     65.973  50.335745     0.3027      8.528  -120.9491 1.2384e-01    22.2171      5.036      7.305    13.1500 0.0000e+00
      5.154      0.065     4.4598     42.648     66.002  50.358393     0.3353      8.526  -119.5004 1.2384e-01    22.2807      5.054      7.330    13.1471 0.0000e+00
      5.174      0.070     4.5783     41.602     66.018  50.371894     0.3492      8.525  -117.9785 1.2379e-01    22.2955      5.074      7.359    13.1460 0.0000e+00
      5.194      0.076     4.6117     40.547     66.015  50.371985     0.3296      8.525  -116.2286 1.2375e-01    22.1918      5.095      7.390    13.1456 0.0000e+00
      5.212      0.082     4.5762     39.781     65.995  50.359503     0.3066      8.525  -114.0019 1.2380e-01    21.9828      5.111      7.414    13.1454 0.0000e+00
      5.231      0.084     4.4893     39.537     65.978  50.347969     0.3041      8.524  -111.3610 1.2380e-01    21.8519      5.128      7.437    13.1459 0.0000e+00
      5.255      0.082     4.3692     39.903     65.993  50.359524     0.3074      8.521  -108.5606 1.2375e-01    21.9066      5.154      7.475    13.1466 0.0000e+00
      5.281      0.078     4.2461     40.742     66.010  50.372223     0.3130      8.518  -106.1260 1.2375e-01    22.0298      5.181      7.515    13.1485 0.0000e+00
      5.303      0.072     4.1570     41.806     66.014  50.374513     0.3220      8.515  -104.2950 1.2384e-01    22.0432      5.202      7.546    13.1508 0.0000e+00
      5.321      0.065     4.1260     42.896     66.031  50.387211     0.3244      8.514  -102.7697 1.2389e-01    21.9659      5.221      7.572    13.1524 0.0000e+00
      5.335      0.055     4.1713     43.876     66.047  50.398756     0.3249      8.513  -101.2778 1.2384e-01    21.9495      5.233      7.590    13.1527 0.0000e+00
      5.345      0.045     4.2704     44.607     66.033  50.387108     0.3287      8.511   -99.7651 1.2380e-01    22.0843      5.241      7.603    13.1518 0.0000e+00
      5.355      0.036     4.3891     45.011     66.012  50.373369     0.3462      8.508   -98.4178 1.2380e-01    22.2641      5.251      7.617    13.1516 0.0000e+00
      5.365      0.029     4.5074     45.142     65.987  50.359629     0.3443      8.506   -97.2917 1.2378e-01    22.2783      5.262      7.632    13.1516 0.0000e+00
      5.371      0.023     4.6157     45.072     65.962  50.347979     0.3219      8.504   -96.1295 1.2372e-01    22.1873      5.267      7.639    13.1506 0.0000e+00
      5.375      0.017     4.6982     44.870     65.962  50.359523     0.3257      8.502   -94.9482 1.2372e-01    22.1201      5.271      7.645    13.1491 0.0000e+00
      5.379      0.012     4.7350     44.628     65.960  50.372220     0.3400      8.500   -93.9362 1.2382e-01    22.0806      5.275      7.653    13.1503 0.0000e+00
      5.381      0.008     4.7463     44.408     65.950  50.374519     0.3533      8.498   -93.1001 1.2388e-01    22.1206      5.277      7.655    13.1552 0.0000e+00
      5.381      0.007     4.7369     44.226     65.958  50.387330     0.3615      8.497   -92.4106 1.2381e-01    22.1930      5.278      7.654    13.1599 0.0000e+00
      5.381      0.007     4.7098     44.064     65.968  50.400133     0.3565      8.495   -91.7079 1.2376e-01    22.2052      5.277      7.653    13.1687 0.0000e+00
      5.382      0.007     4.6813     43.886     65.971  50.402328     0.3427      8.494   -90.8848 1.2377e-01    22.1315      5.276      7.652    13.1826 0.0000e+00
      5.385      0.007     4.6567     43.684     65.997  50.413875     0.3196      8.493   -90.0298 1.2372e-01    22.0525      5.280      7.658    13.1894 0.0000e+00
      5.390      0.007     4.6382     43.481     66.009  50.412731     0.3182      8.491   -89.1132 1.2370e-01    22.0704      5.287      7.668    13.1920 0.0000e+00
      5.392      0.010     4.6224     43.291     65.983  50.388488     0.3424      8.490   -88.2341 1.2377e-01    22.1092      5.288      7.672    13.2000 0.0000e+00
      5.391      0.020     4.6038     43.111     65.967  50.374739     0.3543      8.490   -87.4887 1.2377e-01    22.0775      5.286      7.667    13.2007 0.0000e+00
      5.391      0.036     4.5824     42.937     65.974  50.373489     0.3448      8.490   -86.8115 1.2371e-01    21.9605      5.286      7.666    13.1908 0.0000e+00
      5.394      0.056     4.5616     42.794     65.989  50.373368     0.3203      8.491   -86.3278 1.2369e-01    21.9238      5.285      7.667    13.1812 0.0000e+00
      5.409      0.075     4.5419     42.732     66.004  50.373255     0.2983      8.493   -85.8557 1.2372e-01    22.0097      5.297      7.682    13.1784 0.0000e+00
      5.439      0.089     4.5233     42.746     66.015  50.372110     0.3042      8.493   -85.2329 1.2377e-01    22.4187      5.330      7.730    13.1814 0.0000e+00
      5.478      0.094     4.5053     42.793     66.006  50.359516     0.3256      8.492   -84.6491 1.2377e-01    23.1793      5.374      7.794    13.1749 0.0000e+00
      5.512      0.091     4.4882     42.869     65.992  50.347970     0.3234      8.489   -84.1321 1.2374e-01    23.5547      5.412      7.849    13.1633 0.0000e+00
      5.533      0.080     4.4822     42.941     66.003  50.359506     0.3029      8.487   -83.7135 1.2376e-01    23.5411      5.431      7.876    13.1560 0.0000e+00
      5.544      0.062     4.4888     42.979     66.018  50.371996     0.2938      8.487   -83.2878 1.2378e-01    23.6981      5.436      7.884    13.1487 0.0000e+00
      5.554      0.044     4.4916     43.006     66.018  50.371995     0.3130      8.486   -82.8563 1.2375e-01    23.9845      5.446      7.899    13.1428 0.0000e+00
      5.564      0.031     4.5018     43.016     66.003  50.359495     0.3436      8.484   -82.5407 1.2370e-01    24.1342      5.458      7.916    13.1423 0.0000e+00
      5.571      0.025     4.5115     42.996     65.988  50.347856     0.3396      8.482   -82.2252 1.2370e-01    24.1074      5.464      7.925    13.1471 0.0000e+00
      5.574      0.021     4.5121     42.961     65.999  50.358257     0.3144      8.481   -81.9666 1.2376e-01    24.0702      5.466      7.928    13.1483 0.0000e+00
      5.577      0.018     4.5165     42.918     65.992  50.358257     0.3140      8.480   -81.7369 1.2378e-01    24.6407      5.470      7.933    13.1469 0.0000e+00
      5.582      0.016     4.5187     42.878     65.967  50.347865     0.3520      8.478   -81.3399 1.2373e-01    25.8132      5.474      7.939    13.1459 0.0000e+00
      5.586      0.016     4.5149     42.856     65.973  50.359616     0.3994      8.476   -80.9531 1.2366e-01    26.5312      5.478      7.945    13.1451 0.0000e+00
      5.591      0.016     4.5117     42.841     65.983  50.373355     0.4036      8.475   -80.7591 1.2367e-01    26.7292      5.483      7.953    13.1466 0.0000e+00
      5.595      0.016     4.5061     42.817     65.993  50.386992     0.4031      8.473   -80.5440 1.2376e-01    28.3097      5.487      7.958    13.1506 0.0000e+00
      5.598      0.016     4.5000     42.782     65.999  50.397505     0.4429      8.471   -80.2447 1.2382e-01    31.3613      5.490      7.963    13.1588 0.0000e+00
      5.602      0.015     4.4982     42.765     65.964  50.373478     0.4859      8.469   -79.8937 1.2379e-01    33.1221      5.494      7.968    13.1642 0.0000e+00
      5.606      0.014     4.4964     42.770     65.937  50.350475     0.5229      8.469   -79.3114 1.2372e-01    33.6122      5.498      7.974    13.1674 0.0000e+00
      5.610      0.013     4.4947     42.774     65.973  50.373367     0.5988      8.468   -78.6257 1.2371e-01    36.6384      5.501      7.979    13.1729 0.0000e+00
      5.614      0.013     4.4879     42.774     66.005  50.396267     0.6546      8.468   -78.3128 1.2370e-01    39.3777      5.506      7.986    13.1783 0.0000e+00
      5.617 -9.990e-29     4.4855 -9.990e-29 -9.990e-29 -9.990e-29 -9.990e-29 -9.990e-29 -9.990e-29 1.2372e-01 -9.990e-29      5.509      7.991    13.1818 0.0000e+00
      5.619 -9.990e-29     4.4886 -9.990e-29 -9.990e-29 -9.990e-29 -9.990e-29 -9.990e-29 -9.990e-29 1.2372e-01 -9.990e-29      5.510      7.992    13.1779 0.0000e+00
      5.620 -9.990e-29     4.4887 -9.990e-29 -9.990e-29 -9.990e-29 -9.990e-29 -9.990e-29 -9.990e-29 1.2371e-01 -9.990e-29      5.512      7.994    13.1730 0.0000e+00
      5.620 -9.990e-29     4.4889 -9.990e-29 -9.990e-29 -9.990e-29 -9.990e-29 -9.990e-29 -9.990e-29 1.2371e-01 -9.990e-29      5.512      7.995    13.1724 0.0000e+00
