* Sea-Bird SBE19plus  Data File:
* FileName = C:\R\Reservoirs\Data\DataNotYetUploadedToEDI\Raw_CTD\RawDownloads\100724_fcr50_S7809_0002.hex
* Software version 2.8.0.119
* Temperature SN = 7809
* Conductivity SN = 7809
* System UpLoad Time = Oct 24 2024 12:50:32
* <ApplicationData>
* <Seaterm232>
* <SoftwareVersion>2.8.0.119</SoftwareVersion>
* <BuildDate>07-Nov-2018</BuildDate>
* </Seaterm232>
* </ApplicationData>
* <InstrumentState>
* <HardwareData DeviceType='SBE19plus' SerialNumber='01907809'>
*
*    <Manufacturer>Sea-Bird Electronics, Inc.</Manufacturer>
*
*    <FirmwareVersion>3.1.8</FirmwareVersion>
*
*    <FirmwareDate>Mar  9 2016 16:22:29</FirmwareDate>
*
*    <CommandSetVersion>1.4</CommandSetVersion>
*
*    <PCBAssembly PCBSerialNum='120721' AssemblyNum='41054J'/>
*
*    <PCBAssembly PCBSerialNum='120715' AssemblyNum='41967A'/>
*
*    <PCBAssembly PCBSerialNum='116699' AssemblyNum='41606'/>
*
*    <PCBAssembly PCBSerialNum='120719' AssemblyNum='41059D'/>
*
*    <MfgDate>28-Apr-2017</MfgDate>
*
*    <InternalSensors>
*
*       <Sensor id='Main Temperature'>
*
*          <type>temperature0</type>
*
*          <SerialNumber>01907809</SerialNumber>
*
*       </Sensor>
*
*       <Sensor id='Main Conductivity'>
*
*          <type>conductivity-0</type>
*
*          <SerialNumber>01907809</SerialNumber>
*
*       </Sensor>
*
*       <Sensor id='Main Pressure'>
*
*          <type>strain-0</type>
*
*          <SerialNumber>10586018</SerialNumber>
*
*       </Sensor>
*
*    </InternalSensors>
*
*    <ExternalSensors>
*
*       <Sensor id='volt 0'>
*
*          <type>pH</type>
*
*          <SerialNumber>27-0363</SerialNumber>
*
*       </Sensor>
*
*       <Sensor id='volt 1'>
*
*          <type>ORP</type>
*
*          <SerialNumber>27-0363</SerialNumber>
*
*       </Sensor>
*
*       <Sensor id='volt 2'>
*
*          <type>OXY</type>
*
*          <SerialNumber>43-0434</SerialNumber>
*
*       </Sensor>
*
*       <Sensor id='volt 3'>
*
*          <type>PAR</type>
*
*          <SerialNumber>1122</SerialNumber>
*
*       </Sensor>
*
*       <Sensor id='volt 4'>
*
*          <type>ECO AFL/FL</type>
*
*          <SerialNumber>FLNTURT-2496</SerialNumber>
*
*       </Sensor>
*
*       <Sensor id='volt 5'>
*
*          <type>ECO-NTU</type>
*
*          <SerialNumber>FLNTURT-2496</SerialNumber>
*
*       </Sensor>
*
*       <Sensor id='serial'>
*
*          <type>not assigned</type>
*
*          <SerialNumber>not assigned</SerialNumber>
*
*       </Sensor>
*
*    </ExternalSensors>
*
* </HardwareData>
* <StatusData DeviceType='SBE19plus' SerialNumber='01907809'>
*
*    <DateTime>2024-10-24T12:49:18</DateTime>
*
*    <LoggingState>not logging</LoggingState>
*
*    <EventSummary numEvents='0'/>
*
*    <Power>
*
*       <vMain>13.8</vMain>
*
*       <vLith>8.3</vLith>
*
*       <iMain>63.0</iMain>
*
*       <iPump>41.3</iPump>
*
*       <iExt01>18.9</iExt01>
*
*       <iExt2345>35.6</iExt2345>
*
*    </Power>
*
*    <MemorySummary>
*
*       <Bytes>96784</Bytes>
*
*       <Samples>4208</Samples>
*
*       <SamplesFree>2856580</SamplesFree>
*
*       <SampleLength>23</SampleLength>
*
*       <Profiles>9</Profiles>
*
*    </MemorySummary>
*
* </StatusData>
* <ConfigurationData DeviceType='SBE19plus' SerialNumber='01907809'>
*
*    <ProfileMode>
*
*       <ScansToAverage>1</ScansToAverage>
*
*       <MinimumCondFreq>0</MinimumCondFreq>
*
*       <PumpDelay>45</PumpDelay>
*
*       <AutoRun>no</AutoRun>
*
*       <IgnoreSwitch>no</IgnoreSwitch>
*
*    </ProfileMode>
*
*    <Battery>
*
*       <Type>alkaline</Type>
*
*       <CutOff>7.5</CutOff>
*
*    </Battery>
*
*    <DataChannels>
*
*       <ExtVolt0>yes</ExtVolt0>
*
*       <ExtVolt1>yes</ExtVolt1>
*
*       <ExtVolt2>yes</ExtVolt2>
*
*       <ExtVolt3>yes</ExtVolt3>
*
*       <ExtVolt4>yes</ExtVolt4>
*
*       <ExtVolt5>yes</ExtVolt5>
*
*       <SBE38>no</SBE38>
*
*       <WETLABS>no</WETLABS>
*
*       <OPTODE>no</OPTODE>
*
*       <SBE63>no</SBE63>
*
*       <SeaFET>no</SeaFET>
*
*       <GTD>no</GTD>
*
*    </DataChannels>
*
*    <EchoCharacters>yes</EchoCharacters>
*
*    <OutputExecutedTag>yes</OutputExecutedTag>
*
*    <OutputFormat>raw HEX</OutputFormat>
*
* </ConfigurationData>
* <CalibrationCoefficients DeviceType='SBE19plus' SerialNumber='01907809'>
*
*    <Calibration format='TEMP1' id='Main Temperature'>
*
*       <SerialNum>01907809</SerialNum>
*
*       <CalDate>31-Jan-23</CalDate>
*
*       <TA0>1.218232e-03</TA0>
*
*       <TA1>2.815090e-04</TA1>
*
*       <TA2>-1.578887e-06</TA2>
*
*       <TA3>1.972343e-07</TA3>
*
*       <TOFFSET>0.000000e+00</TOFFSET>
*
*    </Calibration>
*
*    <Calibration format='WBCOND0' id='Main Conductivity'>
*
*       <SerialNum>01907809</SerialNum>
*
*       <CalDate>31-Jan-23</CalDate>
*
*       <G>-1.005652e+00</G>
*
*       <H>1.267963e-01</H>
*
*       <I>-1.561708e-04</I>
*
*       <J>2.645944e-05</J>
*
*       <CPCOR>-9.570000e-08</CPCOR>
*
*       <CTCOR>3.250000e-06</CTCOR>
*
*       <CSLOPE>1.000000e+00</CSLOPE>
*
*    </Calibration>
*
*    <Calibration format='STRAIN0' id='Main Pressure'>
*
*       <SerialNum>10586018</SerialNum>
*
*       <CalDate>20-Jan-23</CalDate>
*
*       <PA0>4.416439e-02</PA0>
*
*       <PA1>4.850502e-04</PA1>
*
*       <PA2>-3.090426e-12</PA2>
*
*       <PTCA0>5.254757e+05</PTCA0>
*
*       <PTCA1>1.050255e+01</PTCA1>
*
*       <PTCA2>-2.922435e-01</PTCA2>
*
*       <PTCB0>2.516687e+01</PTCB0>
*
*       <PTCB1>3.750000e-04</PTCB1>
*
*       <PTCB2>0.000000e+00</PTCB2>
*
*       <PTEMPA0>-5.470820e+01</PTEMPA0>
*
*       <PTEMPA1>5.485421e+01</PTEMPA1>
*
*       <PTEMPA2>-3.446578e-01</PTEMPA2>
*
*       <POFFSET>8.500000e-01</POFFSET>
*
*       <PRANGE>1.600000e+02</PRANGE>
*
*    </Calibration>
*
*    <Calibration format='VOLT0' id='Volt 0'>
*
*       <OFFSET>-4.920000e-02</OFFSET>
*
*       <SLOPE>1.248122e+00</SLOPE>
*
*    </Calibration>
*
*    <Calibration format='VOLT0' id='Volt 1'>
*
*       <OFFSET>-4.784000e-02</OFFSET>
*
*       <SLOPE>1.248871e+00</SLOPE>
*
*    </Calibration>
*
*    <Calibration format='VOLT0' id='Volt 2'>
*
*       <OFFSET>-4.864632e-02</OFFSET>
*
*       <SLOPE>1.248714e+00</SLOPE>
*
*    </Calibration>
*
*    <Calibration format='VOLT0' id='Volt 3'>
*
*       <OFFSET>-4.743790e-02</OFFSET>
*
*       <SLOPE>1.248571e+00</SLOPE>
*
*    </Calibration>
*
*    <Calibration format='VOLT0' id='Volt 4'>
*
*       <OFFSET>-4.671263e-02</OFFSET>
*
*       <SLOPE>1.248951e+00</SLOPE>
*
*    </Calibration>
*
*    <Calibration format='VOLT0' id='Volt 5'>
*
*       <OFFSET>-4.871053e-02</OFFSET>
*
*       <SLOPE>1.249136e+00</SLOPE>
*
*    </Calibration>
*
*    <Calibration format='FREQ0' id='external frequency channel'>
*
*       <EXTFREQSF>1.000014e+00</EXTFREQSF>
*
*    </Calibration>
*
* </CalibrationCoefficients>
* <EventCounters DeviceType='SBE19plus' SerialNumber='01907809'>
*
*    <EventSummary numEvents='0'/>
*
* </EventCounters></InstrumentState>
* <Headers>
*
* cast   2 15 Oct 2024 11:09:52 samples 1405 to 1657, avg = 1, stop = low batt
*
# nquan = 15
# nvalues = 253                         
# units = specified
# name 0 = depFM: Depth [fresh water, m]
# name 1 = dz/dtM: Descent Rate [m/s]
# name 2 = sbeox0Mg/L: Oxygen, SBE 43 [mg/l]
# name 3 = sbeox0PS: Oxygen, SBE 43 [% saturation]
# name 4 = specc: Specific Conductance [uS/cm]
# name 5 = c0uS/cm: Conductivity [uS/cm]
# name 6 = flECO-AFL: Fluorescence, WET Labs ECO-AFL/FL [mg/m^3]
# name 7 = ph: pH
# name 8 = orp: Oxidation Reduction Potential [mV]
# name 9 = par/sat/log: PAR/Logarithmic, Satlantic
# name 10 = turbWETntu0: Turbidity, WET Labs ECO [NTU]
# name 11 = prdM: Pressure, Strain Gauge [db]
# name 12 = prdE: Pressure, Strain Gauge [psi]
# name 13 = tv290C: Temperature [ITS-90, deg C]
# name 14 = flag:  0.000e+00
# span 0 =     -0.680,      0.055       
# span 1 =     -0.002,      4.442       
# span 2 =     5.0143,     8.0060       
# span 3 =     51.884,     82.699       
# span 4 =      3.088,     46.895       
# span 5 =   2.475738,  38.718245       
# span 6 =    -0.1533,     4.2955       
# span 7 =      8.017,      8.100       
# span 8 =   224.0327,   304.8257       
# span 9 = 4.9310e+01, 1.3353e+02       
# span 10 =     0.7283,    41.7296      
# span 11 =     -0.667,      0.055      
# span 12 =     -0.968,      0.079      
# span 13 =    15.0704,    17.1951      
# span 14 = 0.0000e+00, 0.0000e+00      
# interval = seconds: 0.25
# start_time = Oct 15 2024 11:09:52 [Instrument's time stamp, header]
# bad_flag = -9.990e-29
# <Sensors count="9" >
#   <sensor Channel="1" >
#     <!-- Count, Temperature -->
#     <TemperatureSensor SensorID="58" >
#       <SerialNumber>7809</SerialNumber>
#       <CalibrationDate>31-Jan-23</CalibrationDate>
#       <A0>1.21823180e-003</A0>
#       <A1>2.81508993e-004</A1>
#       <A2>-1.57888696e-006</A2>
#       <A3>1.97234302e-007</A3>
#       <Slope>1.00000000</Slope>
#       <Offset>0.0000</Offset>
#     </TemperatureSensor>
#   </sensor>
#   <sensor Channel="2" >
#     <!-- Frequency 0, Conductivity -->
#     <ConductivitySensor SensorID="3" >
#       <SerialNumber>7809</SerialNumber>
#       <CalibrationDate>31-Jan-23</CalibrationDate>
#       <UseG_J>1</UseG_J>
#       <!-- Cell const and series R are applicable only for wide range sensors. -->
#       <SeriesR>0.0000</SeriesR>
#       <CellConst>2000.0000</CellConst>
#       <ConductivityType>0</ConductivityType>
#       <Coefficients equation="0" >
#         <A>0.00000000e+000</A>
#         <B>0.00000000e+000</B>
#         <C>0.00000000e+000</C>
#         <D>0.00000000e+000</D>
#         <M>0.0</M>
#         <CPcor>-9.57000000e-008</CPcor>
#       </Coefficients>
#       <Coefficients equation="1" >
#         <G>-1.00565232e+000</G>
#         <H>1.26796307e-001</H>
#         <I>-1.56170788e-004</I>
#         <J>2.64594368e-005</J>
#         <CPcor>-9.57000000e-008</CPcor>
#         <CTcor>3.2500e-006</CTcor>
#         <!-- WBOTC not applicable unless ConductivityType = 1. -->
#         <WBOTC>0.00000000e+000</WBOTC>
#       </Coefficients>
#       <Slope>1.00000000</Slope>
#       <Offset>0.00000</Offset>
#     </ConductivitySensor>
#   </sensor>
#   <sensor Channel="3" >
#     <!-- Count, Pressure, Strain Gauge -->
#     <PressureSensor SensorID="46" >
#       <SerialNumber>7809</SerialNumber>
#       <CalibrationDate>20-Jan-23</CalibrationDate>
#       <PA0>4.41643944e-002</PA0>
#       <PA1>4.85050239e-004</PA1>
#       <PA2>-3.09042623e-012</PA2>
#       <PTEMPA0>-5.47081996e+001</PTEMPA0>
#       <PTEMPA1>5.48542136e+001</PTEMPA1>
#       <PTEMPA2>-3.44657813e-001</PTEMPA2>
#       <PTCA0>5.25475731e+005</PTCA0>
#       <PTCA1>1.05025484e+001</PTCA1>
#       <PTCA2>-2.92243463e-001</PTCA2>
#       <PTCB0>2.51668750e+001</PTCB0>
#       <PTCB1>3.75000000e-004</PTCB1>
#       <PTCB2>0.00000000e+000</PTCB2>
#       <Offset>0.000000</Offset>
#     </PressureSensor>
#   </sensor>
#   <sensor Channel="4" >
#     <!-- A/D voltage 0, Oxygen, SBE 43 -->
#     <OxygenSensor SensorID="38" >
#       <SerialNumber>0434</SerialNumber>
#       <CalibrationDate>18-Feb-23</CalibrationDate>
#       <Use2007Equation>1</Use2007Equation>
#       <CalibrationCoefficients equation="0" >
#         <!-- Coefficients for Owens-Millard equation. -->
#         <Boc>0.0000</Boc>
#         <Soc>0.0000e+000</Soc>
#         <offset>0.0000</offset>
#         <Pcor>0.00e+000</Pcor>
#         <Tcor>0.0000</Tcor>
#         <Tau>0.0</Tau>
#       </CalibrationCoefficients>
#       <CalibrationCoefficients equation="1" >
#         <!-- Coefficients for Sea-Bird equation - SBE calibration in 2007 and later. -->
#         <Soc>5.1878e-001</Soc>
#         <offset>-0.5046</offset>
#         <A>-4.2788e-003</A>
#         <B> 1.5372e-004</B>
#         <C>-2.1853e-006</C>
#         <D0> 2.5826e+000</D0>
#         <D1> 1.92634e-004</D1>
#         <D2>-4.64803e-002</D2>
#         <E> 3.6000e-002</E>
#         <Tau20> 0.9900</Tau20>
#         <H1>-3.3000e-002</H1>
#         <H2> 5.0000e+003</H2>
#         <H3> 1.4500e+003</H3>
#       </CalibrationCoefficients>
#     </OxygenSensor>
#   </sensor>
#   <sensor Channel="5" >
#     <!-- A/D voltage 1, PAR/Logarithmic, Satlantic -->
#     <PARLog_SatlanticSensor SensorID="76" >
#       <SerialNumber>1122</SerialNumber>
#       <CalibrationDate>08-Sep-2021</CalibrationDate>
#       <a0>9.6751e-001</a0>
#       <a1>8.0992e-001</a1>
#       <Im>1.3589e+000</Im>
#       <Multiplier>1.0000e+000</Multiplier>
#     </PARLog_SatlanticSensor>
#   </sensor>
#   <sensor Channel="6" >
#     <!-- A/D voltage 2, pH -->
#     <pH_Sensor SensorID="43" >
#       <SerialNumber>0363</SerialNumber>
#       <CalibrationDate>28-Feb-23</CalibrationDate>
#       <Slope>4.7364</Slope>
#       <Offset>2.5433</Offset>
#     </pH_Sensor>
#   </sensor>
#   <sensor Channel="7" >
#     <!-- A/D voltage 3, Oxidation Reduction Potential -->
#     <OxidationReductionPotentialSensor SensorID="41" >
#       <SerialNumber>0363</SerialNumber>
#       <CalibrationDate>28-Feb-23</CalibrationDate>
#       <B>2.499480</B>
#       <M>-0.496195</M>
#       <Offset>0.0</Offset>
#     </OxidationReductionPotentialSensor>
#   </sensor>
#   <sensor Channel="8" >
#     <!-- A/D voltage 4, Fluorometer, WET Labs ECO-AFL/FL -->
#     <FluoroWetlabECO_AFL_FL_Sensor SensorID="20" >
#       <SerialNumber>FLNTURT-2496</SerialNumber>
#       <CalibrationDate>02-Sep-2021</CalibrationDate>
#       <ScaleFactor>4.80000000e+001</ScaleFactor>
#       <!-- Dark output -->
#       <Vblank>0.0550</Vblank>
#     </FluoroWetlabECO_AFL_FL_Sensor>
#   </sensor>
#   <sensor Channel="9" >
#     <!-- A/D voltage 5, Turbidity Meter, WET Labs, ECO-NTU -->
#     <TurbidityMeter SensorID="67" >
#       <SerialNumber>FLNTURT--2496</SerialNumber>
#       <CalibrationDate>02-Sep-2021</CalibrationDate>
#       <ScaleFactor>197.000000</ScaleFactor>
#       <!-- Dark output -->
#       <DarkVoltage>0.070000</DarkVoltage>
#     </TurbidityMeter>
#   </sensor>
# </Sensors>
# datcnv_date = Oct 24 2024 13:19:40, 7.26.7.129 [datcnv_vars = 14]
# datcnv_in = C:\R\Reservoirs\Data\DataNotYetUploadedToEDI\Raw_CTD\RawDownloads\101524_fcr50_S7809002.hex C:\R\Reservoirs\Data\DataNotYetUploadedToEDI\Raw_CTD\RawDownloads\SBE19plusV2_7809_start20230701.xmlcon
# datcnv_skipover = 0
# datcnv_ox_hysteresis_correction = yes
# datcnv_ox_tau_correction = yes
# filter_date = Oct 24 2024 13:20:26, 7.26.7.129
# filter_in = C:\R\Reservoirs\Data\DataNotYetUploadedToEDI\Raw_CTD\RawDownloads\101524_fcr50_S7809002.cnv
# filter_low_pass_tc_A = 0.030
# filter_low_pass_tc_B = 0.150
# filter_low_pass_A_vars = sbeox0Mg/L prdM prdE tv290C
# filter_low_pass_B_vars = depFM dz/dtM sbeox0PS specc c0uS/cm flECO-AFL ph orp par/sat/log turbWETntu0
# alignctd_date = Oct 24 2024 13:21:05, 7.26.7.129
# alignctd_in = C:\R\Reservoirs\Data\DataNotYetUploadedToEDI\Raw_CTD\RawDownloads\101524_fcr50_S7809002.cnv
# alignctd_adv = dz/dtM 1.000, sbeox0PS 1.000, specc 1.000, c0uS/cm 1.000, flECO-AFL 1.000, ph 1.000, orp 1.000, turbWETntu0 1.000                                                                                                   
# file_type = ascii
*END*
     -0.677 2.8040e-18     7.0980     71.309      7.249   5.810310    -0.0828      8.020   224.0327 8.7807e+01     2.9266     -0.664     -0.963    15.0724 0.0000e+00
     -0.677 2.5374e-19     7.1115     71.554      6.769   5.425102    -0.0608      8.021   224.6217 9.5384e+01     2.9586     -0.664     -0.963    15.0722 0.0000e+00
     -0.677 1.0225e-20     7.1306     71.800      6.570   5.266256    -0.0713      8.024   228.0327 1.0265e+02     2.9333     -0.664     -0.963    15.0720 0.0000e+00
     -0.677 -1.403e-19     7.1518     72.069      6.908   5.536961    -0.0932      8.034   228.5364 1.0847e+02     2.5188     -0.664     -0.963    15.0718 0.0000e+00
     -0.677 -1.567e-18     7.1804     72.333      7.374   5.910525    -0.1082      8.040   226.4960 1.1277e+02     1.7731     -0.665     -0.964    15.0716 0.0000e+00
     -0.677 -1.724e-17     7.2046     72.649      7.700   6.171700    -0.1197      8.033   234.2507 1.1183e+02     1.3632     -0.664     -0.963    15.0714 0.0000e+00
     -0.678 -1.896e-16     7.2263     73.094      8.002   6.413949    -0.1245      8.023   247.0135 1.0535e+02     1.3205     -0.665     -0.964    15.0713 0.0000e+00
     -0.678 -2.086e-15     7.2579     73.541      8.182   6.558649    -0.1328      8.018   252.6977 9.7878e+01     1.2233     -0.665     -0.964    15.0714 0.0000e+00
     -0.677 -2.294e-14     7.2817     73.825      8.222   6.590729    -0.1453      8.017   254.6234 9.3625e+01     1.0759     -0.664     -0.963    15.0712 0.0000e+00
     -0.677 -2.524e-13     7.3065     73.915      8.169   6.548399    -0.1428      8.017   256.2727 8.9527e+01     1.0749     -0.664     -0.963    15.0714 0.0000e+00
     -0.677 -2.776e-12     7.3589     73.777      8.018   6.426984    -0.1355      8.018   256.9804 8.4135e+01     1.0751     -0.664     -0.963    15.0723 0.0000e+00
     -0.677 -3.054e-11     7.4117     73.328      7.814   6.263169    -0.1325      8.021   257.4153 8.4036e+01     0.9754     -0.664     -0.963    15.0732 0.0000e+00
     -0.677 -3.359e-10     7.4387     72.611      7.516   6.024967    -0.1058      8.023   257.7449 8.8808e+01     0.9624     -0.664     -0.963    15.0738 0.0000e+00
     -0.677 -3.695e-09     7.4476     71.726      7.191   5.764404    -0.0707      8.025   258.8152 9.5557e+01     0.9864     -0.664     -0.963    15.0740 0.0000e+00
     -0.677 -4.064e-08     7.4408     70.750      6.966   5.583648    -0.0659      8.027   260.8917 1.0261e+02     0.9588     -0.664     -0.963    15.0742 0.0000e+00
     -0.677 -4.471e-07     7.3916     69.804      6.766   5.423368    -0.0894      8.028   262.3744 1.0488e+02     0.9702     -0.664     -0.963    15.0743 0.0000e+00
     -0.677     -0.000     7.3150     68.967      6.434   5.156931    -0.1139      8.029   262.6315 1.0519e+02     1.0214     -0.664     -0.963    15.0738 0.0000e+00
     -0.677     -0.000     7.2256     68.225      6.030   4.833010    -0.1202      8.032   263.1405 1.0929e+02     1.0658     -0.664     -0.963    15.0731 0.0000e+00
     -0.677     -0.001     7.1213     67.590      5.674   4.547858    -0.1165      8.036   264.4848 1.1617e+02     1.0633     -0.664     -0.963    15.0725 0.0000e+00
     -0.677     -0.002     7.0226     67.108      5.373   4.306650    -0.1105      8.039   269.4210 1.2271e+02     1.0244     -0.664     -0.963    15.0718 0.0000e+00
     -0.677     -0.002     6.9411     66.765      5.158   4.133919    -0.0974      8.042   277.6526 1.2795e+02     1.0396     -0.664     -0.963    15.0714 0.0000e+00
     -0.678     -0.002     6.8662     66.506      4.965   3.979821    -0.0835      8.043   282.0167 1.3192e+02     1.0761     -0.664     -0.964    15.0710 0.0000e+00
     -0.679     -0.002     6.7985     66.268      4.708   3.773835    -0.0845      8.044   282.4369 1.2853e+02     1.0556     -0.666     -0.967    15.0706 0.0000e+00
     -0.680     -0.002     6.7520     66.052      4.422   3.543869    -0.1005      8.046   283.2496 1.1292e+02     0.9971     -0.667     -0.968    15.0705 0.0000e+00
     -0.680     -0.001     6.7185     65.911      4.184   3.353202    -0.1183      8.048   284.8744 9.5867e+01     0.9841     -0.667     -0.967    15.0706 0.0000e+00
     -0.680     -0.001     6.6962     65.859      4.045   3.242270    -0.1332      8.048   287.1110 8.6661e+01     0.9997     -0.667     -0.968    15.0704 0.0000e+00
     -0.680     -0.000     6.6720     65.870      3.934   3.152832    -0.1473      8.050   289.7288 7.8671e+01     0.9808     -0.667     -0.967    15.0705 0.0000e+00
     -0.680 -1.878e-08     6.6471     65.921      3.783   3.032004    -0.1479      8.052   291.4029 6.9198e+01     0.9956     -0.667     -0.967    15.0705 0.0000e+00
     -0.680 -2.066e-07     6.6327     66.015      3.645   2.921605    -0.1320      8.053   292.1231 6.0769e+01     1.0426     -0.667     -0.967    15.0707 0.0000e+00
     -0.680 -2.066e-07     6.6285     66.153      3.532   2.831573    -0.1294      8.054   292.9304 5.2806e+01     1.0366     -0.667     -0.967    15.0710 0.0000e+00
     -0.680 -1.878e-08     6.6308     66.308      3.452   2.766948    -0.1423      8.056   293.6784 4.9310e+01     1.0255     -0.667     -0.967    15.0714 0.0000e+00
     -0.680 -1.707e-09     6.6355     66.450      3.461   2.773692    -0.1460      8.059   294.1980 5.3587e+01     1.0447     -0.667     -0.967    15.0716 0.0000e+00
     -0.680 -1.552e-10     6.6445     66.581      3.477   2.786421    -0.1412      8.061   294.7383 6.1423e+01     0.9944     -0.666     -0.966    15.0719 0.0000e+00
     -0.680 -1.410e-11     6.6594     66.741      3.407   2.730820    -0.1341      8.062   295.4796 6.7502e+01     0.8619     -0.667     -0.967    15.0724 0.0000e+00
     -0.680 -1.211e-12     6.6768     66.978      3.333   2.671539    -0.1348      8.064   296.1912 7.1800e+01     0.7410     -0.666     -0.966    15.0727 0.0000e+00
     -0.680 6.7339e-13     6.6905     67.297      3.294   2.639782    -0.1412      8.067   296.4590 7.3411e+01     0.7283     -0.667     -0.967    15.0729 0.0000e+00
     -0.680 8.6793e-12     6.7026     67.662      3.244   2.600228    -0.1362      8.069   296.5668 6.9839e+01     0.8449     -0.667     -0.967    15.0730 0.0000e+00
     -0.680 9.5588e-11     6.7161     68.046      3.210   2.573380    -0.1333      8.070   298.1832 6.4905e+01     0.9557     -0.666     -0.966    15.0732 0.0000e+00
     -0.680 1.0515e-09     6.7395     68.443      3.205   2.568550    -0.1478      8.071   301.6345 6.3786e+01     1.0086     -0.666     -0.966    15.0735 0.0000e+00
     -0.680 1.1566e-08     6.7740     68.839      3.171   2.541832    -0.1533      8.072   303.9658 6.7732e+01     1.0750     -0.666     -0.966    15.0737 0.0000e+00
     -0.680 1.2723e-07     6.8114     69.186      3.123   2.503716    -0.1412      8.074   304.1726 7.5729e+01     1.1087     -0.667     -0.967    15.0740 0.0000e+00
     -0.680      0.000     6.8500     69.461      3.103   2.487771    -0.1269      8.077   304.3078 8.4859e+01     1.2802     -0.667     -0.967    15.0746 0.0000e+00
     -0.680      0.000     6.8900     69.684      3.088   2.475738    -0.0970      8.080   304.8257 9.0467e+01     1.7132     -0.667     -0.967    15.0745 0.0000e+00
     -0.680      0.000     6.9319     69.866      3.099   2.484918    -0.0623      8.083   304.5833 9.0727e+01     2.1087     -0.666     -0.967    15.0749 0.0000e+00
     -0.680      0.002     6.9690     70.039      3.554   2.852150    -0.0075      8.087   301.5498 8.9119e+01     3.0553     -0.666     -0.967    15.0743 0.0000e+00
     -0.680      0.010     6.9934     70.221      7.239   5.839020     0.5907      8.089   282.6021 8.9664e+01    13.0569     -0.666     -0.967    15.0756 0.0000e+00
     -0.680      0.030     7.0178     70.387     19.742  16.042790     1.7115      8.091   250.7503 9.3906e+01    31.4902     -0.666     -0.967    15.0742 0.0000e+00
     -0.679      0.059     7.0336     70.546     36.934  30.188396     2.3406      8.094   235.2073 1.0110e+02    41.5377     -0.666     -0.966    15.0773 0.0000e+00
     -0.673      0.093     7.0496     70.693     46.182  37.944027     2.4453      8.098   236.6381 1.0807e+02    41.7296     -0.667     -0.968    15.0731 0.0000e+00
     -0.646      0.125     7.0698     70.825     46.895  38.718245     2.6949      8.100   238.7968 1.1299e+02    32.7511     -0.645     -0.936    15.0860 0.0000e+00
     -0.595      0.148     7.0439     70.970     45.790  37.963657     3.1032      8.098   239.7123 1.1699e+02    15.9861     -0.583     -0.846    15.3478 0.0000e+00
     -0.537      0.157     6.9940     71.120     45.012  37.451059     3.3199      8.095   240.0492 1.2080e+02     6.8170     -0.524     -0.760    15.7890 0.0000e+00
     -0.484      0.149     6.9639     71.245     44.603  37.216472     3.3422      8.093   240.2888 1.2403e+02     6.0228     -0.474     -0.687    16.0941 0.0000e+00
     -0.440      0.125     6.9459     71.367     44.363  37.094543     3.3557      8.090   240.4586 1.2605e+02     6.0078     -0.425     -0.616    16.2899 0.0000e+00
     -0.413      0.092     6.9358     71.513     44.246  37.055659     3.3681      8.088   240.4674 1.2687e+02     5.9858     -0.399     -0.578    16.4596 0.0000e+00
     -0.403      0.059     6.9309     71.674     44.361  37.190581     3.3663      8.087   240.5679 1.2722e+02     5.9287     -0.393     -0.570    16.6097 0.0000e+00
     -0.400      0.034     6.9245     71.851     44.655  37.456812     3.3593      8.086   240.9858 1.2751e+02     5.8984     -0.392     -0.569    16.7259 0.0000e+00
     -0.399      0.019     6.9222     72.038     44.827  37.609528     3.3593      8.083   241.6478 1.2767e+02     5.8925     -0.391     -0.568    16.8102 0.0000e+00
     -0.399      0.015     6.9285     72.226     45.012  37.767964     3.3655      8.079   242.1198 1.2765e+02     5.9250     -0.391     -0.567    16.8790 0.0000e+00
     -0.398      0.019     6.9363     72.408     45.412  38.103296     3.3679      8.077   242.3033 1.2772e+02     5.9162     -0.389     -0.565    16.9218 0.0000e+00
     -0.396      0.024     6.9522     72.576     45.646  38.300763     3.3549      8.076   242.4050 1.2836e+02     5.8546     -0.390     -0.565    16.9399 0.0000e+00
     -0.386      0.027     6.9689     72.766     45.510  38.188352     3.3418      8.075   242.4895 1.2942e+02     5.8290     -0.385     -0.557    16.9470 0.0000e+00
     -0.370      0.031     6.9868     73.035     45.077  37.822922     3.3753      8.072   242.6364 1.3019e+02     5.8116     -0.360     -0.522    16.9513 0.0000e+00
     -0.358      0.038     7.0059     73.325     44.850  37.626342     3.4434      8.067   242.8905 1.3033e+02     5.7801     -0.348     -0.504    16.9463 0.0000e+00
     -0.355      0.045     7.0203     73.518     45.191  37.905571     3.4748      8.063   243.0663 1.3005e+02     5.7219     -0.348     -0.504    16.9504 0.0000e+00
     -0.353      0.048     7.0350     73.664     45.423  38.089666     3.4720      8.062   243.0409 1.3007e+02     5.6545     -0.349     -0.507    16.9530 0.0000e+00
     -0.341      0.051     7.0624     73.834     45.355  38.011976     3.5170      8.061   242.9279 1.3092e+02     5.7175     -0.343     -0.497    16.9505 0.0000e+00
     -0.315      0.056     7.1011     74.009     45.426  38.044989     3.6198      8.059   242.8182 1.3190e+02     5.9026     -0.305     -0.441    16.9435 0.0000e+00
     -0.295      0.058     7.1150     74.193     45.529  38.108040     3.6836      8.056   242.8334 1.3228e+02     6.0137     -0.283     -0.412    16.9354 0.0000e+00
     -0.284      0.056     7.1261     74.398     45.439  38.012807     3.6803      8.054   242.9392 1.3278e+02     5.9677     -0.283     -0.411    16.9314 0.0000e+00
     -0.269      0.049     7.1510     74.617     45.180  37.781910     3.6549      8.053   242.9795 1.3353e+02     5.8922     -0.262     -0.380    16.9024 0.0000e+00
     -0.254      0.042     7.1706     74.846     44.896  37.537264     3.6425      8.053   242.9760 1.3337e+02     5.9213     -0.246     -0.356    16.8688 0.0000e+00
     -0.249      0.039     7.1923     75.123     44.656  37.339237     3.6556      8.053   243.0694 1.3257e+02     5.9782     -0.244     -0.353    16.8465 0.0000e+00
     -0.245      0.039     7.2154     75.419     44.276  37.037446     3.6632      8.052   243.4200 1.3236e+02     5.9644     -0.243     -0.352    16.8217 0.0000e+00
     -0.236      0.047     7.2407     75.624     43.742  36.616891     3.6258      8.050   243.9458 1.3281e+02     5.8574     -0.234     -0.339    16.8056 0.0000e+00
     -0.223      0.067     7.2616     75.776     43.654  36.569229     3.5616      8.047   244.3504 1.3314e+02     5.7438     -0.217     -0.314    16.7982 0.0000e+00
     -0.212      0.091     7.2869     75.926     44.104  36.968804     3.5370      8.044   244.4402 1.3198e+02     5.7527     -0.207     -0.299    16.7985 0.0000e+00
     -0.196      0.106     7.3228     76.067     44.278  37.133304     3.5449      8.041   244.4297 1.1773e+02     5.7595     -0.204     -0.296    16.8171 0.0000e+00
     -0.156      0.111     7.3315     76.285     43.923  36.844967     3.5658      8.039   244.8254 9.3369e+01     5.6547     -0.164     -0.239    16.8535 0.0000e+00
     -0.099      0.106     7.3389     76.644     43.387  36.401446     3.6056      8.037   245.4399 8.2441e+01     5.5449     -0.085     -0.124    16.8833 0.0000e+00
     -0.059      0.096     7.3544     77.219     42.921  36.022100     3.6267      8.035   245.6635 8.0735e+01     5.4916     -0.045     -0.066    16.9059 0.0000e+00
     -0.047      0.082     7.3574     78.176     42.650  35.811657     3.6381      8.034   245.5508 7.7717e+01     5.4881     -0.045     -0.066    16.9332 0.0000e+00
     -0.045      0.062     7.3759     79.423     42.567  35.760559     3.6521      8.034   245.4538 7.8304e+01     5.5025     -0.044     -0.064    16.9403 0.0000e+00
     -0.041      0.045     7.4112     80.534     42.574  35.785007     3.6954      8.034   245.5233 7.8841e+01     5.4601     -0.043     -0.063    16.9410 0.0000e+00
     -0.030      0.038     7.4534     81.199     42.562  35.790032     3.7791      8.033   245.7025 7.6649e+01     5.3856     -0.032     -0.047    16.9578 0.0000e+00
     -0.014      0.036     7.5427     81.273     42.512  35.757882     3.8154      8.033   245.9862 7.5458e+01     5.3871     -0.011     -0.016    16.9793 0.0000e+00
      0.000      0.034     7.6836     80.676     42.452  35.713547     3.8174      8.034   246.3717 7.4925e+01     5.4449      0.003      0.004    17.0004 0.0000e+00
      0.009      0.029     7.7941     79.474     42.428  35.698139     3.8447      8.034   246.5782 7.4455e+01     5.4355      0.009      0.014    17.0238 0.0000e+00
      0.014      0.025     7.8592     77.874     42.577  35.825388     3.8632      8.033   246.5037 7.4578e+01     5.3751      0.014      0.021    17.0439 0.0000e+00
      0.015      0.022     7.8691     76.119     42.841  36.046538     3.8652      8.032   246.1594 7.4682e+01     5.3632      0.016      0.023    17.0531 0.0000e+00
      0.016      0.022     7.8080     74.437     42.892  36.087819     3.8693      8.031   245.6846 7.4903e+01     5.3951      0.015      0.022    17.0595 0.0000e+00
      0.021      0.023     7.6835     73.040     42.720  35.943800     3.8638      8.031   245.5806 7.3777e+01     5.4527      0.016      0.024    17.0648 0.0000e+00
      0.032      0.023     7.5185     71.965     42.580  35.828048     3.8397      8.030   245.7629 7.1419e+01     5.4456      0.031      0.045    17.0693 0.0000e+00
      0.044      0.022     7.3448     71.130     42.505  35.766939     3.8107      8.029   246.0819 7.0488e+01     5.3432      0.047      0.067    17.0672 0.0000e+00
      0.049      0.018     7.1716     70.462     42.439  35.712548     3.8135      8.030   246.5983 7.0632e+01     5.3420      0.049      0.071    17.0615 0.0000e+00
      0.050      0.012     7.0370     69.810     42.398  35.678005     3.8409      8.030   246.2426 7.0715e+01     5.4649      0.048      0.070    17.0646 0.0000e+00
      0.050      0.007     6.9377     69.061     42.384  35.666539     3.8494      8.029   245.0499 7.0828e+01     5.5318      0.049      0.072    17.0678 0.0000e+00
      0.050      0.002     6.8567     68.255     42.348  35.637373     3.8334      8.029   244.5677 7.0810e+01     5.5015      0.049      0.072    17.0692 0.0000e+00
      0.050      0.001     6.7986     67.422     42.277  35.579154     3.8144      8.030   244.9720 7.0710e+01     5.4399      0.050      0.072    17.0706 0.0000e+00
      0.050      0.000     6.7425     66.611     42.222  35.533674     3.8276      8.030   245.5500 7.0633e+01     5.4363      0.049      0.071    17.0709 0.0000e+00
      0.050 1.9503e-08     6.6643     65.927     42.220  35.531629     3.8685      8.029   245.5338 7.0330e+01     5.4920      0.049      0.072    17.0712 0.0000e+00
      0.051 2.1454e-07     6.5871     65.422     42.249  35.554429     3.8915      8.028   244.8614 6.9820e+01     5.4985      0.050      0.072    17.0726 0.0000e+00
      0.051 2.1454e-07     6.5059     65.112     42.254  35.555549     3.8890      8.029   244.3891 6.9579e+01     5.4465      0.050      0.073    17.0750 0.0000e+00
      0.051 1.9504e-08     6.4208     65.014     42.245  35.545156     3.8807      8.029   244.3839 6.9588e+01     5.4099      0.050      0.072    17.0761 0.0000e+00
      0.051 1.7730e-09     6.3555     65.153     42.261  35.555661     3.8996      8.030   244.4547 6.9484e+01     5.4319      0.050      0.072    17.0759 0.0000e+00
      0.051 1.6118e-10     6.3052     65.527     42.263  35.555661     3.9426      8.030   244.4702 6.9376e+01     5.4734      0.050      0.072    17.0738 0.0000e+00
      0.050 1.4653e-11     6.2767     66.090     42.252  35.545166     3.9672      8.030   244.9159 6.9445e+01     5.5016      0.049      0.072    17.0698 0.0000e+00
      0.050 1.3321e-12     6.2657     66.738     42.265  35.555663     3.9644      8.030   245.5414 6.9465e+01     5.4996      0.049      0.072    17.0658 0.0000e+00
      0.051 1.2110e-13     6.2799     67.353     42.266  35.555673     3.9588      8.030   245.5802 6.9486e+01     5.4495      0.050      0.072    17.0627 0.0000e+00
      0.051 1.1009e-14     6.3175     67.859     42.254  35.545291     3.9825      8.030   245.2993 6.9636e+01     5.4423      0.050      0.073    17.0602 0.0000e+00
      0.051 1.0008e-15     6.3754     68.199     42.269  35.557037     4.0101      8.031   245.0708 6.9799e+01     5.4808      0.050      0.073    17.0588 0.0000e+00
      0.051 9.0985e-17     6.4438     68.339     42.286  35.570790     4.0008      8.031   245.0536 6.9846e+01     5.4366      0.050      0.072    17.0583 0.0000e+00
      0.051 8.2715e-18     6.5040     68.280     42.303  35.584676     4.0035      8.031   245.6078 6.9783e+01     5.3526      0.050      0.073    17.0576 0.0000e+00
      0.051 7.5195e-19     6.5560     68.053     42.319  35.598034     4.0507      8.031   246.5228 6.9943e+01     5.3531      0.050      0.072    17.0567 0.0000e+00
      0.051 6.8360e-20     6.5896     67.716     42.329  35.605394     4.0893      8.032   246.9110 7.0187e+01     5.4084      0.050      0.072    17.0563 0.0000e+00
      0.051 6.2145e-21     6.6031     67.315     42.336  35.610219     4.1120      8.033   246.7736 7.0144e+01     5.4739      0.050      0.073    17.0558 0.0000e+00
      0.051 5.6495e-22     6.5970     66.877     42.316  35.592916     4.1087      8.033   246.4965 7.0042e+01     5.4960      0.050      0.073    17.0554 0.0000e+00
      0.051 5.1360e-23     6.5721     66.449     42.309  35.586533     4.0665      8.032   246.4004 6.9999e+01     5.4369      0.050      0.072    17.0549 0.0000e+00
      0.051 4.6690e-24     6.5382     66.070     42.321  35.596502     4.0423      8.032   246.9019 6.9928e+01     5.3737      0.050      0.073    17.0540 0.0000e+00
      0.051 4.2445e-25     6.4995     65.729     42.310  35.586541     4.0496      8.033   247.3978 6.9842e+01     5.3815      0.051      0.074    17.0530 0.0000e+00
      0.051 3.8586e-26     6.4555     65.431     42.318  35.592995     4.0382      8.033   247.4055 6.9752e+01     5.4288      0.050      0.073    17.0519 0.0000e+00
      0.051 3.5078e-27     6.4120     65.210     42.340  35.611093     3.9795      8.034   247.1675 6.9693e+01     5.4329      0.051      0.074    17.0510 0.0000e+00
      0.051 3.1890e-28     6.3772     65.044     42.345  35.615007     3.9220      8.035   246.9292 6.9617e+01     5.4310      0.050      0.073    17.0508 0.0000e+00
      0.051 2.8990e-29     6.3443     64.895     42.375  35.640325     3.9092      8.035   246.8470 6.9555e+01     5.4400      0.050      0.073    17.0507 0.0000e+00
      0.052 2.6355e-30     6.3128     64.773     42.402  35.663412     3.9158      8.034   246.8619 6.9530e+01     5.4399      0.051      0.074    17.0503 0.0000e+00
      0.052 2.3959e-31     6.2929     64.666     42.374  35.640351     3.9104      8.034   246.8515 6.9444e+01     5.4296      0.051      0.074    17.0499 0.0000e+00
      0.051 2.1781e-32     6.2797     64.585     42.343  35.615294     3.8850      8.035   246.8935 6.9309e+01     5.3830      0.050      0.073    17.0494 0.0000e+00
      0.051 1.9801e-33     6.2630     64.568     42.342  35.614239     3.8595      8.035   247.0256 6.9121e+01     5.3886      0.050      0.073    17.0490 0.0000e+00
      0.052 1.8001e-34     6.2527     64.549     42.360  35.627603     3.8597      8.036   247.0731 6.8851e+01     5.4646      0.051      0.074    17.0496 0.0000e+00
      0.052 1.6364e-35     6.2428     64.456     42.390  35.649976     3.8627      8.037   246.7781 6.8624e+01     5.5159      0.051      0.074    17.0505 0.0000e+00
      0.052 1.4877e-36     6.2303     64.319     42.371  35.630940     3.8448      8.037   246.2988 6.8446e+01     5.4959      0.051      0.074    17.0515 0.0000e+00
      0.051 1.3524e-37     6.2328     64.148     42.324  35.587793     3.8271      8.038   246.1825 6.8253e+01     5.4282      0.050      0.073    17.0519 0.0000e+00
      0.051 1.2295e-38     6.2354     63.904     42.309  35.572438     3.8155      8.038   246.4041 6.8110e+01     5.4137      0.050      0.073    17.0500 0.0000e+00
      0.052 1.1177e-39     6.2238     63.599     42.311  35.572176     3.8380      8.037   246.5691 6.8094e+01     5.5264      0.051      0.074    17.0462 0.0000e+00
      0.052 1.0161e-40     6.2104     63.251     42.328  35.584623     3.9075      8.037   246.5425 6.8159e+01     5.6977      0.051      0.074    17.0418 0.0000e+00
      0.052 9.2375e-42     6.1977     62.851     42.343  35.596034     3.9562      8.038   246.4261 6.8195e+01     5.7422      0.051      0.074    17.0376 0.0000e+00
      0.052 8.3975e-43     6.1730     62.446     42.331  35.583239     3.9527      8.039   246.3669 6.8257e+01     5.6895      0.051      0.074    17.0349 0.0000e+00
      0.052 7.6340e-44     6.1419     62.076     42.304  35.556821     3.9393      8.039   246.3431 6.8337e+01     5.7089      0.051      0.074    17.0332 0.0000e+00
      0.052 6.9400e-45     6.1116     61.701     42.276  35.530411     3.9446      8.040   246.3106 6.8389e+01     5.7718      0.051      0.074    17.0311 0.0000e+00
      0.052 6.3090e-46     6.0700     61.317     42.266  35.517712     3.9413      8.041   246.3174 6.8485e+01     5.7677      0.051      0.074    17.0289 0.0000e+00
      0.052 5.7355e-47     6.0286     60.954     42.285  35.530164     3.9337      8.042   246.4252 6.8617e+01     5.6928      0.051      0.074    17.0257 0.0000e+00
      0.052 5.2182e-48     5.9968     60.589     42.318  35.554067     3.9362      8.041   246.5820 6.8735e+01     5.5841      0.051      0.074    17.0217 0.0000e+00
      0.052 5.1980e-49     5.9617     60.223     42.321  35.552922     3.9290      8.041   246.6640 6.8756e+01     5.4772      0.051      0.074    17.0174 0.0000e+00
      0.052 5.4671e-49     5.9214     59.870     42.281  35.516319     3.9305      8.042   246.6435 6.8669e+01     5.4596      0.051      0.075    17.0129 0.0000e+00
      0.052 5.5437e-48     5.8904     59.502     42.256  35.492196     3.9367      8.043   246.5910 6.8700e+01     5.4744      0.051      0.074    17.0085 0.0000e+00
      0.052 6.0938e-47     5.8551     59.127     42.287  35.515050     3.9287      8.043   246.6320 6.8825e+01     5.4852      0.051      0.074    17.0042 0.0000e+00
      0.052 6.7031e-46     5.8180     58.759     42.319  35.538841     3.9176      8.043   246.7093 6.8893e+01     5.5552      0.051      0.074    16.9999 0.0000e+00
      0.052 7.3734e-45     5.7879     58.409     42.308  35.526047     3.9200      8.043   246.7516 6.9013e+01     5.6376      0.051      0.074    16.9961 0.0000e+00
      0.052 8.1108e-44     5.7506     58.076     42.265  35.487251     3.9401      8.043   246.7993 6.9190e+01     5.6960      0.051      0.074    16.9924 0.0000e+00
      0.052 8.9218e-43     5.7154     57.774     42.225  35.450459     3.9528      8.044   246.7694 6.9197e+01     5.6809      0.051      0.074    16.9886 0.0000e+00
      0.052 9.8140e-42     5.6789     57.504     42.242  35.461893     3.9316      8.046   246.7343 6.9126e+01     5.6261      0.051      0.074    16.9850 0.0000e+00
      0.053 1.0795e-40     5.6463     57.217     42.290  35.498591     3.8919      8.047   246.7188 6.9254e+01     5.6140      0.052      0.075    16.9813 0.0000e+00
      0.053 1.1875e-39     5.6141     56.920     42.312  35.513463     3.8726      8.047   246.6673 6.9345e+01     5.6720      0.052      0.075    16.9777 0.0000e+00
      0.052 1.3062e-38     5.5837     56.666     42.318  35.514816     3.8726      8.048   246.7140 6.9335e+01     5.7801      0.051      0.074    16.9741 0.0000e+00
      0.052 1.4369e-37     5.5620     56.431     42.322  35.514949     3.8754      8.048   246.7680 6.9409e+01     5.7260      0.051      0.074    16.9703 0.0000e+00
      0.052 1.5806e-36     5.5343     56.177     42.327  35.515065     3.8726      8.047   246.7183 6.9418e+01     5.4952      0.051      0.074    16.9664 0.0000e+00
      0.052 1.7386e-35     5.5019     55.918     42.332  35.516210     3.8730      8.047   246.7148 6.9344e+01     5.3807      0.051      0.074    16.9623 0.0000e+00
      0.052 1.9125e-34     5.4800     55.656     42.351  35.528795     3.8881      8.047   246.8115 6.9301e+01     5.4346      0.052      0.075    16.9581 0.0000e+00
      0.052 2.1037e-33     5.4602     55.396     42.368  35.540323     3.8975      8.048   246.8556 6.9305e+01     5.4982      0.051      0.074    16.9541 0.0000e+00
      0.052 2.3141e-32     5.4336     55.159     42.358  35.528682     3.8861      8.049   246.8169 6.9323e+01     5.4663      0.051      0.074    16.9502 0.0000e+00
      0.052 2.5455e-31     5.4101     54.929     42.345  35.514943     3.8672      8.050   246.8603 6.9285e+01     5.3902      0.051      0.074    16.9461 0.0000e+00
      0.053 2.8001e-30     5.3852     54.689     42.332  35.501100     3.8685      8.050   246.9498 6.9252e+01     5.3979      0.052      0.075    16.9423 0.0000e+00
      0.053 3.0801e-29     5.3584     54.445     42.321  35.488212     3.9024      8.049   247.0390 6.9265e+01     5.4570      0.052      0.075    16.9383 0.0000e+00
      0.053 3.3881e-28     5.3376     54.215     42.321  35.486011     3.9442      8.049   247.1649 6.9269e+01     5.4903      0.052      0.075    16.9344 0.0000e+00
      0.053 3.7269e-27     5.3162     54.007     42.311  35.474475     3.9581      8.050   247.1814 6.9266e+01     5.4583      0.052      0.075    16.9311 0.0000e+00
      0.053 4.0996e-26     5.2933     53.812     42.316  35.475628     3.9456      8.052   247.1523 6.9268e+01     5.3773      0.051      0.074    16.9275 0.0000e+00
      0.053 4.5095e-25     5.2694     53.629     42.348  35.499958     3.9419      8.053   247.2432 6.9262e+01     5.3658      0.052      0.075    16.9240 0.0000e+00
      0.053 4.9605e-24     5.2465     53.444     42.369  35.514841     3.9558      8.053   247.3342 6.9223e+01     5.4216      0.052      0.075    16.9207 0.0000e+00
      0.053 5.4565e-23     5.2280     53.258     42.389  35.528676     3.9641      8.054   247.3060 6.8998e+01     5.4712      0.051      0.074    16.9172 0.0000e+00
      0.053 6.0022e-22     5.2086     53.084     42.405  35.540326     3.9501      8.054   247.1603 6.8722e+01     5.4875      0.052      0.075    16.9138 0.0000e+00
      0.053 6.6024e-21     5.1928     52.922     42.394  35.528801     3.9281      8.054   247.0357 6.8833e+01     5.4139      0.052      0.075    16.9106 0.0000e+00
      0.053 7.2626e-20     5.1747     52.762     42.382  35.516217     3.9477      8.054   247.0902 6.9091e+01     5.3662      0.052      0.075    16.9074 0.0000e+00
      0.053 7.9889e-19     5.1560     52.592     42.384  35.515075     3.9961      8.055   247.2160 6.9155e+01     5.4233      0.052      0.075    16.9045 0.0000e+00
      0.053 8.7878e-18     5.1404     52.425     42.387  35.514992     4.0057      8.055   247.2664 6.9206e+01     5.4559      0.052      0.075    16.9014 0.0000e+00
      0.053 9.6665e-17     5.1243     52.270     42.390  35.515211     3.9891      8.055   247.2695 6.9159e+01     5.4187      0.052      0.075    16.8982 0.0000e+00
      0.053 1.0633e-15     5.1113     52.120     42.396  35.517716     3.9951      8.055   247.2526 6.8995e+01     5.3835      0.052      0.075    16.8952 0.0000e+00
      0.053 1.1697e-14     5.0932     51.976     42.431  35.545283     4.0279      8.057   247.2346 6.8959e+01     5.4058      0.052      0.075    16.8924 0.0000e+00
      0.053 1.2866e-13     5.0773     51.884     42.409  35.531273     4.0604      8.057   247.2240 6.8959e+01     5.4485      0.051      0.074    16.8894 0.0000e+00
      0.053 1.4153e-12     5.0632     52.171     42.234  35.411759     4.0636      8.056   247.2105 6.8937e+01     5.4566      0.052      0.075    16.8870 0.0000e+00
      0.053 1.5568e-11     5.0484     53.603     42.041  35.305828     4.0336      8.056   247.3295 6.8933e+01     5.4010      0.052      0.075    16.8836 0.0000e+00
      0.053 1.7125e-10     5.0355     56.799     41.923  35.265739     4.0057      8.056   247.5440 6.8875e+01     5.3565      0.052      0.076    16.8817 0.0000e+00
      0.053 1.8837e-09     5.0195     61.464     41.851  35.244365     4.0090      8.057   247.6535 6.8844e+01     5.3966      0.052      0.076    16.8768 0.0000e+00
      0.053 2.0721e-08     5.0143     66.715     41.820  35.237791     4.0239      8.059   247.7071 6.8864e+01     5.4417      0.052      0.076    16.9019 0.0000e+00
      0.053 2.2793e-07     5.1109     71.780     41.824  35.249726     4.0195      8.059   247.6766 6.8754e+01     5.4244      0.052      0.075    16.9867 0.0000e+00
      0.054      0.000     5.4271     76.169     41.833  35.261779     4.0054      8.059   247.5416 6.8658e+01     5.4265      0.053      0.076    17.0677 0.0000e+00
      0.054      0.000     5.9095     79.591     41.821  35.256633     4.0030      8.059   247.6242 6.8810e+01     5.4665      0.053      0.076    17.1105 0.0000e+00
      0.054      0.000     6.4376     81.814     41.809  35.250959     4.0079      8.060   247.9874 6.8934e+01     5.4650      0.053      0.077    17.1307 0.0000e+00
      0.053      0.003     6.9413     82.699     41.811  35.256632     4.0223      8.060   248.2327 6.8843e+01     5.4424      0.052      0.076    17.1374 0.0000e+00
      0.053      0.037     7.3713     82.472     41.815  35.261786     4.0357      8.060   248.1806 6.8416e+01     5.3969      0.052      0.076    17.1416 0.0000e+00
      0.053      0.404     7.7074     81.652     41.802  35.249823     4.0455      8.060   248.0457 6.8049e+01     5.3938      0.053      0.076    17.1473 0.0000e+00
      0.053      4.442     7.9292     80.656     41.792  35.238893     4.0650      8.060   248.0651 6.8401e+01     5.4726      0.052      0.076    17.1538 0.0000e+00
      0.053      4.442     8.0060     79.708     41.816  35.256517     4.0719      8.060   248.1570 6.8776e+01     5.4618      0.053      0.076    17.1590 0.0000e+00
      0.053      0.404     7.9604     78.893     41.835  35.272562     4.0873      8.060   248.2961 6.8643e+01     5.3663      0.052      0.075    17.1613 0.0000e+00
      0.054      0.037     7.8689     78.220     41.799  35.242554     4.1353      8.061   248.5424 6.8528e+01     5.3429      0.053      0.076    17.1596 0.0000e+00
      0.054      0.003     7.7664     77.701     41.760  35.210934     4.1683      8.063   248.6395 6.8508e+01     5.4180      0.053      0.077    17.1549 0.0000e+00
      0.054      0.000     7.6732     77.323     41.754  35.207493     4.1783      8.064   248.5243 6.8423e+01     5.5227      0.052      0.076    17.1513 0.0000e+00
      0.054      0.000     7.5958     77.024     41.744  35.200949     4.1908      8.064   248.3538 6.8449e+01     5.5497      0.053      0.077    17.1517 0.0000e+00
      0.054      0.000     7.5291     76.767     41.739  35.195262     4.1946      8.064   248.2133 6.8521e+01     5.4708      0.053      0.077    17.1529 0.0000e+00
      0.054 2.2793e-07     7.4793     76.576     41.751  35.202182     4.1820      8.064   248.2016 6.8482e+01     5.3886      0.053      0.076    17.1544 0.0000e+00
      0.054 2.0721e-08     7.4452     76.445     41.779  35.221170     4.1720      8.064   248.2990 6.8479e+01     5.4102      0.052      0.076    17.1566 0.0000e+00
      0.054 1.8837e-09     7.4184     76.330     41.800  35.234484     4.1744      8.065   248.4447 6.8491e+01     5.4925      0.053      0.076    17.1596 0.0000e+00
      0.054 1.7125e-10     7.3910     76.228     41.806  35.236262     4.1770      8.066   248.5864 6.8493e+01     5.4961      0.052      0.076    17.1585 0.0000e+00
      0.054 1.5568e-11     7.3739     76.150     41.816  35.242665     4.1705      8.066   248.3765 6.8534e+01     5.4193      0.053      0.077    17.1525 0.0000e+00
      0.054 1.4153e-12     7.3651     76.101     41.822  35.248444     4.1620      8.065   247.8861 6.8505e+01     5.3490      0.053      0.076    17.1475 0.0000e+00
      0.054 1.2866e-13     7.3538     76.068     41.814  35.242686     4.1650      8.065   247.7332 6.8453e+01     5.3296      0.053      0.076    17.1424 0.0000e+00
      0.054 1.1696e-14     7.3448     76.030     41.804  35.236502     4.1824      8.065   247.8183 6.8420e+01     5.3901      0.053      0.077    17.1370 0.0000e+00
      0.054 1.0633e-15     7.3371     76.003     41.801  35.237125     4.1889      8.066   247.8832 6.8440e+01     5.4319      0.053      0.077    17.1352 0.0000e+00
      0.054 9.6665e-17     7.3323     76.006     41.811  35.250229     4.1774      8.068   248.0876 6.8485e+01     5.3905      0.053      0.076    17.1367 0.0000e+00
      0.054 8.7875e-18     7.3308     76.032     41.829  35.268043     4.1683      8.068   248.1391 6.8427e+01     5.3679      0.053      0.076    17.1389 0.0000e+00
      0.054 7.9890e-19     7.3250     76.061     41.820  35.262169     4.1710      8.068   247.8173 6.8446e+01     5.4318      0.053      0.077    17.1408 0.0000e+00
      0.054 7.2625e-20     7.3214     76.075     41.797  35.242663     4.1847      8.069   247.5526 6.8507e+01     5.5136      0.053      0.077    17.1443 0.0000e+00
      0.054 6.6025e-21     7.3209     76.074     41.774  35.222533     4.1834      8.069   247.5198 6.8428e+01     5.5037      0.053      0.077    17.1503 0.0000e+00
      0.054 6.0020e-22     7.3241     76.084     41.758  35.209125     4.1641      8.069   247.5062 6.8342e+01     5.4484      0.053      0.076    17.1542 0.0000e+00
      0.054 5.4565e-23     7.3271     76.118     41.754  35.207442     4.1677      8.070   247.5599 6.8341e+01     5.4597      0.053      0.077    17.1552 0.0000e+00
      0.054 4.9605e-24     7.3288     76.153     41.745  35.202192     4.1944      8.071   247.8259 6.8380e+01     5.5032      0.053      0.077    17.1551 0.0000e+00
      0.054 4.5095e-25     7.3277     76.170     41.754  35.209104     4.2039      8.071   248.0546 6.8384e+01     5.4962      0.053      0.077    17.1541 0.0000e+00
      0.054 4.0995e-26     7.3273     76.169     41.780  35.227555     4.1901      8.071   248.0011 6.8479e+01     5.4445      0.053      0.077    17.1543 0.0000e+00
      0.054 3.7269e-27     7.3322     76.147     41.795  35.234940     4.1857      8.071   247.7819 6.8650e+01     5.3901      0.053      0.077    17.1566 0.0000e+00
      0.054 3.3881e-28     7.3350     76.087     41.802  35.234932     4.2097      8.072   247.6415 6.8667e+01     5.4181      0.053      0.077    17.1600 0.0000e+00
      0.054 3.0801e-29     7.3373     76.016     41.798  35.227452     4.2387      8.073   248.0250 6.8610e+01     5.5103      0.053      0.077    17.1606 0.0000e+00
      0.054 2.8018e-30     7.3366     75.969     41.778  35.207951     4.2447      8.075   248.6329 6.8644e+01     5.5480      0.053      0.077    17.1556 0.0000e+00
      0.054 2.7346e-31     7.3381     75.931     41.757  35.189485     4.2325      8.075   248.7962 6.8706e+01     5.4990      0.054      0.078    17.1479 0.0000e+00
      0.054 2.3117e-31     7.3322     75.903     41.764  35.194524     4.2248      8.075   248.7952 6.8620e+01     5.4305      0.053      0.077    17.1397 0.0000e+00
      0.055 2.2904e-30     7.3236     75.925     41.777  35.205425     4.2268      8.075   248.7064 6.8407e+01     5.4374      0.054      0.078    17.1337 0.0000e+00
      0.055 2.5172e-29     7.3213     75.983     41.761  35.194397     4.2309      8.075   248.4106 6.8359e+01     5.4790      0.054      0.078    17.1325 0.0000e+00
      0.054 2.7689e-28     7.3180     76.046     41.744  35.188084     4.2411      8.076   248.4029 6.8452e+01     5.4902      0.053      0.077    17.1320 0.0000e+00
      0.054 3.0458e-27     7.3127     76.128     41.735  35.192550     4.2419      8.077   248.8713 6.8452e+01     5.4363      0.053      0.077    17.1297 0.0000e+00
      0.055 3.3503e-26     7.3157     76.201     41.713  35.184960     4.2244      8.077   249.2561 6.8460e+01     5.3740      0.054      0.078    17.1296 0.0000e+00
      0.055 3.6854e-25     7.3241     76.241     41.674  35.159784     4.2209      8.077   249.2693 6.8443e+01     5.4202      0.054      0.078    17.1315 0.0000e+00
      0.055 4.0539e-24     7.3254     76.265     41.647  35.141959     4.2159      8.078   249.2032 6.8412e+01     5.4479      0.054      0.078    17.1397 0.0000e+00
      0.055 4.4593e-23     7.3331     76.254     41.667  35.159782     4.1805      8.078   249.1452 6.8493e+01     5.3679      0.054      0.078    17.1573 0.0000e+00
      0.055 4.9052e-22     7.3394     76.219     41.698  35.184932     4.1509      8.078   249.0844 6.8548e+01     5.3401      0.054      0.078    17.1726 0.0000e+00
      0.055 5.3958e-21     7.3393     76.204     41.709  35.192261     4.1494      8.079   249.1555 6.8601e+01     5.3846      0.054      0.078    17.1814 0.0000e+00
      0.055 5.9353e-20     7.3432     76.202     41.704  35.184936     4.1621      8.080   249.3167 6.8594e+01     5.3942      0.054      0.078    17.1871 0.0000e+00
      0.055 6.5289e-19     7.3413     76.203     41.679  35.159818     4.1880      8.080   249.4844 6.8427e+01     5.3872      0.054      0.078    17.1886 0.0000e+00
      0.055 7.1818e-18     7.3353     76.223     41.663  35.142344     4.2126      8.080   249.6346 6.8366e+01     5.4022      0.054      0.078    17.1867 0.0000e+00
      0.055 7.8999e-17     7.3357     76.238     41.692  35.164001     4.2097      8.080   249.4121 6.8399e+01     5.4056      0.054      0.079    17.1840 0.0000e+00
      0.055 8.6899e-16     7.3368     76.220     41.698  35.167878     4.2033      8.081   248.8593 6.8290e+01     5.3942      0.054      0.078    17.1805 0.0000e+00
      0.055 9.5589e-15     7.3358     76.202     41.649  35.125773     4.2093      8.081   248.6298 6.8233e+01     5.4354      0.054      0.078    17.1758 0.0000e+00
      0.055 1.0515e-13     7.3396     76.194     41.618  35.099045     4.2085      8.081   248.8747 6.8378e+01     5.4590      0.054      0.078    17.1694 0.0000e+00
      0.055 1.1566e-12     7.3443     76.176     41.614  35.098514     4.1938      8.082   249.2382 6.8461e+01     5.4070      0.053      0.077    17.1663 0.0000e+00
      0.055 1.2723e-11     7.3394     76.146     41.634  35.119353     4.1810      8.083   249.3260 6.8401e+01     5.4211      0.054      0.078    17.1660 0.0000e+00
      0.055 1.3995e-10     7.3377     76.104     41.678  35.160662     4.2123      8.084   248.9895 6.8359e+01     5.4921      0.054      0.078    17.1647 0.0000e+00
      0.055 1.5395e-09     7.3393     76.080     41.664  35.153842     4.2728      8.084   248.4386 6.8323e+01     5.5148      0.054      0.079    17.1637 0.0000e+00
      0.055 1.6934e-08     7.3355     76.093     41.595  35.100357     4.2955      8.083   248.1723 6.8264e+01     5.4906      0.054      0.079    17.1658 0.0000e+00
      0.055 1.8628e-07     7.3335     76.131     41.573  35.085007     4.2880      8.083   248.2652 6.8224e+01     5.4391      0.054      0.079    17.1712 0.0000e+00
      0.055 1.8629e-07     7.3264     76.171     41.584  35.095147     4.2727      8.084   248.4423 6.8269e+01     5.5409      0.055      0.079    17.1769 0.0000e+00
      0.055 1.7074e-08     7.3223     76.178     41.585  35.096068     4.2444      8.085   248.6798 6.8304e+01     5.8324      0.054      0.078    17.1832 0.0000e+00
      0.055 3.0789e-09     7.3241     76.168     41.585  35.096144     4.2283      8.086   248.8133 6.8213e+01     5.9921      0.055      0.079    17.1897 0.0000e+00
      0.055 -9.990e-29     7.3263 -9.990e-29 -9.990e-29 -9.990e-29 -9.990e-29 -9.990e-29 -9.990e-29 6.8170e+01 -9.990e-29      0.054      0.079    17.1941 0.0000e+00
      0.055 -9.990e-29     7.3332 -9.990e-29 -9.990e-29 -9.990e-29 -9.990e-29 -9.990e-29 -9.990e-29 6.8230e+01 -9.990e-29      0.055      0.079    17.1938 0.0000e+00
      0.055 -9.990e-29     7.3331 -9.990e-29 -9.990e-29 -9.990e-29 -9.990e-29 -9.990e-29 -9.990e-29 6.8240e+01 -9.990e-29      0.054      0.078    17.1936 0.0000e+00
      0.055 -9.990e-29     7.3285 -9.990e-29 -9.990e-29 -9.990e-29 -9.990e-29 -9.990e-29 -9.990e-29 6.8213e+01 -9.990e-29      0.054      0.078    17.1951 0.0000e+00
