* Sea-Bird SBE19plus  Data File:
* FileName = C:\DATA\101619_fcr50_0001.hex
* Software version 2.8.0.119 SB_Terminal.dll
* Temperature SN = 7809
* Conductivity SN = 7809
* System UpLoad Time = Oct 16 2019 16:52:35
* <ApplicationData>
* <Seaterm232>
* <SoftwareVersion>2.8.0.119</SoftwareVersion>
* <BuildDate>07-Nov-2018</BuildDate>
* </Seaterm232>
* </ApplicationData>
* cast   1 16 Oct 2019 11:16:09 samples 1 to 413, avg = 1, stop = mag switch
# nquan = 16
# nvalues = 310                         
# units = specified
# name 0 = depFM: Depth [fresh water, m]
# name 1 = dz/dtM: Descent Rate [m/s]
# name 2 = sbeox0ML/L: Oxygen, SBE 43 [ml/l]
# name 3 = sbeox0PS: Oxygen, SBE 43 [% saturation]
# name 4 = specc: Specific Conductance [uS/cm]
# name 5 = c0uS/cm: Conductivity [uS/cm]
# name 6 = flECO-AFL: Fluorescence, WET Labs ECO-AFL/FL [mg/m^3]
# name 7 = ph: pH
# name 8 = orp: Oxidation Reduction Potential [mV]
# name 9 = par/sat/log: PAR/Logarithmic, Satlantic
# name 10 = turbWETntu0: Turbidity, WET Labs ECO [NTU]
# name 11 = prdM: Pressure, Strain Gauge [db]
# name 12 = prdE: Pressure, Strain Gauge [psi]
# name 13 = tv290C: Temperature [ITS-90, deg C]
# name 14 = density00: Density [density, kg/m^3]
# name 15 = flag:  0.000e+00
# span 0 =     -0.691,      2.232       
# span 1 =     -0.162,      0.421       
# span 2 =     3.6437,     7.3284       
# span 3 =     53.468,    107.050       
# span 4 =     36.256,     41.182       
# span 5 =  28.640446,  34.163353       
# span 6 =    -0.1588,     2.7775       
# span 7 =      7.134,      8.837       
# span 8 =   189.5583,   217.1744       
# span 9 = 3.7624e+00, 5.5007e+02       
# span 10 =    -0.2921,     9.2573      
# span 11 =     -0.679,      2.190      
# span 12 =     -0.985,      3.176      
# span 13 =    13.1334,    17.0526      
# span 14 =   998.7896,   999.3642      
# span 15 = 0.0000e+00, 0.0000e+00      
# interval = seconds: 0.25
# start_time = Oct 16 2019 11:16:09 [Instrument's time stamp, header]
# bad_flag = -9.990e-29
# <Sensors count="9" >
#   <sensor Channel="1" >
#     <!-- Count, Temperature -->
#     <TemperatureSensor SensorID="58" >
#       <SerialNumber>7809</SerialNumber>
#       <CalibrationDate>24-Mar-19</CalibrationDate>
#       <A0>1.21792325e-003</A0>
#       <A1>2.81669265e-004</A1>
#       <A2>-1.60333336e-006</A2>
#       <A3>1.98414625e-007</A3>
#       <Slope>1.00000000</Slope>
#       <Offset>0.0000</Offset>
#     </TemperatureSensor>
#   </sensor>
#   <sensor Channel="2" >
#     <!-- Frequency 0, Conductivity -->
#     <ConductivitySensor SensorID="3" >
#       <SerialNumber>7809</SerialNumber>
#       <CalibrationDate>24-Mar-19</CalibrationDate>
#       <UseG_J>1</UseG_J>
#       <!-- Cell const and series R are applicable only for wide range sensors. -->
#       <SeriesR>0.0000</SeriesR>
#       <CellConst>2000.0000</CellConst>
#       <ConductivityType>0</ConductivityType>
#       <Coefficients equation="0" >
#         <A>0.00000000e+000</A>
#         <B>0.00000000e+000</B>
#         <C>0.00000000e+000</C>
#         <D>0.00000000e+000</D>
#         <M>0.0</M>
#         <CPcor>-9.57000000e-008</CPcor>
#       </Coefficients>
#       <Coefficients equation="1" >
#         <G>-1.00589325e+000</G>
#         <H>1.26816302e-001</H>
#         <I>-1.51560448e-004</I>
#         <J>2.67137274e-005</J>
#         <CPcor>-9.57000000e-008</CPcor>
#         <CTcor>3.2500e-006</CTcor>
#         <!-- WBOTC not applicable unless ConductivityType = 1. -->
#         <WBOTC>0.00000000e+000</WBOTC>
#       </Coefficients>
#       <Slope>1.00000000</Slope>
#       <Offset>0.00000</Offset>
#     </ConductivitySensor>
#   </sensor>
#   <sensor Channel="3" >
#     <!-- Count, Pressure, Strain Gauge -->
#     <PressureSensor SensorID="46" >
#       <SerialNumber>7809</SerialNumber>
#       <CalibrationDate>11-Mar-19</CalibrationDate>
#       <PA0>4.56561833e-002</PA0>
#       <PA1>4.85095118e-004</PA1>
#       <PA2>-2.88327090e-012</PA2>
#       <PTEMPA0>-5.48784562e+001</PTEMPA0>
#       <PTEMPA1>5.53756816e+001</PTEMPA1>
#       <PTEMPA2>-5.86727098e-001</PTEMPA2>
#       <PTCA0>5.25246745e+005</PTCA0>
#       <PTCA1>1.22304214e+001</PTCA1>
#       <PTCA2>-3.56745036e-001</PTCA2>
#       <PTCB0>2.51668750e+001</PTCB0>
#       <PTCB1>3.75000000e-004</PTCB1>
#       <PTCB2>0.00000000e+000</PTCB2>
#       <Offset>0.000000</Offset>
#     </PressureSensor>
#   </sensor>
#   <sensor Channel="4" >
#     <!-- A/D voltage 0, Oxygen, SBE 43 -->
#     <OxygenSensor SensorID="38" >
#       <SerialNumber>0434</SerialNumber>
#       <CalibrationDate>13-Apr-19</CalibrationDate>
#       <Use2007Equation>1</Use2007Equation>
#       <CalibrationCoefficients equation="0" >
#         <!-- Coefficients for Owens-Millard equation. -->
#         <Boc>0.0000</Boc>
#         <Soc>0.0000e+000</Soc>
#         <offset>0.0000</offset>
#         <Pcor>0.00e+000</Pcor>
#         <Tcor>0.0000</Tcor>
#         <Tau>0.0</Tau>
#       </CalibrationCoefficients>
#       <CalibrationCoefficients equation="1" >
#         <!-- Coefficients for Sea-Bird equation - SBE calibration in 2007 and later. -->
#         <Soc>4.2007e-001</Soc>
#         <offset>-0.6109</offset>
#         <A>-4.3656e-003</A>
#         <B> 1.7017e-004</B>
#         <C>-2.5341e-006</C>
#         <D0> 2.5826e+000</D0>
#         <D1> 1.92634e-004</D1>
#         <D2>-4.64803e-002</D2>
#         <E> 3.6000e-002</E>
#         <Tau20> 1.1800</Tau20>
#         <H1>-3.3000e-002</H1>
#         <H2> 5.0000e+003</H2>
#         <H3> 1.4500e+003</H3>
#       </CalibrationCoefficients>
#     </OxygenSensor>
#   </sensor>
#   <sensor Channel="5" >
#     <!-- A/D voltage 1, PAR/Logarithmic, Satlantic -->
#     <PARLog_SatlanticSensor SensorID="76" >
#       <SerialNumber>1122</SerialNumber>
#       <CalibrationDate>08-May-2019</CalibrationDate>
#       <a0>9.7456e-001</a0>
#       <a1>8.1640e-001</a1>
#       <Im>1.3589e+000</Im>
#       <Multiplier>1.0000e+000</Multiplier>
#     </PARLog_SatlanticSensor>
#   </sensor>
#   <sensor Channel="6" >
#     <!-- A/D voltage 2, pH -->
#     <pH_Sensor SensorID="43" >
#       <SerialNumber>0363</SerialNumber>
#       <CalibrationDate>15-Apr-19</CalibrationDate>
#       <Slope>4.5952</Slope>
#       <Offset>2.5370</Offset>
#     </pH_Sensor>
#   </sensor>
#   <sensor Channel="7" >
#     <!-- A/D voltage 3, Oxidation Reduction Potential -->
#     <OxidationReductionPotentialSensor SensorID="41" >
#       <SerialNumber>0363</SerialNumber>
#       <CalibrationDate>15-Apr-19</CalibrationDate>
#       <B>2.499480</B>
#       <M>-0.496195</M>
#       <Offset>0.0</Offset>
#     </OxidationReductionPotentialSensor>
#   </sensor>
#   <sensor Channel="8" >
#     <!-- A/D voltage 4, Fluorometer, WET Labs ECO-AFL/FL -->
#     <FluoroWetlabECO_AFL_FL_Sensor SensorID="20" >
#       <SerialNumber>FLNTURT-2496</SerialNumber>
#       <CalibrationDate>08-May-2019</CalibrationDate>
#       <ScaleFactor>5.00000000e+001</ScaleFactor>
#       <!-- Dark output -->
#       <Vblank>0.0550</Vblank>
#     </FluoroWetlabECO_AFL_FL_Sensor>
#   </sensor>
#   <sensor Channel="9" >
#     <!-- A/D voltage 5, Turbidity Meter, WET Labs, ECO-NTU -->
#     <TurbidityMeter SensorID="67" >
#       <SerialNumber>FLNTURT-2496</SerialNumber>
#       <CalibrationDate>08-May-2019</CalibrationDate>
#       <ScaleFactor>189.000000</ScaleFactor>
#       <!-- Dark output -->
#       <DarkVoltage>0.071000</DarkVoltage>
#     </TurbidityMeter>
#   </sensor>
# </Sensors>
# datcnv_date = Oct 16 2019 16:53:53, 7.26.7.129 [datcnv_vars = 15]
# datcnv_in = C:\DATA\101619_fcr50_0001.hex C:\DATA\SBE19plusV2_7809.xmlcon
# datcnv_skipover = 0
# datcnv_ox_hysteresis_correction = yes
# datcnv_ox_tau_correction = yes
# filter_date = Oct 16 2019 16:54:29, 7.26.7.129
# filter_in = C:\DATA\101619_fcr50_0001.cnv
# filter_low_pass_tc_A = 0.030
# filter_low_pass_tc_B = 0.150
# filter_low_pass_A_vars = sbeox0ML/L prdM prdE tv290C density00
# filter_low_pass_B_vars = depFM dz/dtM sbeox0PS specc c0uS/cm flECO-AFL ph orp par/sat/log turbWETntu0
# alignctd_date = Oct 16 2019 16:54:53, 7.26.7.129
# alignctd_in = C:\DATA\101619_fcr50_0001.cnv
# alignctd_adv = dz/dtM 1.000, sbeox0PS 1.000, specc 1.000, c0uS/cm 1.000, flECO-AFL 1.000, ph 1.000, orp 1.000, turbWETntu0 1.000                                                                                                   
# file_type = ascii
*END*
     -0.691      0.076     7.0051     95.222     36.256  28.640446    -0.1588      8.059   216.5174 4.4039e+02    -0.2921     -0.679     -0.985    13.1469   999.3622 0.0000e+00
     -0.681      0.128     7.0069     95.189     41.097  32.917581    -0.1297      8.341   203.9004 4.4776e+02    -0.1075     -0.678     -0.984    13.1334   999.3639 0.0000e+00
     -0.647      0.190     7.0046     95.199     41.182  33.438535     0.1901      8.550   193.4687 4.6535e+02     2.1279     -0.646     -0.938    13.1450   999.3642 0.0000e+00
     -0.586      0.256     6.9345     95.265     40.848  33.543597     0.7685      8.702   189.7635 4.9155e+02     6.2201     -0.579     -0.840    13.5751   999.3128 0.0000e+00
     -0.505      0.321     6.8069     95.400     40.544  33.553699     1.0809      8.791   189.5583 5.2532e+02     8.4386     -0.500     -0.726    14.3951   999.2053 0.0000e+00
     -0.408      0.376     6.7042     95.661     40.374  33.560986     1.1147      8.831   190.0408 5.5007e+02     8.6324     -0.407     -0.590    15.0731   999.1066 0.0000e+00
     -0.296      0.413     6.6264     96.114     40.208  33.504944     1.1507      8.837   190.3498 5.4383e+02     8.6609     -0.291     -0.422    15.6183   999.0219 0.0000e+00
     -0.178      0.421     6.5614     96.822     40.003  33.383902     1.4391      8.825   190.4549 4.6792e+02     8.5879     -0.174     -0.252    16.1178   998.9425 0.0000e+00
     -0.060      0.400     6.5257     97.800     39.890  33.303357     1.9669      8.807   190.7093 3.2332e+02     8.4049     -0.063     -0.091    16.4279   998.8915 0.0000e+00
      0.061      0.355     6.5207     98.948     39.836  33.229202     2.2599      8.788   191.1889 2.1061e+02     8.2833      0.064      0.093    16.5847   998.8658 0.0000e+00
      0.166      0.295     6.5385    100.155     39.763  33.121897     2.2859      8.766   191.7799 1.7074e+02     8.2316      0.181      0.262    16.6690   998.8519 0.0000e+00
      0.229      0.232     6.5756    101.310     39.766  33.084747     2.2720      8.743   192.2624 1.6471e+02     8.1741      0.239      0.347    16.7369   998.8406 0.0000e+00
      0.256      0.174     6.6421    102.321     39.894  33.160747     2.2479      8.719   192.6349 1.6425e+02     8.1120      0.252      0.366    16.7662   998.8356 0.0000e+00
      0.273      0.125     6.7305    103.189     40.063  33.279212     2.2291      8.699   192.9281 1.5585e+02     8.0714      0.266      0.387    16.7096   998.8453 0.0000e+00
      0.292      0.088     6.8246    104.035     40.257  33.438192     2.2178      8.682   193.0544 1.5054e+02     8.0754      0.287      0.416    16.6378   998.8575 0.0000e+00
      0.314      0.061     6.9149    105.225     40.447  33.623293     2.2244      8.664   192.9575 1.4984e+02     7.9967      0.306      0.442    16.5924   998.8653 0.0000e+00
      0.339      0.032     6.9853    106.576     40.531  33.740298     2.2560      8.648   192.6171 1.4828e+02     7.8080      0.334      0.485    16.5554   998.8718 0.0000e+00
      0.356     -0.008     7.0538    107.050     40.510  33.774052     2.2797      8.633   192.2941 1.5108e+02     7.6949      0.356      0.517    16.5197   998.8779 0.0000e+00
      0.356     -0.056     7.0955    105.898     40.463  33.777614     2.2766      8.617   192.2349 1.5935e+02     7.6777      0.356      0.515    16.5125   998.8792 0.0000e+00
      0.334     -0.104     7.1685    103.069     40.436  33.783420     2.2709      8.598   192.3321 1.7401e+02     7.7317      0.336      0.487    16.5529   998.8724 0.0000e+00
      0.289     -0.140     7.2913     98.802     40.417  33.780835     2.2712      8.577   192.4362 1.9631e+02     7.8227      0.290      0.420    16.6169   998.8614 0.0000e+00
      0.229     -0.160     7.3284     93.392     40.297  33.682901     2.2802      8.556   192.4620 2.2412e+02     7.8611      0.225      0.327    16.6857   998.8494 0.0000e+00
      0.169     -0.162     7.2415     87.390     40.062  33.487819     2.2847      8.539   192.4714 2.4542e+02     7.8683      0.160      0.232    16.7413   998.8395 0.0000e+00
      0.123     -0.152     7.0339     81.465     39.937  33.389504     2.2734      8.526   192.5497 2.4855e+02     7.8769      0.112      0.162    16.7765   998.8334 0.0000e+00
      0.096     -0.137     6.7402     76.170     39.994  33.446153     2.2564      8.514   192.7210 2.4653e+02     7.8997      0.091      0.132    16.7935   998.8304 0.0000e+00
      0.077     -0.122     6.3572     71.873     40.096  33.538135     2.2352      8.500   192.9070 2.5954e+02     7.9140      0.079      0.114    16.7907   998.8308 0.0000e+00
      0.053     -0.111     5.9327     68.700     40.182  33.613155     2.2251      8.487   193.0789 2.9211e+02     7.9184      0.056      0.082    16.7849   998.8315 0.0000e+00
      0.022     -0.106     5.5175     66.649     40.230  33.655116     2.2293      8.476   193.2504 3.3079e+02     7.9205      0.022      0.033    16.7966   998.8292 0.0000e+00
     -0.012     -0.101     5.1444     65.512     40.238  33.664693     2.2165      8.466   193.3463 3.5112e+02     7.9396     -0.013     -0.018    16.8127   998.8265 0.0000e+00
     -0.042     -0.092     4.8534     64.993     40.234  33.665497     2.1832      8.456   193.4638 3.6301e+02     8.0180     -0.043     -0.062    16.8196   998.8252 0.0000e+00
     -0.066     -0.076     4.6339     64.873     40.228  33.664832     2.1647      8.446   193.6388 3.8971e+02     8.0817     -0.068     -0.098    16.8220   998.8247 0.0000e+00
     -0.084     -0.055     4.5018     64.978     40.215  33.656658     2.1662      8.434   193.9135 4.1657e+02     8.1202     -0.084     -0.123    16.8234   998.8244 0.0000e+00
     -0.094     -0.034     4.4326     65.243     40.180  33.630134     2.1761      8.419   194.2900 4.1700e+02     8.1882     -0.094     -0.137    16.8270   998.8237 0.0000e+00
     -0.097     -0.016     4.4006     65.706     40.138  33.597995     2.1976      8.404   194.5760 4.0030e+02     8.2816     -0.097     -0.141    16.8329   998.8227 0.0000e+00
     -0.095     -0.004     4.3968     66.279     40.118  33.585402     2.2179      8.391   194.7909 3.9949e+02     8.3643     -0.094     -0.136    16.8384   998.8217 0.0000e+00
     -0.090      0.003     4.4063     66.840     40.136  33.604803     2.2216      8.379   194.9963 4.0129e+02     8.3687     -0.088     -0.127    16.8422   998.8211 0.0000e+00
     -0.087      0.005     4.4195     67.369     40.175  33.642188     2.2337      8.369   195.0801 3.9390e+02     8.2697     -0.084     -0.122    16.8446   998.8207 0.0000e+00
     -0.085      0.005     4.4543     67.812     40.186  33.656637     2.2612      8.359   195.2016 3.9746e+02     8.1511     -0.083     -0.121    16.8490   998.8199 0.0000e+00
     -0.085      0.003     4.4974     68.109     40.175  33.652582     2.2677      8.349   195.5196 4.0331e+02     8.1141     -0.083     -0.121    16.8544   998.8190 0.0000e+00
     -0.086      0.001     4.5327     68.282     40.175  33.656636     2.2678      8.341   195.8276 4.0248e+02     8.1168     -0.085     -0.123    16.8597   998.8181 0.0000e+00
     -0.087      0.000     4.5705     68.343     40.155  33.642195     2.2886      8.334   195.9997 4.0077e+02     8.1516     -0.085     -0.123    16.8657   998.8171 0.0000e+00
     -0.087      0.000     4.6018     68.255     40.108  33.604898     2.3112      8.326   196.1384 3.9652e+02     8.2399     -0.085     -0.123    16.8721   998.8160 0.0000e+00
     -0.086      0.001     4.6203     68.056     40.084  33.586468     2.3250      8.317   196.2995 3.9279e+02     8.3322     -0.084     -0.122    16.8784   998.8149 0.0000e+00
     -0.085      0.001     4.6302     67.831     40.109  33.609760     2.3344      8.310   196.3991 3.9028e+02     8.3817     -0.084     -0.122    16.8834   998.8141 0.0000e+00
     -0.084      0.001     4.6368     67.585     40.133  33.632668     2.3117      8.305   196.4825 3.8773e+02     8.3799     -0.083     -0.120    16.8867   998.8135 0.0000e+00
     -0.084      0.001     4.6294     67.323     40.103  33.609588     2.2592      8.298   196.6194 3.8781e+02     8.3765     -0.082     -0.119    16.8891   998.8130 0.0000e+00
     -0.085      0.002     4.6117     67.035     40.073  33.584562     2.2280      8.290   196.7635 3.8790e+02     8.3729     -0.083     -0.121    16.8910   998.8127 0.0000e+00
     -0.085      0.002     4.5982     66.703     40.073  33.583939     2.2209      8.283   196.9343 3.8474e+02     8.3687     -0.084     -0.122    16.8940   998.8122 0.0000e+00
     -0.084      0.004     4.5801     66.360     40.096  33.602054     2.2251      8.279   197.0499 3.7864e+02     8.3916     -0.083     -0.120    16.8979   998.8116 0.0000e+00
     -0.083      0.009     4.5621     66.027     40.111  33.613196     2.2615      8.277   197.0424 3.7338e+02     8.6169     -0.081     -0.118    16.9007   998.8110 0.0000e+00
     -0.081      0.015     4.5443     65.706     40.019  33.528266     2.3141      8.272   197.0163 3.7124e+02     9.0287     -0.080     -0.115    16.9006   998.8111 0.0000e+00
     -0.079      0.020     4.5195     65.402     39.887  33.400187     2.3316      8.266   196.9065 3.7375e+02     9.2416     -0.078     -0.114    16.8999   998.8112 0.0000e+00
     -0.074      0.023     4.4969     65.129     39.901  33.397321     2.3271      8.261   196.8331 3.7610e+02     9.2246     -0.075     -0.110    16.8973   998.8116 0.0000e+00
     -0.062      0.025     4.4738     64.849     40.019  33.493597     2.2941      8.258   196.9893 3.7049e+02     8.9864     -0.062     -0.089    16.8978   998.8117 0.0000e+00
     -0.050      0.026     4.4528     64.489     40.084  33.548842     2.2177      8.255   197.0740 3.7405e+02     8.5578     -0.044     -0.065    16.8943   998.8123 0.0000e+00
     -0.045      0.023     4.4340     64.049     40.102  33.557567     2.1666      8.253   197.0820 3.9022e+02     8.3028     -0.042     -0.062    16.8630   998.8177 0.0000e+00
     -0.044      0.018     4.4187     63.589     40.158  33.599081     2.1615      8.249   197.1722 3.8119e+02     8.2625     -0.046     -0.067    16.8367   998.8222 0.0000e+00
     -0.039      0.014     4.4023     63.147     40.166  33.606522     2.1821      8.241   197.2188 3.6120e+02     8.2347     -0.037     -0.054    16.8433   998.8212 0.0000e+00
     -0.035      0.013     4.3765     62.733     39.986  33.457150     2.2080      8.225   197.2148 3.6765e+02     8.1639     -0.031     -0.044    16.8489   998.8202 0.0000e+00
     -0.036      0.012     4.3462     62.388     39.746  33.252700     2.2141      8.207   197.2100 3.7293e+02     8.0946     -0.035     -0.052    16.8376   998.8220 0.0000e+00
     -0.035      0.008     4.3149     62.126     39.651  33.165377     2.2130      8.198   197.4197 3.6418e+02     8.0517     -0.039     -0.058    16.8230   998.8246 0.0000e+00
     -0.026     -0.001     4.2852     61.914     39.743  33.226349     2.2032      8.195   198.2017 3.5208e+02     7.9074     -0.026     -0.038    16.8320   998.8232 0.0000e+00
     -0.018     -0.010     4.2546     61.730     39.917  33.355255     2.1831      8.193   203.1367 3.4309e+02     7.5944     -0.011     -0.017    16.8354   998.8225 0.0000e+00
     -0.022     -0.017     4.2316     61.560     40.043  33.454680     2.1689      8.191   211.9179 3.4583e+02     7.3816     -0.018     -0.027    16.8275   998.8237 0.0000e+00
     -0.036     -0.020     4.2156     61.406     40.068  33.476522     2.1619      8.184   216.7864 3.4104e+02     7.3989     -0.036     -0.052    16.8268   998.8238 0.0000e+00
     -0.052     -0.019     4.2036     61.257     40.005  33.428958     2.1767      8.171   217.1744 3.3305e+02     7.7051     -0.053     -0.077    16.7960   998.8290 0.0000e+00
     -0.063     -0.013     4.1944     61.092     39.946  33.387303     2.2091      8.157   217.0401 3.3956e+02     8.2328     -0.066     -0.095    16.7707   998.8334 0.0000e+00
     -0.063     -0.002     4.1825     60.924     39.892  33.353660     2.2240      8.147   216.7967 3.3811e+02     8.5358     -0.065     -0.094    16.7660   998.8342 0.0000e+00
     -0.055      0.009     4.1721     60.790     39.783  33.276057     2.2176      8.139   216.4689 3.1918e+02     8.5493     -0.052     -0.077    16.7696   998.8337 0.0000e+00
     -0.047      0.014     4.1621     60.686     39.691  33.210589     2.2095      8.130   216.0881 2.9922e+02     8.4949     -0.045     -0.065    16.7782   998.8322 0.0000e+00
     -0.039      0.013     4.1503     60.596     39.665  33.196744     2.2131      8.122   215.6336 2.8352e+02     8.3365     -0.039     -0.057    16.7825   998.8314 0.0000e+00
     -0.034      0.008     4.1358     60.497     39.709  33.235592     2.2264      8.117   215.2763 2.7241e+02     8.0763     -0.030     -0.045    16.7995   998.8286 0.0000e+00
     -0.034      0.005     4.1256     60.385     39.789  33.299520     2.2309      8.111   214.9512 2.7242e+02     7.9384     -0.031     -0.044    16.8179   998.8254 0.0000e+00
     -0.040      0.006     4.1179     60.305     39.760  33.271595     2.2246      8.099   214.6280 2.8257e+02     7.9149     -0.040     -0.058    16.8333   998.8226 0.0000e+00
     -0.045      0.009     4.1107     60.290     39.623  33.151793     2.2370      8.080   214.3796 2.8762e+02     7.9231     -0.047     -0.069    16.8452   998.8206 0.0000e+00
     -0.043      0.012     4.1051     60.345     39.520  33.056795     2.2683      8.062   213.9273 2.7739e+02     8.0051     -0.046     -0.066    16.8479   998.8201 0.0000e+00
     -0.033      0.013     4.0956     60.439     39.487  33.011464     2.2817      8.047   211.3956 2.6575e+02     8.0534     -0.034     -0.049    16.8406   998.8215 0.0000e+00
     -0.019      0.011     4.0901     60.494     39.504  32.984451     2.2782      8.036   209.0650 2.6557e+02     8.0483     -0.017     -0.025    16.8373   998.8221 0.0000e+00
     -0.012      0.006     4.0896     60.444     39.574  32.983977     2.2517      8.030   210.8714 2.6929e+02     8.0423     -0.008     -0.011    16.8320   998.8230 0.0000e+00
     -0.015      0.000     4.0943     60.265     39.657  33.005664     2.1960      8.027   212.6729 2.7168e+02     8.0134     -0.013     -0.020    16.8198   998.8250 0.0000e+00
     -0.023     -0.006     4.1046     59.984     39.665  32.992754     2.1675      8.025   210.4559 2.7967e+02     7.9609     -0.023     -0.033    16.8105   998.8266 0.0000e+00
     -0.030     -0.008     4.1140     59.642     39.628  32.954782     2.1763      8.023   206.2640 3.0059e+02     7.8984     -0.030     -0.043    16.7568   998.8358 0.0000e+00
     -0.035     -0.006     4.1196     59.235     39.611  32.927320     2.2078      8.018   203.6316 3.1891e+02     7.8474     -0.037     -0.054    16.6628   998.8518 0.0000e+00
     -0.033     -0.002     4.1128     58.773     39.616  32.914547     2.2614      8.013   202.7192 3.1662e+02     7.8368     -0.035     -0.049    16.5945   998.8634 0.0000e+00
     -0.028      0.004     4.0927     58.300     39.646  32.927247     2.2869      8.006   202.2008 3.0837e+02     7.8687     -0.026     -0.038    16.5789   998.8661 0.0000e+00
     -0.025      0.010     4.0705     57.844     39.683  32.953927     2.2824      7.996   201.8386 3.0889e+02     7.8732     -0.023     -0.034    16.5814   998.8656 0.0000e+00
     -0.025      0.017     4.0440     57.408     39.719  32.983278     2.2501      7.987   201.4375 3.1302e+02     7.8910     -0.026     -0.036    16.5626   998.8688 0.0000e+00
     -0.025      0.025     4.0131     57.002     39.771  33.028279     2.1819      7.977   201.1360 3.1251e+02     7.9845     -0.028     -0.039    16.5353   998.8734 0.0000e+00
     -0.019      0.037     3.9818     56.654     39.871  33.117264     2.1510      7.965   200.8609 3.0549e+02     8.0536     -0.021     -0.029    16.5191   998.8762 0.0000e+00
     -0.008      0.054     3.9507     56.367     39.994  33.234174     2.1625      7.952   200.6915 2.9376e+02     8.0721     -0.008     -0.011    16.5164   998.8766 0.0000e+00
      0.006      0.076     3.9212     56.146     40.043  33.299504     2.1656      7.937   200.5511 2.7593e+02     8.0761      0.003      0.005    16.5168   998.8767 0.0000e+00
      0.026      0.098     3.8919     56.033     39.979  33.272560     2.1885      7.922   200.3674 2.5549e+02     8.1673      0.022      0.034    16.5156   998.8770 0.0000e+00
      0.054      0.117     3.8682     56.056     39.903  33.225748     2.2398      7.907   200.4498 2.3489e+02     8.3890      0.051      0.074    16.5234   998.8758 0.0000e+00
      0.090      0.130     3.8473     56.153     39.832  33.177771     2.2742      7.893   200.7735 2.1077e+02     8.5279      0.086      0.124    16.5394   998.8734 0.0000e+00
      0.133      0.135     3.8282     56.229     39.686  33.073257     2.2926      7.881   201.0983 1.8707e+02     8.5034      0.131      0.191    16.5741   998.8677 0.0000e+00
      0.175      0.133     3.8155     56.244     39.544  32.977510     2.2971      7.870   201.3649 1.7055e+02     8.4195      0.174      0.253    16.6174   998.8605 0.0000e+00
      0.210      0.124     3.8177     56.167     39.508  32.972066     2.2768      7.861   201.5880 1.5920e+02     8.3326      0.207      0.301    16.6309   998.8585 0.0000e+00
      0.240      0.111     3.8276     55.995     39.529  33.007463     2.2644      7.853   201.9026 1.4910e+02     8.3058      0.236      0.344    16.6390   998.8572 0.0000e+00
      0.264      0.100     3.8299     55.740     39.544  33.024745     2.2767      7.844   202.3291 1.4206e+02     8.3248      0.262      0.380    16.6630   998.8532 0.0000e+00
      0.282      0.094     3.8307     55.405     39.581  33.054099     2.3043      7.831   202.6151 1.3790e+02     8.2674      0.277      0.403    16.6920   998.8482 0.0000e+00
      0.300      0.094     3.8219     55.025     39.649  33.108529     2.3383      7.816   202.7802 1.3263e+02     8.1362      0.291      0.422    16.7278   998.8422 0.0000e+00
      0.323      0.098     3.8078     54.652     39.654  33.111676     2.3589      7.797   202.8627 1.2601e+02     8.0820      0.316      0.458    16.7533   998.8380 0.0000e+00
      0.349      0.102     3.7909     54.356     39.557  33.028694     2.3538      7.772   202.8377 1.1895e+02     8.1031      0.343      0.498    16.7560   998.8377 0.0000e+00
      0.379      0.102     3.7668     54.171     39.440  32.930208     2.3279      7.746   202.9942 1.1107e+02     8.0967      0.369      0.536    16.7514   998.8386 0.0000e+00
      0.412      0.096     3.7409     54.088     39.370  32.872825     2.2977      7.729   203.2924 1.0449e+02     8.0707      0.405      0.588    16.7482   998.8393 0.0000e+00
      0.442      0.082     3.7128     54.056     39.340  32.842585     2.2830      7.724   203.5175 1.0010e+02     8.0504      0.438      0.634    16.7473   998.8397 0.0000e+00
      0.464      0.063     3.6927     54.023     39.341  32.818424     2.2806      7.724   203.6502 9.7381e+01     8.0478      0.458      0.664    16.7449   998.8401 0.0000e+00
      0.476      0.044     3.6804     53.969     39.403  32.834510     2.2685      7.727   203.6932 9.6567e+01     8.0071      0.471      0.682    16.7388   998.8411 0.0000e+00
      0.479      0.031     3.6757     53.869     39.528  32.910113     2.2498      7.732   203.8646 9.6878e+01     7.9184      0.471      0.683    16.7465   998.8398 0.0000e+00
      0.477      0.028     3.6748     53.724     39.616  32.970944     2.2361      7.731   204.1736 9.7460e+01     7.8602      0.467      0.678    16.7516   998.8389 0.0000e+00
      0.476      0.033     3.6753     53.580     39.576  32.935375     2.2250      7.718   204.3326 9.7554e+01     7.8280      0.466      0.675    16.7117   998.8457 0.0000e+00
      0.480      0.041     3.6772     53.488     39.486  32.860825     2.2193      7.703   204.4108 9.5670e+01     7.8238      0.465      0.674    16.6555   998.8553 0.0000e+00
      0.496      0.048     3.6733     53.468     39.451  32.831109     2.2189      7.696   204.4306 9.1728e+01     7.8424      0.481      0.697    16.6165   998.8620 0.0000e+00
      0.522      0.053     3.6632     53.509     39.462  32.829929     2.2205      7.697   204.4857 8.7883e+01     7.8564      0.515      0.746    16.6026   998.8646 0.0000e+00
      0.544      0.056     3.6514     53.599     39.513  32.846550     2.2214      7.700   204.6474 8.5877e+01     7.8618      0.539      0.782    16.6080   998.8637 0.0000e+00
      0.553      0.057     3.6451     53.726     39.618  32.905113     2.2211      7.700   204.7509 8.5266e+01     7.8413      0.544      0.790    16.6029   998.8646 0.0000e+00
      0.558      0.056     3.6437     53.864     39.947  33.157195     2.2336      7.694   204.8768 8.4387e+01     7.8710      0.545      0.790    16.6105   998.8633 0.0000e+00
      0.568      0.055     3.6473     54.046     40.482  33.609741     2.2596      7.681   204.9647 8.2109e+01     7.9920      0.554      0.804    16.6043   998.8645 0.0000e+00
      0.584      0.056     3.6569     54.454     40.796  33.934351     2.2752      7.664   205.0392 7.9080e+01     8.0589      0.572      0.829    16.5605   998.8719 0.0000e+00
      0.603      0.056     3.6695     55.391     40.793  34.035824     2.2749      7.652   205.2613 7.6043e+01     8.0568      0.591      0.857    16.5210   998.8787 0.0000e+00
      0.623      0.052     3.6820     57.178     40.724  34.075189     2.2744      7.647   205.5003 7.3469e+01     7.9670      0.612      0.888    16.4870   998.8845 0.0000e+00
      0.639      0.046     3.6900     59.888     40.669  34.093104     2.2778      7.647   205.6909 7.1956e+01     7.7593      0.631      0.914    16.4789   998.8863 0.0000e+00
      0.648      0.042     3.7041     63.192     40.588  34.062114     2.2812      7.647   205.9314 7.1158e+01     7.6432      0.638      0.925    16.5616   998.8725 0.0000e+00
      0.652      0.044     3.7462     66.642     40.509  34.017864     2.2799      7.642   206.1710 7.0930e+01     7.6446      0.641      0.930    16.7232   998.8451 0.0000e+00
      0.654      0.050     3.8531     69.887     40.471  34.002360     2.2796      7.630   206.2653 7.0740e+01     7.7437      0.639      0.927    16.8509   998.8232 0.0000e+00
      0.661      0.060     4.0424     72.607     40.454  34.001610     2.2867      7.616   206.2972 6.8945e+01     7.9563      0.640      0.929    16.9215   998.8110 0.0000e+00
      0.682      0.070     4.2741     74.576     40.451  34.008814     2.2873      7.601   206.3845 6.5467e+01     8.0852      0.666      0.965    16.9639   998.8037 0.0000e+00
      0.712      0.078     4.5121     75.733     40.465  34.026014     2.2782      7.585   206.3744 6.2377e+01     8.0894      0.702      1.019    16.9857   998.8001 0.0000e+00
      0.739      0.081     4.7378     76.113     40.453  34.019174     2.2551      7.575   206.2607 6.0309e+01     8.0408      0.726      1.054    17.0055   998.7968 0.0000e+00
      0.761      0.079     4.9267     75.886     40.415  33.989587     2.2241      7.572   206.2137 5.8597e+01     7.9550      0.747      1.083    17.0224   998.7939 0.0000e+00
      0.778      0.071     5.0580     75.321     40.409  33.985615     2.2164      7.572   206.3227 5.7298e+01     7.9039      0.766      1.110    17.0339   998.7920 0.0000e+00
      0.792      0.062     5.1360     74.631     40.391  33.971146     2.2222      7.573   206.5467 5.6148e+01     7.8814      0.777      1.128    17.0410   998.7908 0.0000e+00
      0.805      0.056     5.1572     73.937     40.356  33.941570     2.2167      7.569   206.7710 5.4741e+01     7.8476      0.789      1.144    17.0447   998.7902 0.0000e+00
      0.818      0.051     5.1334     73.327     40.361  33.945343     2.2268      7.562   206.9700 5.3210e+01     7.8884      0.803      1.164    17.0464   998.7899 0.0000e+00
      0.832      0.045     5.0908     72.842     40.372  33.953305     2.2665      7.555   207.1458 5.1681e+01     8.0146      0.816      1.183    17.0476   998.7898 0.0000e+00
      0.846      0.037     5.0412     72.454     40.398  33.974369     2.2895      7.551   207.2623 5.0294e+01     8.0956      0.830      1.203    17.0488   998.7897 0.0000e+00
      0.856      0.029     4.9928     72.138     40.441  34.009619     2.2800      7.550   207.3463 4.9328e+01     8.0811      0.841      1.219    17.0493   998.7896 0.0000e+00
      0.863      0.020     4.9493     71.889     40.429  33.998723     2.2460      7.550   207.4726 4.8816e+01     7.8386      0.847      1.229    17.0491   998.7897 0.0000e+00
      0.865      0.012     4.9190     71.694     40.395  33.969557     2.1995      7.551   207.6708 4.8711e+01     7.4250      0.849      1.232    17.0476   998.7900 0.0000e+00
      0.863      0.007     4.8932     71.523     40.402  33.974307     2.1700      7.551   207.8502 4.8810e+01     7.2421      0.846      1.227    17.0445   998.7904 0.0000e+00
      0.862      0.003     4.8718     71.346     40.425  33.992686     2.1574      7.549   207.8343 4.8817e+01     7.2661      0.843      1.223    17.0441   998.7906 0.0000e+00
      0.862      0.000     4.8556     71.194     40.439  34.001380     2.1513      7.548   207.8218 4.8779e+01     7.3547      0.845      1.225    17.0440   998.7906 0.0000e+00
      0.864      0.000     4.8427     71.113     40.460  34.015955     2.1565      7.547   207.9578 4.8870e+01     7.5594      0.848      1.230    17.0418   998.7909 0.0000e+00
      0.865      0.001     4.8333     71.089     40.493  34.041975     2.1678      7.546   208.0168 4.9136e+01     7.7093      0.849      1.231    17.0411   998.7911 0.0000e+00
      0.864      0.002     4.8199     71.099     40.520  34.062122     2.1752      7.544   208.0188 4.9447e+01     7.7248      0.847      1.229    17.0402   998.7913 0.0000e+00
      0.864      0.002     4.8083     71.138     40.534  34.069143     2.2121      7.543   208.0682 4.9644e+01     7.8463      0.846      1.228    17.0358   998.7920 0.0000e+00
      0.864      0.001     4.8043     71.189     40.535  34.063388     2.2837      7.541   208.1841 4.9658e+01     8.1287      0.847      1.228    17.0321   998.7927 0.0000e+00
      0.865      0.001     4.8036     71.246     40.536  34.056003     2.3305      7.539   208.3875 4.9588e+01     8.3217      0.848      1.230    17.0302   998.7930 0.0000e+00
      0.866      0.001     4.8039     71.296     40.530  34.043313     2.3435      7.537   208.5482 4.9552e+01     8.3440      0.849      1.232    17.0275   998.7935 0.0000e+00
      0.866      0.001     4.8082     71.335     40.528  34.036872     2.3546      7.534   208.6643 4.9512e+01     8.3003      0.849      1.232    17.0231   998.7943 0.0000e+00
      0.865      0.001     4.8121     71.392     40.537  34.041588     2.3610      7.530   208.8452 4.9376e+01     8.2853      0.848      1.230    17.0145   998.7957 0.0000e+00
      0.865      0.002     4.8176     71.483     40.532  34.036868     2.3519      7.526   209.0141 4.9131e+01     8.2938      0.848      1.231    17.0020   998.7980 0.0000e+00
      0.866      0.005     4.8227     71.576     40.537  34.043262     2.3403      7.524   209.1582 4.8871e+01     8.3051      0.849      1.232    16.9920   998.7997 0.0000e+00
      0.867      0.010     4.8244     71.638     40.548  34.055435     2.3414      7.523   209.2962 4.8695e+01     8.3234      0.850      1.234    16.9862   998.8007 0.0000e+00
      0.867      0.018     4.8281     71.684     40.546  34.057123     2.3485      7.521   209.3922 4.8580e+01     8.4168      0.851      1.235    16.9829   998.8013 0.0000e+00
      0.869      0.027     4.8353     71.734     40.548  34.063673     2.3481      7.516   209.3727 4.8150e+01     8.6143      0.850      1.234    16.9830   998.8012 0.0000e+00
      0.877      0.034     4.8427     71.779     40.552  34.071168     2.3449      7.511   209.3180 4.7153e+01     8.7454      0.857      1.244    16.9860   998.8007 0.0000e+00
      0.891      0.039     4.8454     71.795     40.562  34.084279     2.3440      7.507   209.4193 4.5906e+01     8.7886      0.874      1.267    16.9901   998.8001 0.0000e+00
      0.907      0.042     4.8476     71.785     40.572  34.095278     2.3540      7.503   209.4795 4.4881e+01     8.8093      0.891      1.292    16.9938   998.7996 0.0000e+00
      0.919      0.043     4.8508     71.769     40.548  34.077231     2.3793      7.498   209.4435 4.4312e+01     8.7997      0.904      1.312    16.9992   998.7987 0.0000e+00
      0.928      0.041     4.8540     71.750     40.522  34.056464     2.3988      7.495   209.4999 4.3895e+01     8.8034      0.911      1.321    17.0062   998.7975 0.0000e+00
      0.936      0.039     4.8545     71.716     40.495  34.034592     2.4081      7.492   209.5594 4.3340e+01     8.7880      0.917      1.331    17.0116   998.7966 0.0000e+00
      0.944      0.037     4.8524     71.644     40.455  34.003175     2.4400      7.487   209.6466 4.2726e+01     8.7117      0.927      1.344    17.0152   998.7961 0.0000e+00
      0.954      0.037     4.8516     71.567     40.441  33.993939     2.4990      7.484   209.7798 4.1968e+01     8.6342      0.935      1.356    17.0175   998.7957 0.0000e+00
      0.965      0.038     4.8497     71.526     40.432  33.986389     2.5319      7.481   209.8799 4.1023e+01     8.6052      0.945      1.371    17.0184   998.7955 0.0000e+00
      0.976      0.038     4.8492     71.516     40.419  33.975349     2.5250      7.476   210.0826 4.0170e+01     8.6235      0.958      1.389    17.0190   998.7955 0.0000e+00
      0.986      0.037     4.8426     71.533     40.432  33.987389     2.5018      7.473   210.3381 3.9449e+01     8.6919      0.967      1.403    17.0220   998.7950 0.0000e+00
      0.995      0.036     4.8351     71.568     40.452  34.005025     2.4778      7.470   210.4732 3.8684e+01     8.7759      0.976      1.415    17.0259   998.7943 0.0000e+00
      1.004      0.035     4.8340     71.595     40.441  33.998197     2.4683      7.466   210.5977 3.8003e+01     8.7875      0.986      1.429    17.0254   998.7945 0.0000e+00
      1.012      0.034     4.8323     71.598     40.401  33.968300     2.4647      7.462   210.7245 3.7398e+01     8.7344      0.993      1.439    17.0246   998.7946 0.0000e+00
      1.020      0.033     4.8342     71.579     40.387  33.960875     2.4343      7.458   210.7155 3.6724e+01     8.5595      1.000      1.450    17.0257   998.7945 0.0000e+00
      1.030      0.031     4.8370     71.531     40.397  33.971885     2.3782      7.454   210.6613 3.6081e+01     8.2793      1.010      1.465    17.0265   998.7944 0.0000e+00
      1.039      0.026     4.8391     71.428     40.399  33.974495     2.3420      7.450   210.5850 3.5570e+01     8.1319      1.019      1.477    17.0301   998.7938 0.0000e+00
      1.047      0.021     4.8385     71.293     40.422  33.992437     2.3341      7.447   210.4811 3.5220e+01     8.0876      1.028      1.490    17.0353   998.7930 0.0000e+00
      1.052      0.016     4.8364     71.173     40.432  33.998425     2.3349      7.444   210.5243 3.5096e+01     8.0720      1.034      1.500    17.0397   998.7922 0.0000e+00
      1.053      0.011     4.8345     71.090     40.417  33.983426     2.3341      7.441   210.6763 3.5161e+01     8.1724      1.034      1.499    17.0436   998.7915 0.0000e+00
      1.053      0.007     4.8264     71.035     40.440  34.001473     2.3327      7.438   210.7712 3.5181e+01     8.3180      1.032      1.496    17.0457   998.7912 0.0000e+00
      1.053      0.004     4.8159     71.004     40.472  34.026235     2.3355      7.434   210.8116 3.5028e+01     8.3583      1.032      1.497    17.0437   998.7915 0.0000e+00
      1.055      0.003     4.8077     70.984     40.478  34.028959     2.3421      7.431   210.9063 3.4820e+01     8.2983      1.034      1.500    17.0390   998.7924 0.0000e+00
      1.057      0.003     4.8030     70.984     40.487  34.034408     2.3343      7.428   211.1424 3.4681e+01     8.0191      1.036      1.503    17.0359   998.7929 0.0000e+00
      1.057      0.004     4.7991     71.024     40.482  34.028647     2.3107      7.424   211.3425 3.4571e+01     7.5392      1.037      1.504    17.0353   998.7930 0.0000e+00
      1.057      0.004     4.7979     71.090     40.477  34.022765     2.2995      7.421   211.2606 3.4378e+01     7.2800      1.036      1.503    17.0331   998.7934 0.0000e+00
      1.058      0.004     4.7970     71.165     40.485  34.026746     2.2946      7.420   211.0127 3.4129e+01     7.2445      1.037      1.504    17.0294   998.7941 0.0000e+00
      1.060      0.007     4.7954     71.238     40.471  34.013312     2.2947      7.417   210.9267 3.3959e+01     7.4384      1.040      1.507    17.0275   998.7944 0.0000e+00
      1.062      0.013     4.7998     71.323     40.440  33.987273     2.3007      7.409   210.9952 3.3920e+01     7.8873      1.042      1.510    17.0258   998.7947 0.0000e+00
      1.062      0.021     4.8044     71.413     40.410  33.965772     2.2977      7.394   210.9799 3.3873e+01     8.1500      1.041      1.511    17.0233   998.7952 0.0000e+00
      1.065      0.033     4.8108     71.460     40.379  33.943744     2.2936      7.370   210.9997 3.3455e+01     8.1561      1.041      1.510    17.0193   998.7958 0.0000e+00
      1.074      0.045     4.8153     71.454     40.335  33.911334     2.3204      7.344   211.1492 3.2722e+01     8.2233      1.052      1.525    17.0156   998.7965 0.0000e+00
      1.088      0.056     4.8203     71.434     40.306  33.891244     2.3792      7.325   211.3239 3.1902e+01     8.4382      1.066      1.546    17.0173   998.7963 0.0000e+00
      1.107      0.063     4.8283     71.403     40.301  33.891233     2.4146      7.310   211.3924 3.0789e+01     8.5917      1.083      1.570    17.0228   998.7954 0.0000e+00
      1.131      0.065     4.8309     71.334     40.322  33.911205     2.4187      7.295   211.3744 2.9697e+01     8.6036      1.111      1.612    17.0276   998.7947 0.0000e+00
      1.151      0.061     4.8287     71.245     40.359  33.942336     2.4284      7.289   211.4511 2.8909e+01     8.5498      1.131      1.640    17.0330   998.7937 0.0000e+00
      1.167      0.053     4.8258     71.159     40.370  33.950309     2.4450      7.290   211.5446 2.8276e+01     8.4329      1.144      1.660    17.0399   998.7926 0.0000e+00
      1.178      0.044     4.8256     71.089     40.365  33.944134     2.4551      7.293   211.6450 2.7917e+01     8.3368      1.158      1.679    17.0450   998.7918 0.0000e+00
      1.185      0.035     4.8190     71.033     40.351  33.931141     2.4631      7.293   211.8043 2.7681e+01     8.3391      1.162      1.685    17.0476   998.7914 0.0000e+00
      1.190      0.026     4.8127     70.979     40.340  33.920132     2.4650      7.294   211.8367 2.7347e+01     8.3293      1.166      1.691    17.0480   998.7914 0.0000e+00
      1.195      0.018     4.8071     70.957     40.362  33.937961     2.4429      7.301   211.7781 2.6876e+01     8.2186      1.171      1.698    17.0462   998.7917 0.0000e+00
      1.203      0.011     4.8018     70.966     40.385  33.956309     2.4122      7.311   211.8702 2.6376e+01     8.1151      1.180      1.712    17.0425   998.7924 0.0000e+00
      1.208      0.006     4.8002     70.989     40.382  33.951581     2.4062      7.318   212.0033 2.6320e+01     8.0931      1.189      1.725    17.0398   998.7929 0.0000e+00
      1.206      0.002     4.7943     71.011     40.377  33.944261     2.4137      7.323   212.0972 2.6682e+01     8.0835      1.185      1.719    17.0389   998.7930 0.0000e+00
      1.199     -0.002     4.7936     71.006     40.366  33.931269     2.3912      7.327   212.1453 2.6946e+01     7.9668      1.174      1.703    17.0377   998.7932 0.0000e+00
      1.196     -0.004     4.7951     70.989     40.356  33.921416     2.3494      7.329   212.0687 2.6980e+01     7.7636      1.170      1.698    17.0368   998.7933 0.0000e+00
      1.198     -0.005     4.7962     70.995     40.393  33.952051     2.3334      7.330   212.0314 2.6956e+01     7.6260      1.175      1.704    17.0346   998.7937 0.0000e+00
      1.199     -0.003     4.8002     71.039     40.432  33.984351     2.3367      7.332   212.0388 2.7092e+01     7.5801      1.178      1.708    17.0297   998.7946 0.0000e+00
      1.199     -0.001     4.7991     71.110     40.446  33.994622     2.3470      7.333   212.0725 2.7353e+01     7.6030      1.176      1.706    17.0252   998.7954 0.0000e+00
      1.197      0.000     4.7974     71.194     40.467  34.012774     2.3540      7.334   212.1801 2.7521e+01     7.6406      1.174      1.703    17.0231   998.7957 0.0000e+00
      1.197      0.001     4.7974     71.267     40.467  34.013425     2.3429      7.334   212.2218 2.7569e+01     7.6407      1.173      1.701    17.0224   998.7959 0.0000e+00
      1.197      0.004     4.8009     71.314     40.455  34.002504     2.3344      7.333   212.3185 2.7533e+01     7.6378      1.173      1.701    17.0216   998.7960 0.0000e+00
      1.198      0.010     4.8063     71.356     40.463  34.007649     2.3287      7.331   212.5749 2.7421e+01     7.7043      1.174      1.703    17.0201   998.7963 0.0000e+00
      1.199      0.019     4.8120     71.392     40.471  34.012169     2.3087      7.326   212.7403 2.7206e+01     7.8215      1.175      1.704    17.0205   998.7962 0.0000e+00
      1.202      0.031     4.8183     71.414     40.451  33.993688     2.2921      7.320   212.8555 2.6801e+01     7.8420      1.178      1.707    17.0227   998.7958 0.0000e+00
      1.210      0.047     4.8196     71.429     40.428  33.974591     2.2920      7.306   213.0205 2.6149e+01     7.8544      1.185      1.718    17.0216   998.7961 0.0000e+00
      1.223      0.065     4.8235     71.439     40.420  33.971659     2.3506      7.286   213.0155 2.5339e+01     8.1345      1.199      1.739    17.0192   998.7966 0.0000e+00
      1.241      0.082     4.8264     71.437     40.397  33.958248     2.4640      7.271   213.0529 2.4369e+01     8.5418      1.216      1.762    17.0170   998.7971 0.0000e+00
      1.266      0.097     4.8276     71.419     40.367  33.939370     2.5266      7.262   213.2144 2.2932e+01     8.7146      1.236      1.792    17.0133   998.7978 0.0000e+00
      1.299      0.107     4.8291     71.384     40.355  33.933818     2.5269      7.258   213.1624 2.1379e+01     8.7500      1.275      1.850    17.0123   998.7981 0.0000e+00
      1.332      0.113     4.8290     71.341     40.375  33.954590     2.5279      7.256   213.1116 2.0314e+01     8.8709      1.310      1.901    17.0182   998.7972 0.0000e+00
      1.360      0.113     4.8284     71.302     40.427  34.000124     2.5390      7.252   213.2028 1.9369e+01     8.9964      1.332      1.932    17.0275   998.7957 0.0000e+00
      1.389      0.107     4.8261     71.267     40.472  34.040109     2.5402      7.248   213.2326 1.8362e+01     9.0228      1.364      1.978    17.0350   998.7946 0.0000e+00
      1.418      0.096     4.8233     71.224     40.491  34.057259     2.5335      7.248   213.2132 1.7518e+01     8.9935      1.393      2.020    17.0406   998.7937 0.0000e+00
      1.444      0.085     4.8192     71.160     40.518  34.080550     2.5274      7.253   213.2263 1.6784e+01     8.9695      1.416      2.055    17.0453   998.7930 0.0000e+00
      1.465      0.077     4.8165     71.091     40.578  34.131317     2.4841      7.256   213.3050 1.6285e+01     8.8636      1.442      2.091    17.0483   998.7926 0.0000e+00
      1.479      0.070     4.8141     71.041     40.616  34.163353     2.4091      7.256   213.3906 1.6002e+01     8.6308      1.452      2.106    17.0502   998.7923 0.0000e+00
      1.490      0.065     4.8119     71.018     40.601  34.150571     2.3663      7.254   213.4009 1.5637e+01     8.4814      1.459      2.115    17.0514   998.7922 0.0000e+00
      1.505      0.061     4.8070     71.017     40.546  34.103692     2.3482      7.252   213.4297 1.5119e+01     8.4669      1.474      2.137    17.0518   998.7922 0.0000e+00
      1.524      0.060     4.8013     71.047     40.472  34.040803     2.3371      7.252   213.5675 1.4587e+01     8.3902      1.495      2.168    17.0524   998.7922 0.0000e+00
      1.544      0.061     4.7979     71.116     40.454  34.024851     2.3438      7.252   213.6897 1.4182e+01     8.2419      1.516      2.200    17.0523   998.7923 0.0000e+00
      1.558      0.061     4.7967     71.208     40.469  34.037744     2.3519      7.252   213.7025 1.3878e+01     8.1484      1.529      2.218    17.0517   998.7925 0.0000e+00
      1.569      0.059     4.7965     71.289     40.432  34.006298     2.3489      7.250   213.7229 1.3519e+01     8.1109      1.536      2.229    17.0518   998.7925 0.0000e+00
      1.584      0.055     4.7978     71.323     40.379  33.961962     2.3424      7.247   213.7637 1.3084e+01     8.0512      1.551      2.250    17.0507   998.7928 0.0000e+00
      1.600      0.053     4.8035     71.311     40.359  33.945937     2.3420      7.242   213.7656 1.2683e+01     7.9515      1.570      2.278    17.0495   998.7930 0.0000e+00
      1.615      0.054     4.8101     71.278     40.351  33.939478     2.3521      7.237   213.9178 1.2370e+01     7.8887      1.586      2.300    17.0499   998.7930 0.0000e+00
      1.627      0.057     4.8172     71.224     40.361  33.947333     2.3614      7.229   214.1410 1.2140e+01     7.8822      1.597      2.316    17.0503   998.7930 0.0000e+00
      1.637      0.061     4.8194     71.158     40.396  33.977437     2.3847      7.219   214.2276 1.1931e+01     8.0358      1.605      2.328    17.0502   998.7930 0.0000e+00
      1.650      0.066     4.8171     71.090     40.406  33.986136     2.4352      7.214   214.2768 1.1571e+01     8.3698      1.613      2.340    17.0502   998.7931 0.0000e+00
      1.670      0.071     4.8157     71.017     40.409  33.989046     2.4678      7.211   214.3054 1.1051e+01     8.5774      1.635      2.372    17.0502   998.7932 0.0000e+00
      1.695      0.076     4.8113     70.947     40.437  34.012635     2.4755      7.210   214.3155 1.0592e+01     8.5790      1.664      2.414    17.0505   998.7932 0.0000e+00
      1.716      0.079     4.8065     70.893     40.443  34.017477     2.5027      7.211   214.3130 1.0207e+01     8.5537      1.683      2.441    17.0515   998.7932 0.0000e+00
      1.735      0.080     4.8022     70.851     40.403  33.984120     2.5540      7.211   214.3613 9.8408e+00     8.5664      1.702      2.468    17.0525   998.7931 0.0000e+00
      1.754      0.078     4.7970     70.817     40.335  33.926643     2.5841      7.206   214.3829 9.5277e+00     8.5687      1.721      2.496    17.0526   998.7931 0.0000e+00
      1.773      0.075     4.7916     70.807     40.297  33.893719     2.5889      7.194   214.2302 9.2182e+00     8.5815      1.740      2.523    17.0525   998.7933 0.0000e+00
      1.793      0.070     4.7881     70.821     40.309  33.903364     2.5868      7.183   214.1502 8.8970e+00     8.5895      1.758      2.550    17.0524   998.7934 0.0000e+00
      1.813      0.062     4.7861     70.847     40.324  33.916339     2.5497      7.176   214.2754 8.5903e+00     8.5020      1.778      2.578    17.0523   998.7935 0.0000e+00
      1.832      0.052     4.7824     70.898     40.333  33.923666     2.4958      7.174   214.3684 8.3623e+00     8.3751      1.801      2.611    17.0521   998.7935 0.0000e+00
      1.845      0.041     4.7822     70.970     40.338  33.928489     2.4728      7.174   214.4138 8.2459e+00     8.3007      1.812      2.629    17.0516   998.7937 0.0000e+00
      1.851      0.030     4.7839     71.038     40.318  33.911180     2.4704      7.175   214.6517 8.1744e+00     8.2589      1.816      2.634    17.0514   998.7938 0.0000e+00
      1.854      0.023     4.7848     71.097     40.312  33.904787     2.4583      7.178   214.9226 8.1240e+00     7.9346      1.819      2.638    17.0510   998.7939 0.0000e+00
      1.855      0.021     4.7882     71.144     40.326  33.914654     2.4308      7.182   215.0217 8.0883e+00     7.3294      1.820      2.639    17.0507   998.7939 0.0000e+00
      1.857      0.021     4.7944     71.162     40.313  33.903539     2.4154      7.183   215.0753 8.0241e+00     7.0035      1.820      2.639    17.0506   998.7939 0.0000e+00
      1.863      0.023     4.7989     71.156     40.306  33.897335     2.4187      7.183   215.1407 7.9015e+00     7.0099      1.825      2.647    17.0500   998.7940 0.0000e+00
      1.873      0.023     4.8026     71.133     40.312  33.903103     2.4357      7.185   215.2102 7.7390e+00     7.0139      1.836      2.663    17.0487   998.7943 0.0000e+00
      1.883      0.022     4.8074     71.093     40.320  33.909818     2.4573      7.187   215.2265 7.6130e+00     6.9529      1.849      2.681    17.0468   998.7948 0.0000e+00
      1.891      0.019     4.8079     71.055     40.326  33.915059     2.4630      7.189   215.2518 7.5664e+00     6.9275      1.856      2.691    17.0461   998.7949 0.0000e+00
      1.893      0.014     4.8070     71.028     40.312  33.902999     2.4695      7.191   215.3443 7.5490e+00     6.9694      1.857      2.693    17.0467   998.7947 0.0000e+00
      1.893      0.009     4.8063     71.003     40.298  33.890941     2.4666      7.194   215.3130 7.5254e+00     7.1317      1.856      2.692    17.0465   998.7948 0.0000e+00
      1.893      0.004     4.8025     71.001     40.304  33.896190     2.4366      7.196   215.2173 7.5085e+00     7.4153      1.856      2.692    17.0461   998.7949 0.0000e+00
      1.894      0.003     4.7995     71.021     40.313  33.903000     2.4111      7.198   215.3060 7.5108e+00     7.6125      1.857      2.693    17.0466   998.7948 0.0000e+00
      1.894      0.005     4.7988     71.027     40.323  33.909810     2.3997      7.199   215.5241 7.5119e+00     7.6811      1.857      2.694    17.0468   998.7948 0.0000e+00
      1.895      0.008     4.7958     71.031     40.330  33.915070     2.3865      7.199   215.6172 7.4784e+00     7.7858      1.858      2.695    17.0467   998.7948 0.0000e+00
      1.897      0.010     4.7953     71.054     40.317  33.903125     2.3723      7.199   215.6579 7.4093e+00     7.9603      1.859      2.696    17.0460   998.7949 0.0000e+00
      1.901      0.010     4.7991     71.080     40.304  33.892316     2.3665      7.198   215.7578 7.3380e+00     8.0544      1.863      2.702    17.0453   998.7951 0.0000e+00
      1.906      0.010     4.7983     71.086     40.328  33.911318     2.3601      7.196   215.7930 7.2950e+00     8.0387      1.869      2.711    17.0443   998.7952 0.0000e+00
      1.910      0.009     4.7982     71.076     40.368  33.942473     2.3472      7.195   215.7392 7.2664e+00     8.0326      1.873      2.716    17.0426   998.7956 0.0000e+00
      1.912      0.007     4.8006     71.079     40.384  33.951686     2.3138      7.196   215.7102 7.2438e+00     7.9484      1.875      2.720    17.0415   998.7958 0.0000e+00
      1.912      0.007     4.8029     71.106     40.396  33.959232     2.2606      7.197   215.7860 7.2419e+00     7.7410      1.876      2.721    17.0418   998.7957 0.0000e+00
      1.911      0.009     4.8035     71.136     40.411  33.970252     2.2323      7.196   215.8811 7.2512e+00     7.6228      1.875      2.719    17.0419   998.7956 0.0000e+00
      1.911      0.014     4.8017     71.147     40.396  33.957985     2.2412      7.196   215.9137 7.2284e+00     7.6330      1.873      2.716    17.0379   998.7964 0.0000e+00
      1.913      0.022     4.8024     71.158     40.369  33.937850     2.3071      7.194   215.8367 7.1354e+00     7.8650      1.874      2.718    17.0322   998.7974 0.0000e+00
      1.920      0.035     4.8053     71.183     40.340  33.917203     2.4143      7.188   215.8093 6.9873e+00     8.2975      1.880      2.727    17.0275   998.7982 0.0000e+00
      1.930      0.051     4.8085     71.209     40.313  33.898736     2.4703      7.178   215.9272 6.8254e+00     8.5031      1.893      2.745    17.0248   998.7987 0.0000e+00
      1.944      0.066     4.8083     71.240     40.317  33.904966     2.4818      7.166   215.9719 6.6414e+00     8.5164      1.906      2.763    17.0269   998.7985 0.0000e+00
      1.962      0.080     4.8080     71.265     40.343  33.929073     2.5622      7.154   215.9191 6.3771e+00     8.7526      1.920      2.785    17.0309   998.7978 0.0000e+00
      1.987      0.089     4.8103     71.249     40.350  33.936344     2.7050      7.147   215.8908 6.0721e+00     9.1311      1.949      2.827    17.0353   998.7972 0.0000e+00
      2.016      0.089     4.8109     71.213     40.341  33.929424     2.7775      7.145   215.8879 5.7660e+00     9.2573      1.976      2.865    17.0405   998.7964 0.0000e+00
      2.046      0.083     4.8123     71.188     40.316  33.908862     2.7711      7.147   215.8839 5.4722e+00     9.1650      2.006      2.909    17.0441   998.7959 0.0000e+00
      2.071      0.073     4.8162     71.143     40.280  33.878131     2.6801      7.149   215.8432 5.2857e+00     8.8998      2.037      2.955    17.0466   998.7956 0.0000e+00
      2.086      0.062     4.8136     71.083     40.276  33.875190     2.5186      7.150   215.7395 5.2038e+00     8.4429      2.048      2.971    17.0489   998.7953 0.0000e+00
      2.093      0.051     4.8092     71.035     40.274  33.873298     2.4302      7.150   215.6630 5.1543e+00     8.1305      2.051      2.977    17.0499   998.7951 0.0000e+00
      2.099      0.044     4.8099     71.003     40.254  33.855251     2.4272      7.148   215.6062 5.0792e+00     8.0722      2.057      2.984    17.0500   998.7951 0.0000e+00
      2.109      0.043     4.8061     71.000     40.245  33.847381     2.4728      7.145   215.4837 4.9636e+00     8.0658      2.069      3.000    17.0497   998.7952 0.0000e+00
      2.121      0.046     4.8010     71.038     40.238  33.841610     2.5568      7.143   215.3859 4.8319e+00     7.9876      2.081      3.017    17.0494   998.7953 0.0000e+00
      2.134      0.050     4.7985     71.078     40.247  33.848940     2.6016      7.142   215.3698 4.6843e+00     7.9138      2.092      3.034    17.0489   998.7955 0.0000e+00
      2.149      0.051     4.7958     71.068     40.276  33.872538     2.5893      7.144   215.4608 4.5398e+00     7.8940      2.108      3.058    17.0483   998.7956 0.0000e+00
      2.164      0.050     4.7949     71.003     40.276  33.873067     2.5729      7.146   215.6265 4.4108e+00     7.8803      2.122      3.079    17.0479   998.7958 0.0000e+00
      2.177      0.047     4.7989     70.898     40.254  33.855333     2.5604      7.146   215.7375 4.2998e+00     7.9767      2.135      3.097    17.0473   998.7959 0.0000e+00
      2.189      0.042     4.8033     70.801     40.246  33.848515     2.5414      7.145   215.7709 4.2160e+00     8.2073      2.148      3.116    17.0470   998.7960 0.0000e+00
      2.200      0.035     4.8020     70.735     40.253  33.854095     2.5347      7.143   215.7720 4.1551e+00     8.3427      2.158      3.130    17.0472   998.7961 0.0000e+00
      2.209      0.028     4.7979     70.686     40.259  33.859335     2.5397      7.141   215.7518 4.1090e+00     8.3348      2.167      3.142    17.0473   998.7961 0.0000e+00
      2.215      0.021     4.7890     70.661     40.246  33.848409     2.5754      7.140   215.7844 4.0715e+00     8.2757      2.172      3.151    17.0478   998.7960 0.0000e+00
      2.218      0.016     4.7816     70.678     40.248  33.848929     2.6366      7.139   215.9075 4.0417e+00     8.1854      2.175      3.155    17.0478   998.7960 0.0000e+00
      2.220      0.011     4.7784     70.733     40.269  33.865623     2.6651      7.139   215.9510 4.0184e+00     8.1600      2.177      3.158    17.0473   998.7961 0.0000e+00
      2.222      0.007     4.7746     70.794     40.264  33.859853     2.6600      7.139   215.8798 3.9996e+00     8.1658      2.179      3.160    17.0472   998.7962 0.0000e+00
      2.223      0.005     4.7722     70.840     40.245  33.842631     2.5918      7.139   215.8205 3.9875e+00     8.0262      2.180      3.162    17.0472   998.7962 0.0000e+00
      2.224      0.004     4.7735     70.858     40.252  33.847786     2.4731      7.139   215.8366 3.9767e+00     7.8154      2.181      3.164    17.0466   998.7963 0.0000e+00
      2.225      0.004     4.7785     70.863     40.267  33.858710     2.4122      7.137   215.9015 3.9619e+00     7.7150      2.182      3.164    17.0454   998.7965 0.0000e+00
      2.226      0.004     4.7832     70.889     40.255  33.847787     2.4017      7.136   215.9170 3.9431e+00     7.6642      2.183      3.166    17.0436   998.7968 0.0000e+00
      2.227      0.003     4.7867     70.930     40.250  33.842642     2.3809      7.134   215.7663 3.9211e+00     7.4637      2.184      3.168    17.0417   998.7971 0.0000e+00
      2.228      0.003     4.7883     70.971     40.273  33.859960     2.3517      7.134   215.5423 3.8984e+00     7.1583      2.185      3.168    17.0409   998.7973 0.0000e+00
      2.228      0.003     4.7866     71.027     40.284  33.866780     2.3434      7.134   215.5317 3.8794e+00     7.0193      2.185      3.169    17.0396   998.7975 0.0000e+00
      2.229      0.003     4.7894     71.087     40.279  33.861645     2.3585      7.134   215.7235 3.8731e+00     7.0278      2.186      3.170    17.0377   998.7979 0.0000e+00
      2.230      0.003     4.7933     71.144     40.279  33.861335     2.3781      7.134   215.9682 3.8726e+00     7.2291      2.187      3.172    17.0364   998.7981 0.0000e+00
      2.231      0.002     4.7948     71.177     40.280  33.863018     2.3989      7.134   216.1675 3.8652e+00     7.6174      2.188      3.173    17.0342   998.7985 0.0000e+00
      2.231      0.002     4.8001     71.173     40.304  33.882002     2.4105      7.134   216.2415 3.8551e+00     7.8235      2.188      3.174    17.0309   998.7991 0.0000e+00
      2.232      0.001     4.8040     71.145     40.327  33.900469     2.4140      7.134   216.2598 3.8472e+00     7.8528      2.189      3.174    17.0289   998.7994 0.0000e+00
      2.232      0.001     4.8082     71.086     40.322  33.895904     2.4158      7.134   216.3032 3.8307e+00     7.8736      2.189      3.175    17.0297   998.7992 0.0000e+00
      2.232      0.001     4.8115     71.046     40.316  33.890278     2.4153      7.134   216.3352 3.8119e+00     7.8780      2.189      3.175    17.0308   998.7990 0.0000e+00
      2.232 -9.990e-29     4.8095 -9.990e-29 -9.990e-29 -9.990e-29 -9.990e-29 -9.990e-29 -9.990e-29 3.8066e+00 -9.990e-29      2.189      3.174    17.0297   998.7993 0.0000e+00
      2.232 -9.990e-29     4.8096 -9.990e-29 -9.990e-29 -9.990e-29 -9.990e-29 -9.990e-29 -9.990e-29 3.7944e+00 -9.990e-29      2.189      3.174    17.0280   998.7996 0.0000e+00
      2.232 -9.990e-29     4.8043 -9.990e-29 -9.990e-29 -9.990e-29 -9.990e-29 -9.990e-29 -9.990e-29 3.7722e+00 -9.990e-29      2.189      3.175    17.0270   998.7997 0.0000e+00
      2.232 -9.990e-29     4.7979 -9.990e-29 -9.990e-29 -9.990e-29 -9.990e-29 -9.990e-29 -9.990e-29 3.7624e+00 -9.990e-29      2.190      3.176    17.0266   998.7998 0.0000e+00
