* Sea-Bird SBE19plus  Data File:
* FileName = C:\DATA\101619_fcr50_0004.hex
* Software version 2.8.0.119 SB_Terminal.dll
* Temperature SN = 7809
* Conductivity SN = 7809
* System UpLoad Time = Oct 16 2019 16:53:27
* <ApplicationData>
* <Seaterm232>
* <SoftwareVersion>2.8.0.119</SoftwareVersion>
* <BuildDate>07-Nov-2018</BuildDate>
* </Seaterm232>
* </ApplicationData>
* cast   4 16 Oct 2019 11:55:59 samples 1570 to 2174, avg = 1, stop = mag switch
# nquan = 16
# nvalues = 466                         
# units = specified
# name 0 = depFM: Depth [fresh water, m]
# name 1 = dz/dtM: Descent Rate [m/s]
# name 2 = sbeox0ML/L: Oxygen, SBE 43 [ml/l]
# name 3 = sbeox0PS: Oxygen, SBE 43 [% saturation]
# name 4 = specc: Specific Conductance [uS/cm]
# name 5 = c0uS/cm: Conductivity [uS/cm]
# name 6 = flECO-AFL: Fluorescence, WET Labs ECO-AFL/FL [mg/m^3]
# name 7 = ph: pH
# name 8 = orp: Oxidation Reduction Potential [mV]
# name 9 = par/sat/log: PAR/Logarithmic, Satlantic
# name 10 = turbWETntu0: Turbidity, WET Labs ECO [NTU]
# name 11 = prdM: Pressure, Strain Gauge [db]
# name 12 = prdE: Pressure, Strain Gauge [psi]
# name 13 = tv290C: Temperature [ITS-90, deg C]
# name 14 = density00: Density [density, kg/m^3]
# name 15 = flag:  0.000e+00
# span 0 =     -0.042,      6.276       
# span 1 =     -0.048,      0.128       
# span 2 =    -0.5574,     6.4171       
# span 3 =     -7.769,     94.938       
# span 4 =     39.569,     98.678       
# span 5 =  33.435803,  81.168275       
# span 6 =     0.1822,     2.7825       
# span 7 =      6.385,      7.513       
# span 8 =   150.9614,   207.3677       
# span 9 = 1.2356e-01, 2.0207e+02       
# span 10 =     7.5742,    20.4454      
# span 11 =     -0.041,      6.156      
# span 12 =     -0.059,      8.928      
# span 13 =    13.2958,    17.3060      
# span 14 =   998.7449,   999.3938      
# span 15 = 0.0000e+00, 0.0000e+00      
# interval = seconds: 0.25
# start_time = Oct 16 2019 11:55:59 [Instrument's time stamp, header]
# bad_flag = -9.990e-29
# <Sensors count="9" >
#   <sensor Channel="1" >
#     <!-- Count, Temperature -->
#     <TemperatureSensor SensorID="58" >
#       <SerialNumber>7809</SerialNumber>
#       <CalibrationDate>24-Mar-19</CalibrationDate>
#       <A0>1.21792325e-003</A0>
#       <A1>2.81669265e-004</A1>
#       <A2>-1.60333336e-006</A2>
#       <A3>1.98414625e-007</A3>
#       <Slope>1.00000000</Slope>
#       <Offset>0.0000</Offset>
#     </TemperatureSensor>
#   </sensor>
#   <sensor Channel="2" >
#     <!-- Frequency 0, Conductivity -->
#     <ConductivitySensor SensorID="3" >
#       <SerialNumber>7809</SerialNumber>
#       <CalibrationDate>24-Mar-19</CalibrationDate>
#       <UseG_J>1</UseG_J>
#       <!-- Cell const and series R are applicable only for wide range sensors. -->
#       <SeriesR>0.0000</SeriesR>
#       <CellConst>2000.0000</CellConst>
#       <ConductivityType>0</ConductivityType>
#       <Coefficients equation="0" >
#         <A>0.00000000e+000</A>
#         <B>0.00000000e+000</B>
#         <C>0.00000000e+000</C>
#         <D>0.00000000e+000</D>
#         <M>0.0</M>
#         <CPcor>-9.57000000e-008</CPcor>
#       </Coefficients>
#       <Coefficients equation="1" >
#         <G>-1.00589325e+000</G>
#         <H>1.26816302e-001</H>
#         <I>-1.51560448e-004</I>
#         <J>2.67137274e-005</J>
#         <CPcor>-9.57000000e-008</CPcor>
#         <CTcor>3.2500e-006</CTcor>
#         <!-- WBOTC not applicable unless ConductivityType = 1. -->
#         <WBOTC>0.00000000e+000</WBOTC>
#       </Coefficients>
#       <Slope>1.00000000</Slope>
#       <Offset>0.00000</Offset>
#     </ConductivitySensor>
#   </sensor>
#   <sensor Channel="3" >
#     <!-- Count, Pressure, Strain Gauge -->
#     <PressureSensor SensorID="46" >
#       <SerialNumber>7809</SerialNumber>
#       <CalibrationDate>11-Mar-19</CalibrationDate>
#       <PA0>4.56561833e-002</PA0>
#       <PA1>4.85095118e-004</PA1>
#       <PA2>-2.88327090e-012</PA2>
#       <PTEMPA0>-5.48784562e+001</PTEMPA0>
#       <PTEMPA1>5.53756816e+001</PTEMPA1>
#       <PTEMPA2>-5.86727098e-001</PTEMPA2>
#       <PTCA0>5.25246745e+005</PTCA0>
#       <PTCA1>1.22304214e+001</PTCA1>
#       <PTCA2>-3.56745036e-001</PTCA2>
#       <PTCB0>2.51668750e+001</PTCB0>
#       <PTCB1>3.75000000e-004</PTCB1>
#       <PTCB2>0.00000000e+000</PTCB2>
#       <Offset>0.000000</Offset>
#     </PressureSensor>
#   </sensor>
#   <sensor Channel="4" >
#     <!-- A/D voltage 0, Oxygen, SBE 43 -->
#     <OxygenSensor SensorID="38" >
#       <SerialNumber>0434</SerialNumber>
#       <CalibrationDate>13-Apr-19</CalibrationDate>
#       <Use2007Equation>1</Use2007Equation>
#       <CalibrationCoefficients equation="0" >
#         <!-- Coefficients for Owens-Millard equation. -->
#         <Boc>0.0000</Boc>
#         <Soc>0.0000e+000</Soc>
#         <offset>0.0000</offset>
#         <Pcor>0.00e+000</Pcor>
#         <Tcor>0.0000</Tcor>
#         <Tau>0.0</Tau>
#       </CalibrationCoefficients>
#       <CalibrationCoefficients equation="1" >
#         <!-- Coefficients for Sea-Bird equation - SBE calibration in 2007 and later. -->
#         <Soc>4.2007e-001</Soc>
#         <offset>-0.6109</offset>
#         <A>-4.3656e-003</A>
#         <B> 1.7017e-004</B>
#         <C>-2.5341e-006</C>
#         <D0> 2.5826e+000</D0>
#         <D1> 1.92634e-004</D1>
#         <D2>-4.64803e-002</D2>
#         <E> 3.6000e-002</E>
#         <Tau20> 1.1800</Tau20>
#         <H1>-3.3000e-002</H1>
#         <H2> 5.0000e+003</H2>
#         <H3> 1.4500e+003</H3>
#       </CalibrationCoefficients>
#     </OxygenSensor>
#   </sensor>
#   <sensor Channel="5" >
#     <!-- A/D voltage 1, PAR/Logarithmic, Satlantic -->
#     <PARLog_SatlanticSensor SensorID="76" >
#       <SerialNumber>1122</SerialNumber>
#       <CalibrationDate>08-May-2019</CalibrationDate>
#       <a0>9.7456e-001</a0>
#       <a1>8.1640e-001</a1>
#       <Im>1.3589e+000</Im>
#       <Multiplier>1.0000e+000</Multiplier>
#     </PARLog_SatlanticSensor>
#   </sensor>
#   <sensor Channel="6" >
#     <!-- A/D voltage 2, pH -->
#     <pH_Sensor SensorID="43" >
#       <SerialNumber>0363</SerialNumber>
#       <CalibrationDate>15-Apr-19</CalibrationDate>
#       <Slope>4.5952</Slope>
#       <Offset>2.5370</Offset>
#     </pH_Sensor>
#   </sensor>
#   <sensor Channel="7" >
#     <!-- A/D voltage 3, Oxidation Reduction Potential -->
#     <OxidationReductionPotentialSensor SensorID="41" >
#       <SerialNumber>0363</SerialNumber>
#       <CalibrationDate>15-Apr-19</CalibrationDate>
#       <B>2.499480</B>
#       <M>-0.496195</M>
#       <Offset>0.0</Offset>
#     </OxidationReductionPotentialSensor>
#   </sensor>
#   <sensor Channel="8" >
#     <!-- A/D voltage 4, Fluorometer, WET Labs ECO-AFL/FL -->
#     <FluoroWetlabECO_AFL_FL_Sensor SensorID="20" >
#       <SerialNumber>FLNTURT-2496</SerialNumber>
#       <CalibrationDate>08-May-2019</CalibrationDate>
#       <ScaleFactor>5.00000000e+001</ScaleFactor>
#       <!-- Dark output -->
#       <Vblank>0.0550</Vblank>
#     </FluoroWetlabECO_AFL_FL_Sensor>
#   </sensor>
#   <sensor Channel="9" >
#     <!-- A/D voltage 5, Turbidity Meter, WET Labs, ECO-NTU -->
#     <TurbidityMeter SensorID="67" >
#       <SerialNumber>FLNTURT-2496</SerialNumber>
#       <CalibrationDate>08-May-2019</CalibrationDate>
#       <ScaleFactor>189.000000</ScaleFactor>
#       <!-- Dark output -->
#       <DarkVoltage>0.071000</DarkVoltage>
#     </TurbidityMeter>
#   </sensor>
# </Sensors>
# datcnv_date = Oct 16 2019 16:53:54, 7.26.7.129 [datcnv_vars = 15]
# datcnv_in = C:\DATA\101619_fcr50_0004.hex C:\DATA\SBE19plusV2_7809.xmlcon
# datcnv_skipover = 0
# datcnv_ox_hysteresis_correction = yes
# datcnv_ox_tau_correction = yes
# filter_date = Oct 16 2019 16:54:29, 7.26.7.129
# filter_in = C:\DATA\101619_fcr50_0004.cnv
# filter_low_pass_tc_A = 0.030
# filter_low_pass_tc_B = 0.150
# filter_low_pass_A_vars = sbeox0ML/L prdM prdE tv290C density00
# filter_low_pass_B_vars = depFM dz/dtM sbeox0PS specc c0uS/cm flECO-AFL ph orp par/sat/log turbWETntu0
# alignctd_date = Oct 16 2019 16:54:53, 7.26.7.129
# alignctd_in = C:\DATA\101619_fcr50_0004.cnv
# alignctd_adv = dz/dtM 1.000, sbeox0PS 1.000, specc 1.000, c0uS/cm 1.000, flECO-AFL 1.000, ph 1.000, orp 1.000, turbWETntu0 1.000                                                                                                   
# file_type = ascii
*END*
      0.001      0.107     6.2500     94.938     39.959  33.725545     1.9834      7.513   192.6254 1.2358e+02     8.5843     -0.028     -0.040    17.1800   998.7628 0.0000e+00
      0.079      0.092     6.3034     94.210     39.948  33.692195     1.9794      7.504   192.0389 1.0832e+02     8.5288      0.092      0.133    17.2141   998.7573 0.0000e+00
      0.138      0.064     6.3762     93.080     39.991  33.710025     1.9852      7.494   191.5472 1.0221e+02     8.5143      0.160      0.233    17.2348   998.7539 0.0000e+00
      0.144      0.029     6.4171     91.683     40.053  33.750713     2.0004      7.483   191.1543 1.0961e+02     8.5401      0.149      0.216    17.2282   998.7550 0.0000e+00
      0.115     -0.009     6.4073     90.201     40.115  33.803347     1.9989      7.471   190.8159 1.2389e+02     8.5790      0.118      0.172    17.1969   998.7604 0.0000e+00
      0.076     -0.039     6.3574     88.786     40.140  33.838698     1.9847      7.461   190.9838 1.3811e+02     8.5909      0.067      0.099    17.1625   998.7661 0.0000e+00
      0.050     -0.048     6.2831     87.515     40.143  33.860829     1.9759      7.453   192.5816 1.4457e+02     8.5528      0.040      0.057    17.1406   998.7698 0.0000e+00
      0.045     -0.041     6.1854     86.341     40.143  33.880573     1.9709      7.447   195.4230 1.4368e+02     8.4790      0.039      0.058    17.1224   998.7730 0.0000e+00
      0.053     -0.029     6.0817     85.011     40.133  33.887052     1.9758      7.441   196.1718 1.4092e+02     8.3863      0.053      0.077    17.1218   998.7733 0.0000e+00
      0.060     -0.021     5.9828     83.339     40.108  33.875711     1.9832      7.435   194.5793 1.4120e+02     8.3499      0.064      0.092    17.1435   998.7695 0.0000e+00
      0.056     -0.019     5.8914     81.357     40.093  33.870390     1.9740      7.427   193.3761 1.4728e+02     8.3674      0.059      0.087    17.1731   998.7643 0.0000e+00
      0.040     -0.022     5.8192     79.224     40.103  33.886193     1.9595      7.420   191.8628 1.5478e+02     8.4335      0.039      0.056    17.1980   998.7598 0.0000e+00
      0.024     -0.022     5.7322     77.174     40.084  33.876389     1.9460      7.413   190.7367 1.5941e+02     8.5593      0.020      0.028    17.2165   998.7565 0.0000e+00
      0.017     -0.012     5.6162     75.364     40.008  33.815325     1.9329      7.405   190.3442 1.6274e+02     8.6102      0.015      0.022    17.2280   998.7544 0.0000e+00
      0.016      0.003     5.4789     73.805     39.893  33.719069     1.9228      7.397   189.6121 1.6456e+02     8.5905      0.016      0.023    17.2357   998.7531 0.0000e+00
      0.018      0.018     5.3274     72.456     39.828  33.664535     1.9364      7.389   189.1113 1.6253e+02     8.5834      0.015      0.021    17.2445   998.7515 0.0000e+00
      0.028      0.023     5.1844     71.270     39.899  33.727137     1.9679      7.379   188.9358 1.5578e+02     8.5569      0.023      0.034    17.2532   998.7500 0.0000e+00
      0.047      0.018     5.0629     70.209     40.033  33.841341     1.9814      7.369   188.9522 1.4752e+02     8.5321      0.047      0.068    17.2584   998.7492 0.0000e+00
      0.062      0.006     4.9592     69.284     40.105  33.903011     1.9780      7.360   188.9655 1.4591e+02     8.5130      0.067      0.097    17.2579   998.7493 0.0000e+00
      0.062     -0.006     4.8691     68.491     40.104  33.901598     1.9700      7.352   188.8386 1.5341e+02     8.5549      0.067      0.097    17.2574   998.7493 0.0000e+00
      0.048     -0.019     4.7914     67.828     40.087  33.887713     1.9720      7.344   190.3439 1.6445e+02     8.7109      0.049      0.070    17.2612   998.7486 0.0000e+00
      0.029     -0.029     4.7180     67.331     40.057  33.862059     1.9848      7.337   193.6574 1.7245e+02     8.7932      0.024      0.035    17.2627   998.7484 0.0000e+00
      0.018     -0.033     4.6564     67.001     40.037  33.845282     1.9953      7.329   195.6047 1.7385e+02     8.7635      0.014      0.020    17.2629   998.7483 0.0000e+00
      0.015     -0.030     4.6037     66.794     40.071  33.875264     1.9768      7.319   195.6487 1.7215e+02     8.6469      0.014      0.021    17.2627   998.7483 0.0000e+00
      0.012     -0.023     4.5574     66.695     40.107  33.907249     1.9350      7.311   195.3929 1.7187e+02     8.4654      0.013      0.019    17.2627   998.7483 0.0000e+00
      0.005     -0.016     4.5236     66.666     40.115  33.914682     1.9228      7.304   195.2651 1.7419e+02     8.4044      0.006      0.008    17.2636   998.7481 0.0000e+00
     -0.001     -0.012     4.5038     66.652     40.099  33.901677     1.9342      7.299   195.0500 1.7689e+02     8.4001     -0.003     -0.005    17.2635   998.7481 0.0000e+00
     -0.004     -0.010     4.4890     66.631     40.070  33.876936     1.9339      7.294   194.7706 1.7619e+02     8.3482     -0.005     -0.007    17.2646   998.7478 0.0000e+00
     -0.004     -0.009     4.4829     66.563     40.060  33.869399     1.9193      7.289   194.6411 1.7485e+02     8.4650     -0.003     -0.005    17.2668   998.7475 0.0000e+00
     -0.004     -0.008     4.4834     66.455     40.065  33.874004     1.9044      7.284   194.5165 1.7533e+02     8.7966     -0.003     -0.004    17.2683   998.7472 0.0000e+00
     -0.005     -0.008     4.4814     66.411     40.058  33.869160     1.9104      7.280   194.2106 1.7583e+02     9.0149     -0.004     -0.006    17.2687   998.7471 0.0000e+00
     -0.008     -0.009     4.4819     66.501     40.063  33.874295     1.9306      7.276   193.8679 1.7788e+02     9.0069     -0.007     -0.011    17.2684   998.7472 0.0000e+00
     -0.011     -0.012     4.4780     66.716     40.060  33.872630     1.9230      7.273   193.6419 1.8179e+02     8.6999     -0.011     -0.015    17.2683   998.7472 0.0000e+00
     -0.014     -0.015     4.4665     67.033     40.030  33.849021     1.8883      7.271   193.4574 1.8560e+02     8.1874     -0.013     -0.020    17.2688   998.7471 0.0000e+00
     -0.018     -0.016     4.4619     67.401     40.021  33.842714     1.8663      7.269   193.2723 1.8871e+02     7.9216     -0.017     -0.025    17.2700   998.7469 0.0000e+00
     -0.023     -0.016     4.4689     67.757     40.040  33.859831     1.8652      7.267   193.0387 1.9075e+02     7.9113     -0.022     -0.031    17.2714   998.7466 0.0000e+00
     -0.028     -0.014     4.4830     68.064     40.045  33.865592     1.8837      7.264   192.7832 1.9209e+02     8.1615     -0.027     -0.039    17.2733   998.7462 0.0000e+00
     -0.033     -0.011     4.5057     68.290     40.025  33.848897     1.9085      7.259   192.5922 1.9261e+02     8.6532     -0.033     -0.048    17.2751   998.7459 0.0000e+00
     -0.037     -0.007     4.5320     68.392     40.024  33.848376     1.9215      7.254   192.4500 1.9252e+02     8.9398     -0.037     -0.053    17.2770   998.7455 0.0000e+00
     -0.037     -0.004     4.5565     68.368     40.037  33.859291     1.9281      7.251   192.2682 1.9378e+02     8.9728     -0.037     -0.054    17.2786   998.7452 0.0000e+00
     -0.035     -0.002     4.5774     68.249     40.031  33.853937     1.9460      7.248   192.0295 1.9693e+02     8.9218     -0.035     -0.050    17.2797   998.7450 0.0000e+00
     -0.033     -0.002     4.5944     68.097     40.024  33.847109     1.9728      7.244   191.8008 1.9836e+02     8.8143     -0.032     -0.046    17.2806   998.7449 0.0000e+00
     -0.032     -0.003     4.6007     67.953     40.016  33.840196     1.9825      7.239   191.6535 1.9627e+02     8.7544     -0.030     -0.044    17.2808   998.7449 0.0000e+00
     -0.034     -0.004     4.5985     67.799     40.008  33.833811     1.9860      7.234   191.6256 1.9584e+02     8.7865     -0.033     -0.048    17.2807   998.7449 0.0000e+00
     -0.038     -0.004     4.5892     67.630     40.007  33.833385     2.0241      7.229   191.5493 2.0015e+02     8.9731     -0.039     -0.056    17.2803   998.7449 0.0000e+00
     -0.041     -0.003     4.5768     67.452     40.009  33.835039     2.0876      7.223   191.4189 2.0207e+02     9.2743     -0.041     -0.059    17.2802   998.7449 0.0000e+00
     -0.042      0.000     4.5691     67.237     40.032  33.853812     2.1215      7.215   191.4268 1.9873e+02     9.4462     -0.041     -0.059    17.2804   998.7449 0.0000e+00
     -0.041      0.004     4.5585     66.995     40.053  33.869976     2.1210      7.206   191.3863 1.9783e+02     9.4458     -0.040     -0.058    17.2804   998.7449 0.0000e+00
     -0.039      0.007     4.5462     66.764     40.020  33.840080     2.1083      7.198   191.1873 1.9663e+02     9.4012     -0.039     -0.056    17.2801   998.7449 0.0000e+00
     -0.036      0.008     4.5360     66.567     39.988  33.809664     2.0546      7.192   191.0854 1.9225e+02     9.3318     -0.035     -0.051    17.2797   998.7450 0.0000e+00
     -0.032      0.008     4.5213     66.422     40.004  33.819539     1.9736      7.186   191.1004 1.9164e+02     9.2297     -0.030     -0.044    17.2791   998.7452 0.0000e+00
     -0.029      0.008     4.5034     66.324     40.023  33.832543     1.9354      7.179   191.0248 1.9196e+02     9.1823     -0.028     -0.040    17.2773   998.7455 0.0000e+00
     -0.028      0.007     4.4884     66.247     40.033  33.839958     1.9319      7.172   190.8592 1.8901e+02     9.1850     -0.028     -0.040    17.2747   998.7460 0.0000e+00
     -0.027      0.005     4.4743     66.162     40.039  33.845725     1.9309      7.167   190.6470 1.8779e+02     9.0982     -0.027     -0.039    17.2714   998.7465 0.0000e+00
     -0.026      0.004     4.4656     66.042     40.029  33.838815     1.9321      7.161   190.4382 1.8959e+02     8.9192     -0.027     -0.038    17.2662   998.7475 0.0000e+00
     -0.025      0.004     4.4600     65.858     40.005  33.819871     1.9287      7.156   190.3989 1.8903e+02     8.7907     -0.025     -0.036    17.2610   998.7484 0.0000e+00
     -0.024      0.004     4.4558     65.578     39.988  33.807072     1.9324      7.151   190.4300 1.8691e+02     8.7893     -0.023     -0.034    17.2603   998.7485 0.0000e+00
     -0.023      0.003     4.4504     65.200     39.993  33.810996     1.9427      7.146   190.4707 1.8811e+02     8.8368     -0.022     -0.032    17.2624   998.7481 0.0000e+00
     -0.023      0.002     4.4425     64.750     39.985  33.803848     1.9410      7.142   190.4604 1.8955e+02     8.8409     -0.022     -0.032    17.2642   998.7478 0.0000e+00
     -0.022      0.001     4.4314     64.274     39.962  33.784116     1.9292      7.139   190.3063 1.8823e+02     8.8061     -0.022     -0.032    17.2660   998.7475 0.0000e+00
     -0.022      0.001     4.4122     63.808     39.938  33.762816     1.9216      7.135   190.1554 1.8723e+02     8.7775     -0.021     -0.031    17.2673   998.7473 0.0000e+00
     -0.022      0.000     4.3862     63.353     39.910  33.736691     1.9266      7.133   190.0994 1.8781e+02     8.8548     -0.022     -0.032    17.2674   998.7473 0.0000e+00
     -0.022     -0.001     4.3548     62.896     39.895  33.722107     1.9289      7.132   190.0595 1.8933e+02     8.9868     -0.022     -0.031    17.2670   998.7473 0.0000e+00
     -0.022     -0.001     4.3217     62.447     39.888  33.713406     1.9238      7.130   189.9308 1.9110e+02     9.0297     -0.022     -0.032    17.2661   998.7475 0.0000e+00
     -0.022     -0.002     4.2905     62.032     39.869  33.694955     1.9254      7.128   189.6608 1.9099e+02     9.0131     -0.022     -0.032    17.2650   998.7477 0.0000e+00
     -0.023     -0.002     4.2611     61.655     39.866  33.689401     1.9304      7.126   189.4624 1.8929e+02     8.9506     -0.023     -0.033    17.2632   998.7480 0.0000e+00
     -0.024      0.000     4.2299     61.290     39.895  33.709712     1.9332      7.125   189.5966 1.8877e+02     8.8638     -0.023     -0.034    17.2601   998.7485 0.0000e+00
     -0.024      0.009     4.1993     60.934     39.945  33.750134     1.9328      7.120   189.2186 1.9165e+02     8.8162     -0.024     -0.035    17.2566   998.7491 0.0000e+00
     -0.024      0.025     4.1714     60.617     40.001  33.797354     1.9257      7.110   188.0757 1.9510e+02     8.8011     -0.025     -0.036    17.2530   998.7498 0.0000e+00
     -0.024      0.047     4.1474     60.382     39.971  33.772916     1.9167      7.100   187.2217 1.9300e+02     8.8123     -0.026     -0.038    17.2490   998.7505 0.0000e+00
     -0.017      0.068     4.1236     60.278     39.820  33.645054     1.9363      7.091   186.7227 1.8283e+02     9.0820     -0.023     -0.035    17.2440   998.7514 0.0000e+00
      0.008      0.080     4.0987     60.288     39.670  33.520677     1.9808      7.085   186.3432 1.6298e+02     9.6040     -0.000     -0.001    17.2404   998.7521 0.0000e+00
      0.048      0.082     4.0771     60.351     39.614  33.474905     2.0038      7.081   186.1608 1.4056e+02     9.8808      0.048      0.070    17.2415   998.7521 0.0000e+00
      0.086      0.076     4.0586     60.423     39.620  33.472414     1.9976      7.079   186.0662 1.2861e+02     9.8722      0.093      0.134    17.2439   998.7519 0.0000e+00
      0.107      0.063     4.0527     60.453     39.657  33.490555     1.9841      7.078   186.0600 1.2713e+02     9.6306      0.112      0.162    17.2407   998.7525 0.0000e+00
      0.111      0.049     4.0554     60.439     39.759  33.567301     1.9782      7.076   186.1722 1.3028e+02     9.1551      0.112      0.163    17.2440   998.7519 0.0000e+00
      0.107      0.040     4.0588     60.401     39.848  33.638758     1.9787      7.071   186.3052 1.3350e+02     8.8759      0.102      0.149    17.2528   998.7503 0.0000e+00
      0.106      0.041     4.0673     60.350     39.794  33.592963     1.9817      7.063   186.2904 1.3363e+02     8.8439      0.100      0.145    17.2400   998.7525 0.0000e+00
      0.114      0.049     4.0705     60.314     39.705  33.521306     1.9977      7.057   186.2514 1.3057e+02     8.8004      0.109      0.158    17.2174   998.7566 0.0000e+00
      0.133      0.060     4.0696     60.289     39.711  33.533945     2.0241      7.052   186.4361 1.2335e+02     8.7756      0.126      0.182    17.2057   998.7588 0.0000e+00
      0.163      0.071     4.0681     60.250     39.802  33.618858     2.0409      7.047   186.9747 1.1434e+02     8.8392      0.161      0.233    17.2029   998.7595 0.0000e+00
      0.188      0.083     4.0627     60.186     39.919  33.722959     2.0535      7.041   187.6876 1.0942e+02     8.8816      0.191      0.278    17.2038   998.7594 0.0000e+00
      0.203      0.095     4.0606     60.096     39.904  33.713726     2.1071      7.034   188.1722 1.0727e+02     8.8293      0.199      0.289    17.2069   998.7589 0.0000e+00
      0.215      0.102     4.0588     59.996     39.730  33.570692     2.1861      7.029   188.3605 1.0271e+02     8.7644      0.205      0.298    17.2194   998.7567 0.0000e+00
      0.239      0.101     4.0551     59.924     39.587  33.453225     2.2286      7.027   188.3293 9.4110e+01     8.7524      0.225      0.327    17.2307   998.7549 0.0000e+00
      0.279      0.095     4.0506     59.897     39.569  33.435803     2.2401      7.028   188.3107 8.3797e+01     8.7823      0.273      0.396    17.2355   998.7543 0.0000e+00
      0.322      0.088     4.0441     59.902     39.646  33.486974     2.1766      7.029   188.4800 7.7159e+01     8.7320      0.326      0.473    17.2391   998.7539 0.0000e+00
      0.347      0.080     4.0358     59.977     39.758  33.564195     2.0507      7.028   188.6558 7.5720e+01     8.5706      0.349      0.506    17.2424   998.7533 0.0000e+00
      0.352      0.070     4.0293     60.189     39.823  33.607886     1.9928      7.027   188.8012 7.5851e+01     8.5031      0.346      0.502    17.2523   998.7515 0.0000e+00
      0.352      0.064     4.0289     60.549     39.861  33.634431     1.9963      7.023   189.1195 7.4096e+01     8.5704      0.339      0.493    17.2527   998.7514 0.0000e+00
      0.363      0.068     4.0299     61.035     39.932  33.694760     1.9980      7.017   189.4067 7.0445e+01     8.6310      0.352      0.510    17.2299   998.7555 0.0000e+00
      0.384      0.083     4.0347     61.604     39.935  33.702669     2.0049      7.011   189.4345 6.6617e+01     8.7766      0.378      0.547    17.2030   998.7604 0.0000e+00
      0.409      0.100     4.0505     62.181     39.805  33.603130     2.0280      7.006   189.5415 6.2783e+01     9.0530      0.400      0.580    17.1895   998.7629 0.0000e+00
      0.438      0.109     4.0757     62.687     39.675  33.506689     2.0513      7.003   189.7544 5.7817e+01     9.2201      0.425      0.615    17.1852   998.7638 0.0000e+00
      0.477      0.108     4.1093     63.047     39.640  33.488585     2.0609      7.002   189.8575 5.2545e+01     9.2239      0.469      0.679    17.1843   998.7642 0.0000e+00
      0.515      0.101     4.1490     63.195     39.656  33.511178     2.0322      7.002   189.9282 4.9198e+01     8.9999      0.512      0.743    17.1910   998.7631 0.0000e+00
      0.540      0.091     4.1885     63.117     39.669  33.526020     1.9730      7.002   190.0064 4.7623e+01     8.5774      0.534      0.773    17.2047   998.7608 0.0000e+00
      0.554      0.080     4.2225     62.869     39.685  33.541118     1.9433      7.002   190.0286 4.6508e+01     8.3756      0.544      0.790    17.2224   998.7578 0.0000e+00
      0.564      0.071     4.2476     62.539     39.716  33.566796     1.9416      7.002   190.0249 4.5099e+01     8.3951      0.551      0.800    17.2390   998.7548 0.0000e+00
      0.579      0.067     4.2566     62.195     39.736  33.582630     1.9700      7.000   190.1338 4.3065e+01     8.4857      0.565      0.819    17.2503   998.7529 0.0000e+00
      0.598      0.068     4.2498     61.889     39.766  33.605635     2.0262      6.997   190.3125 4.1117e+01     8.6846      0.587      0.852    17.2551   998.7521 0.0000e+00
      0.617      0.073     4.2302     61.692     39.825  33.654545     2.0497      6.994   190.5504 3.9504e+01     8.8005      0.605      0.877    17.2552   998.7522 0.0000e+00
      0.637      0.078     4.2067     61.610     39.840  33.666281     2.0535      6.991   190.8591 3.7770e+01     8.7735      0.624      0.904    17.2546   998.7524 0.0000e+00
      0.658      0.083     4.1834     61.590     39.787  33.620607     2.0630      6.987   191.0338 3.6335e+01     8.6854      0.648      0.939    17.2529   998.7528 0.0000e+00
      0.677      0.085     4.1601     61.613     39.775  33.610020     2.0530      6.985   191.1139 3.4919e+01     8.5864      0.662      0.959    17.2502   998.7533 0.0000e+00
      0.699      0.086     4.1468     61.640     39.838  33.665210     2.0374      6.982   191.2258 3.2923e+01     8.5275      0.682      0.990    17.2478   998.7539 0.0000e+00
      0.726      0.089     4.1441     61.614     39.895  33.716721     2.0379      6.979   191.3541 3.1255e+01     8.4982      0.716      1.038    17.2478   998.7541 0.0000e+00
      0.748      0.093     4.1421     61.507     39.901  33.725119     2.0505      6.975   191.4606 3.0196e+01     8.4945      0.736      1.067    17.2464   998.7544 0.0000e+00
      0.768      0.098     4.1446     61.303     39.874  33.703290     2.0592      6.971   191.5678 2.8931e+01     8.5159      0.750      1.089    17.2445   998.7548 0.0000e+00
      0.790      0.099     4.1485     61.046     39.804  33.643182     2.0567      6.968   191.7035 2.7322e+01     8.5274      0.773      1.121    17.2484   998.7542 0.0000e+00
      0.820      0.096     4.1459     60.781     39.718  33.569533     2.0550      6.968   191.7252 2.5569e+01     8.5345      0.802      1.164    17.2529   998.7536 0.0000e+00
      0.852      0.091     4.1401     60.514     39.722  33.574383     2.0824      6.968   191.7434 2.3977e+01     8.4702      0.837      1.214    17.2572   998.7530 0.0000e+00
      0.879      0.085     4.1241     60.241     39.795  33.638361     2.1360      6.967   191.9238 2.2891e+01     8.2744      0.865      1.255    17.2602   998.7526 0.0000e+00
      0.898      0.078     4.1057     59.958     39.802  33.644977     2.1655      6.964   192.0138 2.2256e+01     8.1010      0.883      1.281    17.2561   998.7534 0.0000e+00
      0.910      0.068     4.0887     59.664     39.738  33.590914     2.1621      6.963   191.9711 2.1768e+01     8.0453      0.892      1.295    17.2532   998.7538 0.0000e+00
      0.922      0.059     4.0700     59.349     39.698  33.555873     2.1476      6.963   192.0093 2.1079e+01     8.0594      0.901      1.306    17.2573   998.7532 0.0000e+00
      0.938      0.051     4.0519     59.004     39.828  33.665546     2.1027      6.963   192.1323 2.0336e+01     8.0756      0.920      1.333    17.2620   998.7525 0.0000e+00
      0.954      0.041     4.0324     58.665     40.107  33.901512     2.0354      6.963   192.2538 1.9789e+01     8.1094      0.938      1.360    17.2619   998.7526 0.0000e+00
      0.967      0.031     4.0132     58.511     40.292  34.060725     2.0012      6.963   192.3593 1.9394e+01     8.1401      0.949      1.377    17.2604   998.7529 0.0000e+00
      0.975      0.022     3.9926     58.930     40.365  34.130887     1.9930      6.962   192.6330 1.9371e+01     8.1186      0.960      1.394    17.2590   998.7533 0.0000e+00
      0.975      0.021     3.9689     60.310     40.410  34.178649     1.9698      6.958   193.0690 1.9711e+01     8.1780      0.958      1.391    17.2593   998.7531 0.0000e+00
      0.969      0.031     3.9428     62.656     40.419  34.193961     1.9378      6.952   193.4142 2.0003e+01     8.3007      0.948      1.376    17.2588   998.7533 0.0000e+00
      0.967      0.050     3.9228     65.618     40.407  34.189102     1.9264      6.947   193.5379 1.9911e+01     8.3571      0.944      1.369    17.2591   998.7534 0.0000e+00
      0.977      0.075     3.9369     68.743     40.397  34.183368     1.9362      6.942   193.5315 1.9178e+01     8.4010      0.951      1.378    17.2725   998.7510 0.0000e+00
      1.004      0.100     4.0290     71.587     40.402  34.188100     1.9697      6.940   193.5958 1.7854e+01     8.6678      0.979      1.419    17.2881   998.7484 0.0000e+00
      1.046      0.119     4.1968     73.839     40.396  34.182851     2.0281      6.939   193.6258 1.6407e+01     9.1577      1.025      1.487    17.2967   998.7471 0.0000e+00
      1.091      0.128     4.4050     75.356     40.398  34.183370     2.0614      6.938   193.6369 1.5165e+01     9.4408      1.072      1.554    17.3019   998.7464 0.0000e+00
      1.130      0.126     4.6268     76.101     40.412  34.194370     2.0519      6.937   193.8161 1.4199e+01     9.4365      1.111      1.611    17.3049   998.7461 0.0000e+00
      1.160      0.113     4.8247     76.165     40.406  34.188920     2.0254      6.937   193.9852 1.3517e+01     9.1387      1.141      1.654    17.3060   998.7460 0.0000e+00
      1.182      0.095     4.9788     75.775     40.396  34.180940     2.0020      6.937   194.0472 1.2928e+01     8.6251      1.160      1.682    17.3051   998.7462 0.0000e+00
      1.203      0.081     5.0821     75.176     40.373  34.161341     1.9941      6.937   194.0494 1.2378e+01     8.3717      1.180      1.712    17.3039   998.7465 0.0000e+00
      1.221      0.075     5.1307     74.543     40.350  34.142360     1.9899      6.937   194.0119 1.2046e+01     8.3371      1.202      1.743    17.3030   998.7468 0.0000e+00
      1.233      0.074     5.1283     73.980     40.350  34.141830     1.9858      6.936   194.0235 1.1843e+01     8.3050      1.210      1.755    17.3027   998.7468 0.0000e+00
      1.246      0.076     5.0959     73.502     40.365  34.154937     1.9882      6.934   194.1037 1.1469e+01     8.3766      1.217      1.765    17.3025   998.7469 0.0000e+00
      1.267      0.079     5.0523     73.103     40.388  34.173901     1.9846      6.933   194.2931 1.0929e+01     8.5143      1.241      1.800    17.3027   998.7470 0.0000e+00
      1.295      0.082     5.0064     72.806     40.397  34.180729     1.9854      6.932   194.5070 1.0470e+01     8.5934      1.272      1.844    17.3030   998.7471 0.0000e+00
      1.320      0.085     4.9691     72.590     40.389  34.174025     2.0062      6.932   194.6251 1.0107e+01     8.6119      1.295      1.879    17.3030   998.7472 0.0000e+00
      1.341      0.083     4.9377     72.402     40.369  34.156311     2.1147      6.932   194.6888 9.7842e+00     8.5419      1.316      1.908    17.3030   998.7473 0.0000e+00
      1.361      0.077     4.9093     72.234     40.369  34.156946     2.3092      6.931   194.6744 9.4996e+00     8.4025      1.334      1.935    17.3025   998.7475 0.0000e+00
      1.381      0.069     4.8902     72.102     40.398  34.181698     2.4156      6.930   194.6230 9.2058e+00     8.3688      1.354      1.964    17.3019   998.7476 0.0000e+00
      1.399      0.064     4.8777     72.007     40.422  34.201720     2.4129      6.931   194.6702 8.9734e+00     8.4290      1.375      1.994    17.3017   998.7478 0.0000e+00
      1.412      0.061     4.8649     71.933     40.431  34.208633     2.3207      6.933   194.8145 8.8264e+00     8.5079      1.386      2.011    17.3016   998.7479 0.0000e+00
      1.422      0.059     4.8530     71.858     40.423  34.201823     2.1499      6.933   194.9054 8.6320e+00     8.6664      1.393      2.021    17.3018   998.7479 0.0000e+00
      1.435      0.058     4.8443     71.778     40.401  34.182843     2.0556      6.933   194.9081 8.3476e+00     8.8056      1.406      2.040    17.3019   998.7479 0.0000e+00
      1.452      0.056     4.8381     71.710     40.385  34.169536     2.0472      6.933   194.8478 8.0564e+00     8.8467      1.425      2.066    17.3018   998.7480 0.0000e+00
      1.471      0.055     4.8338     71.652     40.383  34.167863     2.0749      6.934   194.7788 7.8010e+00     8.8357      1.443      2.093    17.3015   998.7481 0.0000e+00
      1.487      0.054     4.8293     71.624     40.376  34.162613     2.1306      6.934   194.8479 7.5975e+00     8.7714      1.459      2.117    17.3004   998.7484 0.0000e+00
      1.500      0.053     4.8226     71.647     40.384  34.169526     2.1575      6.934   194.9946 7.4886e+00     8.7251      1.473      2.137    17.2997   998.7486 0.0000e+00
      1.508      0.050     4.8190     71.703     40.405  34.187982     2.1648      6.934   195.1766 7.4043e+00     8.7344      1.479      2.145    17.3005   998.7485 0.0000e+00
      1.518      0.049     4.8143     71.780     40.414  34.195368     2.1676      6.935   195.3273 7.2334e+00     8.6553      1.485      2.154    17.3011   998.7484 0.0000e+00
      1.533      0.050     4.8112     71.866     40.414  34.195359     2.1477      6.935   195.3533 7.0194e+00     8.4567      1.503      2.180    17.3014   998.7484 0.0000e+00
      1.548      0.053     4.8142     71.921     40.405  34.187878     2.1246      6.934   195.4052 6.8564e+00     8.3321      1.519      2.204    17.3019   998.7484 0.0000e+00
      1.560      0.057     4.8178     71.928     40.382  34.168381     2.1129      6.932   195.5246 6.7137e+00     8.3285      1.529      2.218    17.3020   998.7485 0.0000e+00
      1.574      0.061     4.8226     71.909     40.360  34.150023     2.0839      6.931   195.6791 6.5402e+00     8.3803      1.542      2.236    17.3019   998.7485 0.0000e+00
      1.590      0.066     4.8304     71.889     40.367  34.156313     2.0340      6.928   195.8106 6.3594e+00     8.4666      1.560      2.262    17.3020   998.7486 0.0000e+00
      1.607      0.070     4.8342     71.868     40.396  34.180961     2.0043      6.924   195.8235 6.1789e+00     8.5198      1.576      2.286    17.3019   998.7487 0.0000e+00
      1.625      0.071     4.8338     71.835     40.412  34.194172     1.9930      6.921   195.8346 5.9660e+00     8.5323      1.592      2.308    17.3025   998.7487 0.0000e+00
      1.645      0.068     4.8318     71.816     40.407  34.189122     1.9842      6.920   195.9455 5.7077e+00     8.5203      1.611      2.336    17.3029   998.7487 0.0000e+00
      1.669      0.061     4.8302     71.820     40.400  34.183363     1.9856      6.921   196.0460 5.4919e+00     8.5056      1.640      2.378    17.3030   998.7488 0.0000e+00
      1.687      0.053     4.8303     71.841     40.406  34.188009     1.9918      6.921   196.1028 5.3972e+00     8.5180      1.659      2.406    17.3031   998.7489 0.0000e+00
      1.696      0.043     4.8261     71.866     40.399  34.181824     1.9898      6.922   196.2024 5.3444e+00     8.5061      1.664      2.413    17.3026   998.7490 0.0000e+00
      1.701      0.033     4.8253     71.878     40.388  34.172054     1.9875      6.922   196.3043 5.2703e+00     8.4931      1.667      2.418    17.3021   998.7491 0.0000e+00
      1.706      0.023     4.8257     71.880     40.418  34.196806     2.0071      6.922   196.3013 5.2121e+00     8.3605      1.672      2.425    17.3019   998.7491 0.0000e+00
      1.713      0.017     4.8271     71.865     40.453  34.227233     2.0446      6.924   196.2526 5.1748e+00     8.0503      1.680      2.437    17.3016   998.7492 0.0000e+00
      1.719      0.015     4.8303     71.832     40.448  34.222608     2.0592      6.927   196.3171 5.1538e+00     7.8878      1.687      2.447    17.3010   998.7494 0.0000e+00
      1.720      0.016     4.8298     71.796     40.427  34.204355     2.0457      6.928   196.4799 5.1680e+00     7.9039      1.689      2.449    17.3004   998.7495 0.0000e+00
      1.719      0.017     4.8309     71.750     40.418  34.196930     2.0539      6.927   196.5861 5.1796e+00     8.0157      1.685      2.444    17.3005   998.7495 0.0000e+00
      1.721      0.019     4.8299     71.697     40.418  34.196308     2.0893      6.925   196.5691 5.1416e+00     8.2227      1.686      2.444    17.3008   998.7494 0.0000e+00
      1.729      0.020     4.8267     71.644     40.419  34.196829     2.1094      6.924   196.5321 5.0658e+00     8.3430      1.694      2.458    17.3007   998.7495 0.0000e+00
      1.739      0.022     4.8251     71.578     40.427  34.203231     2.1070      6.925   196.5691 4.9882e+00     8.3560      1.707      2.474    17.3002   998.7496 0.0000e+00
      1.747      0.026     4.8218     71.492     40.436  34.210247     2.0858      6.926   196.7585 4.9516e+00     8.3790      1.717      2.490    17.2996   998.7497 0.0000e+00
      1.752      0.032     4.8178     71.400     40.446  34.218202     2.0525      6.924   197.1009 4.9638e+00     8.4570      1.720      2.495    17.2988   998.7499 0.0000e+00
      1.753      0.041     4.8151     71.335     40.467  34.235937     2.0423      6.921   197.3541 4.9524e+00     8.5455      1.717      2.490    17.2984   998.7500 0.0000e+00
      1.758      0.051     4.8108     71.324     40.466  34.234282     2.0496      6.916   197.4111 4.8086e+00     8.5969      1.719      2.494    17.2980   998.7500 0.0000e+00
      1.774      0.060     4.8048     71.343     40.424  34.198191     2.0891      6.913   197.3597 4.5578e+00     8.7181      1.737      2.520    17.2976   998.7502 0.0000e+00
      1.798      0.067     4.7979     71.362     40.404  34.180353     2.1729      6.912   197.2491 4.3189e+00     8.9297      1.764      2.558    17.2972   998.7504 0.0000e+00
      1.824      0.069     4.7923     71.382     40.438  34.209002     2.2216      6.912   197.2781 4.1364e+00     9.0247      1.790      2.597    17.2966   998.7507 0.0000e+00
      1.846      0.066     4.7927     71.397     40.460  34.227256     2.2272      6.912   197.4520 4.0251e+00     9.0152      1.815      2.632    17.2956   998.7509 0.0000e+00
      1.860      0.058     4.7954     71.397     40.440  34.210666     2.2313      6.911   197.5449 3.9767e+00     8.9782      1.827      2.649    17.2944   998.7511 0.0000e+00
      1.868      0.048     4.7958     71.377     40.426  34.198815     2.2376      6.910   197.5401 3.9195e+00     8.6104      1.832      2.655    17.2939   998.7513 0.0000e+00
      1.878      0.038     4.7976     71.322     40.440  34.210894     2.2426      6.910   197.4808 3.8282e+00     7.9764      1.840      2.669    17.2937   998.7514 0.0000e+00
      1.888      0.033     4.7992     71.224     40.462  34.229775     2.2314      6.911   197.5168 3.7697e+00     7.6706      1.854      2.688    17.2933   998.7515 0.0000e+00
      1.896      0.033     4.7987     71.099     40.470  34.236707     2.2227      6.912   197.7172 3.7454e+00     7.6983      1.861      2.698    17.2935   998.7515 0.0000e+00
      1.901      0.039     4.7981     70.977     40.463  34.231242     2.2160      6.911   197.9251 3.7123e+00     7.9187      1.864      2.703    17.2941   998.7514 0.0000e+00
      1.907      0.047     4.7943     70.887     40.459  34.227167     2.1940      6.908   198.0513 3.6789e+00     8.3359      1.871      2.713    17.2945   998.7514 0.0000e+00
      1.916      0.057     4.7875     70.829     40.488  34.250898     2.1812      6.907   198.1242 3.6063e+00     8.6135      1.876      2.720    17.2945   998.7514 0.0000e+00
      1.933      0.067     4.7782     70.797     40.504  34.264312     2.1837      6.907   198.2041 3.4500e+00     8.6525      1.889      2.740    17.2947   998.7514 0.0000e+00
      1.958      0.075     4.7692     70.786     40.503  34.262410     2.3017      6.907   198.2433 3.2820e+00     8.6445      1.921      2.787    17.2950   998.7515 0.0000e+00
      1.984      0.080     4.7633     70.781     40.538  34.291362     2.5328      6.907   198.2541 3.1632e+00     8.7132      1.947      2.824    17.2948   998.7517 0.0000e+00
      2.005      0.080     4.7598     70.771     40.545  34.297041     2.6542      6.907   198.3345 3.0560e+00     8.7957      1.967      2.852    17.2940   998.7519 0.0000e+00
      2.024      0.077     4.7575     70.730     40.510  34.267609     2.6516      6.907   198.4409 2.9470e+00     8.7897      1.986      2.880    17.2931   998.7522 0.0000e+00
      2.042      0.070     4.7576     70.625     40.493  34.252835     2.5526      6.907   198.5074 2.8481e+00     8.6724      2.002      2.904    17.2923   998.7524 0.0000e+00
      2.059      0.060     4.7573     70.475     40.484  34.245343     2.3765      6.907   198.4512 2.7490e+00     8.4599      2.020      2.930    17.2916   998.7526 0.0000e+00
      2.075      0.049     4.7571     70.316     40.479  34.240496     2.2900      6.909   198.4495 2.6604e+00     8.3169      2.035      2.952    17.2912   998.7528 0.0000e+00
      2.090      0.039     4.7561     70.163     40.499  34.257689     2.2871      6.912   198.6581 2.6006e+00     8.2877      2.050      2.973    17.2910   998.7528 0.0000e+00
      2.100      0.031     4.7478     70.036     40.505  34.262825     2.1775      6.913   198.8230 2.5842e+00     8.1725      2.064      2.994    17.2909   998.7529 0.0000e+00
      2.102      0.028     4.7368     69.941     40.477  34.239122     1.9534      6.912   198.8943 2.6007e+00     7.9727      2.064      2.993    17.2907   998.7530 0.0000e+00
      2.100      0.031     4.7260     69.882     40.460  34.224964     1.8227      6.909   199.0044 2.6042e+00     7.9032      2.057      2.983    17.2906   998.7529 0.0000e+00
      2.102      0.039     4.7150     69.882     40.453  34.218578     1.8108      6.907   199.2071 2.5656e+00     7.9237      2.058      2.985    17.2906   998.7530 0.0000e+00
      2.112      0.050     4.7064     69.909     40.462  34.225379     1.8186      6.905   199.3662 2.4901e+00     7.9252      2.069      3.001    17.2908   998.7530 0.0000e+00
      2.132      0.060     4.7008     69.954     40.483  34.243729     1.8655      6.903   199.3796 2.3919e+00     8.1832      2.089      3.029    17.2909   998.7530 0.0000e+00
      2.156      0.067     4.6945     70.055     40.490  34.250036     1.9443      6.901   199.4553 2.3037e+00     8.6831      2.115      3.067    17.2905   998.7533 0.0000e+00
      2.179      0.068     4.6968     70.177     40.476  34.238167     1.9824      6.900   199.5936 2.2508e+00     8.9555      2.141      3.105    17.2896   998.7535 0.0000e+00
      2.195      0.066     4.6996     70.289     40.464  34.227157     1.9881      6.901   199.6746 2.1938e+00     8.9860      2.154      3.124    17.2891   998.7536 0.0000e+00
      2.210      0.063     4.6990     70.388     40.484  34.243852     2.0475      6.901   199.6607 2.1303e+00     8.8884      2.167      3.143    17.2899   998.7536 0.0000e+00
      2.223      0.060     4.7089     70.477     40.492  34.249622     2.1633      6.900   199.5976 2.0892e+00     8.6927      2.182      3.165    17.2902   998.7536 0.0000e+00
      2.234      0.059     4.7170     70.568     40.473  34.233457     2.2352      6.900   199.6858 2.0391e+00     8.5859      2.188      3.174    17.2894   998.7538 0.0000e+00
      2.249      0.060     4.7247     70.658     40.478  34.238802     2.2487      6.900   199.8667 1.9646e+00     8.5807      2.202      3.193    17.2887   998.7539 0.0000e+00
      2.270      0.064     4.7318     70.719     40.493  34.250774     2.2917      6.900   199.9784 1.8816e+00     8.6953      2.228      3.231    17.2881   998.7541 0.0000e+00
      2.287      0.069     4.7367     70.723     40.494  34.251286     2.3656      6.898   200.0029 1.8185e+00     8.8895      2.246      3.258    17.2880   998.7543 0.0000e+00
      2.300      0.072     4.7435     70.681     40.487  34.244986     2.3961      6.897   199.9912 1.7844e+00     8.9624      2.252      3.268    17.2882   998.7543 0.0000e+00
      2.315      0.070     4.7497     70.611     40.478  34.238072     2.3916      6.896   200.0095 1.7353e+00     8.9542      2.267      3.288    17.2881   998.7544 0.0000e+00
      2.339      0.064     4.7555     70.522     40.470  34.231149     2.3723      6.896   200.0518 1.6610e+00     8.8561      2.295      3.328    17.2882   998.7545 0.0000e+00
      2.364      0.055     4.7546     70.440     40.462  34.224754     2.3356      6.898   200.1580 1.6010e+00     8.6608      2.322      3.368    17.2880   998.7546 0.0000e+00
      2.381      0.045     4.7516     70.384     40.461  34.224215     2.3117      6.900   200.2614 1.5791e+00     8.5594      2.338      3.391    17.2880   998.7547 0.0000e+00
      2.387      0.035     4.7469     70.373     40.461  34.224630     2.3005      6.901   200.2700 1.5826e+00     8.5478      2.343      3.398    17.2882   998.7547 0.0000e+00
      2.387      0.026     4.7398     70.423     40.467  34.229765     2.2786      6.902   200.2625 1.5875e+00     8.5206      2.342      3.397    17.2883   998.7547 0.0000e+00
      2.386      0.024     4.7341     70.522     40.459  34.222841     2.2463      6.903   200.3421 1.5810e+00     8.4594      2.338      3.391    17.2888   998.7545 0.0000e+00
      2.389      0.029     4.7300     70.640     40.439  34.204383     2.2313      6.903   200.4585 1.5555e+00     8.3984      2.341      3.396    17.2891   998.7545 0.0000e+00
      2.397      0.039     4.7284     70.777     40.431  34.196988     2.2350      6.903   200.5508 1.5141e+00     8.3395      2.350      3.409    17.2894   998.7545 0.0000e+00
      2.411      0.050     4.7321     70.946     40.431  34.196893     2.2393      6.902   200.6847 1.4630e+00     8.3053      2.362      3.426    17.2898   998.7545 0.0000e+00
      2.429      0.061     4.7399     71.117     40.438  34.203230     2.2655      6.901   200.7865 1.4165e+00     8.4106      2.382      3.454    17.2889   998.7548 0.0000e+00
      2.447      0.068     4.7480     71.262     40.445  34.210138     2.3181      6.899   200.8349 1.3825e+00     8.6291      2.402      3.484    17.2878   998.7550 0.0000e+00
      2.464      0.072     4.7562     71.385     40.452  34.216956     2.3551      6.899   200.9256 1.3452e+00     8.7516      2.415      3.503    17.2870   998.7553 0.0000e+00
      2.483      0.075     4.7689     71.469     40.459  34.222197     2.3653      6.899   201.0224 1.3041e+00     8.7441      2.433      3.529    17.2865   998.7554 0.0000e+00
      2.504      0.075     4.7814     71.505     40.445  34.210033     2.4252      6.898   201.0591 1.2615e+00     8.8340      2.457      3.563    17.2874   998.7553 0.0000e+00
      2.525      0.074     4.7899     71.508     40.431  34.196821     2.5502      6.898   201.1113 1.2160e+00     9.0846      2.476      3.592    17.2885   998.7553 0.0000e+00
      2.544      0.071     4.7994     71.489     40.423  34.189378     2.6200      6.899   201.2231 1.1710e+00     9.2513      2.494      3.618    17.2888   998.7552 0.0000e+00
      2.562      0.067     4.8050     71.464     40.417  34.183504     2.6095      6.899   201.2927 1.1289e+00     9.2432      2.513      3.644    17.2882   998.7555 0.0000e+00
      2.578      0.061     4.8071     71.461     40.423  34.189264     2.5108      6.900   201.2649 1.0931e+00     9.0523      2.529      3.668    17.2874   998.7557 0.0000e+00
      2.593      0.055     4.8072     71.473     40.430  34.195562     2.3372      6.901   201.2304 1.0605e+00     8.7457      2.542      3.689    17.2860   998.7560 0.0000e+00
      2.607      0.050     4.8058     71.465     40.430  34.196186     2.2355      6.901   201.3069 1.0356e+00     8.6172      2.556      3.707    17.2849   998.7563 0.0000e+00
      2.618      0.046     4.8032     71.435     40.431  34.196801     2.2253      6.902   201.4144 1.0270e+00     8.6125      2.568      3.724    17.2848   998.7563 0.0000e+00
      2.628      0.044     4.8030     71.410     40.438  34.203004     2.1880      6.902   201.4984 1.0205e+00     8.4922      2.578      3.739    17.2852   998.7563 0.0000e+00
      2.637      0.046     4.8052     71.392     40.444  34.207724     2.1052      6.901   201.6343 9.9245e-01     8.3421      2.586      3.751    17.2856   998.7563 0.0000e+00
      2.646      0.051     4.8046     71.377     40.424  34.190407     2.0649      6.899   201.7664 9.5942e-01     8.3056      2.594      3.763    17.2862   998.7562 0.0000e+00
      2.658      0.055     4.8012     71.384     40.418  34.184013     2.0749      6.899   201.8906 9.3959e-01     8.3456      2.604      3.778    17.2869   998.7561 0.0000e+00
      2.674      0.058     4.7998     71.432     40.430  34.193879     2.1734      6.899   202.0180 9.0802e-01     8.4660      2.618      3.798    17.2871   998.7561 0.0000e+00
      2.694      0.059     4.7992     71.545     40.416  34.182764     2.3626      6.898   202.0158 8.7119e-01     8.6461      2.644      3.834    17.2866   998.7564 0.0000e+00
      2.714      0.058     4.7969     71.715     40.409  34.176551     2.4727      6.897   201.9506 8.4920e-01     8.7216      2.664      3.864    17.2857   998.7566 0.0000e+00
      2.728      0.056     4.7979     71.898     40.415  34.182224     2.4900      6.897   202.0033 8.2158e-01     8.7221      2.675      3.880    17.2846   998.7569 0.0000e+00
      2.739      0.053     4.7999     72.065     40.422  34.187889     2.4944      6.897   202.1376 7.9451e-01     8.7515      2.687      3.897    17.2839   998.7571 0.0000e+00
      2.749      0.050     4.8077     72.210     40.415  34.181580     2.5251      6.897   202.1974 7.7831e-01     8.7160      2.696      3.911    17.2838   998.7571 0.0000e+00
      2.760      0.049     4.8207     72.299     40.401  34.169416     2.6013      6.897   202.2109 7.5118e-01     8.6205      2.704      3.923    17.2839   998.7571 0.0000e+00
      2.774      0.053     4.8337     72.290     40.400  34.167743     2.6450      6.897   202.3865 7.2128e-01     8.5803      2.720      3.945    17.2841   998.7571 0.0000e+00
      2.789      0.063     4.8446     72.215     40.394  34.161348     2.6460      6.893   202.6855 7.0905e-01     8.5904      2.737      3.969    17.2849   998.7571 0.0000e+00
      2.802      0.074     4.8550     72.134     40.389  34.155560     2.6041      6.888   202.9019 7.0142e-01     8.6447      2.747      3.984    17.2848   998.7571 0.0000e+00
      2.817      0.084     4.8633     72.060     40.397  34.161223     2.5023      6.887   202.9370 6.7250e-01     8.7119      2.758      3.999    17.2834   998.7574 0.0000e+00
      2.842      0.089     4.8614     72.006     40.404  34.166354     2.4300      6.886   202.8517 6.3193e-01     8.7475      2.784      4.038    17.2820   998.7578 0.0000e+00
      2.875      0.089     4.8544     71.999     40.389  34.154128     2.4141      6.884   202.8171 6.1127e-01     8.7808      2.822      4.092    17.2810   998.7582 0.0000e+00
      2.905      0.086     4.8494     72.026     40.373  34.140328     2.4150      6.883   202.8621 5.9771e-01     8.8522      2.852      4.136    17.2794   998.7587 0.0000e+00
      2.928      0.078     4.8446     72.074     40.357  34.126434     2.4235      6.885   202.9660 5.7084e-01     8.9550      2.872      4.166    17.2778   998.7590 0.0000e+00
      2.943      0.067     4.8393     72.145     40.342  34.113074     2.4293      6.888   203.0406 5.4474e-01     9.0072      2.889      4.189    17.2774   998.7591 0.0000e+00
      2.953      0.057     4.8399     72.216     40.334  34.105722     2.4158      6.890   202.9903 5.2895e-01     8.9921      2.896      4.201    17.2769   998.7592 0.0000e+00
      2.962      0.051     4.8424     72.273     40.329  34.101006     2.3299      6.892   202.9598 5.1939e-01     8.8386      2.902      4.211    17.2767   998.7593 0.0000e+00
      2.974      0.049     4.8447     72.332     40.352  34.119512     2.1887      6.893   203.0157 5.0761e-01     8.5606      2.917      4.230    17.2762   998.7594 0.0000e+00
      2.988      0.050     4.8508     72.392     40.375  34.139080     2.1131      6.893   203.0643 5.0055e-01     8.3837      2.931      4.251    17.2752   998.7597 0.0000e+00
      3.001      0.054     4.8561     72.449     40.384  34.147203     2.1087      6.892   203.2032 4.9640e-01     8.3387      2.942      4.269    17.2746   998.7598 0.0000e+00
      3.014      0.059     4.8589     72.504     40.392  34.154260     2.1617      6.892   203.4044 4.7698e-01     8.3436      2.956      4.287    17.2741   998.7599 0.0000e+00
      3.028      0.063     4.8633     72.580     40.400  34.160935     2.2598      6.892   203.4327 4.5598e-01     8.3444      2.970      4.306    17.2740   998.7601 0.0000e+00
      3.044      0.067     4.8674     72.688     40.404  34.164449     2.3066      6.892   203.3731 4.4116e-01     8.3158      2.984      4.327    17.2741   998.7601 0.0000e+00
      3.065      0.071     4.8714     72.794     40.368  34.133283     2.3033      6.892   203.3718 4.2611e-01     8.3258      3.005      4.358    17.2740   998.7602 0.0000e+00
      3.087      0.075     4.8745     72.889     40.331  34.101435     2.3068      6.891   203.5027 4.1363e-01     8.5306      3.030      4.395    17.2740   998.7604 0.0000e+00
      3.105      0.079     4.8785     72.955     40.327  34.096710     2.3570      6.890   203.7517 3.9613e-01     8.8582      3.046      4.418    17.2740   998.7604 0.0000e+00
      3.122      0.081     4.8880     72.979     40.305  34.076150     2.4412      6.890   203.8868 3.7897e-01     9.0095      3.060      4.437    17.2739   998.7605 0.0000e+00
      3.143      0.081     4.8944     72.990     40.269  34.043244     2.4843      6.889   203.8463 3.6432e-01     9.0163      3.081      4.469    17.2734   998.7607 0.0000e+00
      3.167      0.080     4.9012     72.997     40.240  34.016168     2.4883      6.887   203.7777 3.4120e-01     9.0392      3.106      4.505    17.2729   998.7609 0.0000e+00
      3.189      0.077     4.9075     72.990     40.227  34.002631     2.5586      6.884   203.8321 3.2131e-01     9.1548      3.127      4.536    17.2718   998.7612 0.0000e+00
      3.211      0.070     4.9069     72.965     40.234  34.006498     2.7020      6.883   203.9881 3.1182e-01     9.3648      3.149      4.567    17.2691   998.7617 0.0000e+00
      3.231      0.063     4.9086     72.953     40.227  33.999460     2.7825      6.883   204.1143 2.9977e-01     9.4813      3.170      4.598    17.2660   998.7624 0.0000e+00
      3.245      0.058     4.9093     72.998     40.207  33.980997     2.7776      6.884   204.1537 2.8205e-01     9.4490      3.185      4.620    17.2630   998.7630 0.0000e+00
      3.253      0.057     4.9098     73.121     40.199  33.973658     2.6861      6.885   204.2063 2.6656e-01     9.3025      3.192      4.629    17.2594   998.7636 0.0000e+00
      3.260      0.060     4.9074     73.283     40.200  33.974185     2.5257      6.885   204.3208 2.5487e-01     9.1193      3.194      4.634    17.2566   998.7642 0.0000e+00
      3.275      0.066     4.9055     73.429     40.216  33.987368     2.4333      6.884   204.4184 2.5018e-01     9.0359      3.208      4.653    17.2551   998.7645 0.0000e+00
      3.296      0.072     4.9081     73.545     40.239  34.006122     2.4183      6.883   204.5270 2.4690e-01     9.0152      3.232      4.689    17.2541   998.7647 0.0000e+00
      3.320      0.077     4.9170     73.603     40.246  34.010539     2.3878      6.883   204.6013 2.2675e-01     9.0656      3.255      4.721    17.2530   998.7650 0.0000e+00
      3.343      0.081     4.9310     73.607     40.208  33.977307     2.3339      6.883   204.7146 2.0010e-01     9.1866      3.278      4.754    17.2522   998.7653 0.0000e+00
      3.365      0.085     4.9392     73.592     40.145  33.921639     2.3036      6.882   204.9499 1.9372e-01     9.2335      3.302      4.789    17.2519   998.7655 0.0000e+00
      3.382      0.089     4.9492     73.560     40.139  33.908647     2.2991      6.880   205.1233 2.0450e-01     9.2064      3.317      4.811    17.2510   998.7657 0.0000e+00
      3.399      0.092     4.9528     73.520     40.199  33.947144     2.2973      6.879   205.1764 2.0062e-01     9.3839      3.329      4.829    17.2495   998.7660 0.0000e+00
      3.424      0.093     4.9514     73.471     40.284  34.006288     2.2898      6.879   205.1617 1.7130e-01     9.7402      3.355      4.866    17.2483   998.7663 0.0000e+00
      3.456      0.093     4.9516     73.398     40.350  34.052544     2.2869      6.879   205.1180 1.5211e-01     9.9096      3.390      4.917    17.2468   998.7667 0.0000e+00
      3.486      0.090     4.9496     73.313     40.369  34.062155     2.2967      6.879   205.1642 1.5736e-01     9.9238      3.422      4.962    17.2385   998.7683 0.0000e+00
      3.509      0.083     4.9486     73.225     40.372  34.059015     2.3047      6.880   205.2901 1.5485e-01     9.9133      3.444      4.995    17.2205   998.7717 0.0000e+00
      3.525      0.073     4.9483     73.110     40.399  34.078041     2.3310      6.881   205.2634 1.3866e-01     9.8479      3.456      5.013    17.2025   998.7749 0.0000e+00
      3.541      0.062     4.9438     72.940     40.429  34.101794     2.3898      6.883   205.1861 1.2977e-01     9.7552      3.473      5.037    17.1913   998.7770 0.0000e+00
      3.556      0.055     4.9381     72.692     40.494  34.155815     2.4347      6.885   205.2153 1.2647e-01     9.7105      3.491      5.062    17.1833   998.7785 0.0000e+00
      3.566      0.053     4.9345     72.381     40.653  34.286938     2.4412      6.886   205.1865 1.2397e-01     9.7335      3.498      5.074    17.1757   998.7798 0.0000e+00
      3.575      0.054     4.9271     72.043     40.813  34.417859     2.4500      6.887   205.1813 1.2374e-01     9.7373      3.504      5.082    17.1717   998.7805 0.0000e+00
      3.588      0.056     4.9170     71.682     40.880  34.469442     2.4895      6.885   205.2391 1.2367e-01     9.6912      3.517      5.101    17.1700   998.7809 0.0000e+00
      3.604      0.056     4.8998     71.272     40.882  34.466347     2.5281      6.884   205.2831 1.2371e-01     9.6682      3.534      5.126    17.1694   998.7811 0.0000e+00
      3.623      0.055     4.8778     70.775     40.933  34.507357     2.5445      6.885   205.3687 1.2379e-01     9.6874      3.551      5.150    17.1680   998.7815 0.0000e+00
      3.642      0.054     4.8556     70.114     41.100  34.647957     2.4970      6.885   205.5000 1.2378e-01     9.4652      3.573      5.182    17.1617   998.7828 0.0000e+00
      3.655      0.052     4.8331     69.287     41.247  34.770041     2.3962      6.883   205.5800 1.2374e-01     8.9806      3.587      5.204    17.1542   998.7842 0.0000e+00
      3.661      0.048     4.8059     68.415     41.260  34.777570     2.3480      6.882   205.5621 1.2372e-01     8.7116      3.589      5.206    17.1489   998.7851 0.0000e+00
      3.669      0.042     4.7754     67.564     41.217  34.738988     2.3566      6.881   205.6272 1.2370e-01     8.7035      3.595      5.214    17.1467   998.7855 0.0000e+00
      3.684      0.034     4.7322     66.709     41.152  34.684362     2.3445      6.879   205.7657 1.2372e-01     8.4555      3.613      5.239    17.1465   998.7857 0.0000e+00
      3.699      0.028     4.6709     65.809     41.079  34.624836     2.3055      6.879   205.8597 1.2375e-01     7.9094      3.631      5.267    17.1453   998.7861 0.0000e+00
      3.706      0.027     4.6120     64.890     41.109  34.653940     2.2924      6.879   205.9890 1.2376e-01     7.5742      3.636      5.274    17.1403   998.7870 0.0000e+00
      3.706      0.031     4.5558     64.079     41.562  35.036257     2.3069      6.877   206.1251 1.2376e-01     7.5817      3.634      5.271    17.1362   998.7876 0.0000e+00
      3.705      0.042     4.4993     63.491     42.803  36.073938     2.3425      6.872   206.3009 1.2374e-01     7.9996      3.633      5.270    17.1365   998.7877 0.0000e+00
      3.708      0.060     4.4387     63.166     44.445  37.425813     2.3940      6.867   206.5654 1.2375e-01     8.6618      3.630      5.265    17.1397   998.7870 0.0000e+00
      3.723      0.080     4.3716     63.028     45.712  38.432933     2.4175      6.862   206.7420 1.2375e-01     8.9687      3.644      5.284    17.1449   998.7861 0.0000e+00
      3.755      0.097     4.3142     62.820     46.532  39.046703     2.4188      6.858   206.8011 1.2372e-01     8.9567      3.680      5.338    17.1484   998.7857 0.0000e+00
      3.794      0.107     4.2736     62.125     47.094  39.450935     2.4873      6.855   206.8505 1.2372e-01     8.8444      3.721      5.398    17.1453   998.7869 0.0000e+00
      3.832      0.107     4.2556     60.361     47.755  39.955851     2.6309      6.852   206.9090 1.2375e-01     8.6598      3.761      5.455    17.1139   998.7933 0.0000e+00
      3.861      0.099     4.2591     56.940     49.836  41.659917     2.7158      6.848   206.9055 1.2376e-01     8.5602      3.790      5.499    17.0416   998.8064 0.0000e+00
      3.881      0.089     4.2628     51.644     56.559  47.229763     2.7162      6.843   206.8948 1.2376e-01     8.5569      3.809      5.525    16.9496   998.8227 0.0000e+00
      3.895      0.082     4.2361     44.699     67.985  56.683394     2.6961      6.835   207.0382 1.2376e-01     8.5553      3.820      5.540    16.8718   998.8364 0.0000e+00
      3.907      0.077     4.1384     36.740     76.119  63.342871     2.5163      6.826   207.2623 1.2376e-01     8.5737      3.829      5.553    16.8253   998.8446 0.0000e+00
      3.924      0.073     3.9135     28.584     77.695  64.529864     2.1720      6.817   207.3677 1.2375e-01     8.6473      3.846      5.578    16.7958   998.8500 0.0000e+00
      3.950      0.071     3.5493     20.596     78.215  64.872023     1.9754      6.810   207.2802 1.2373e-01     8.7252      3.873      5.617    16.7633   998.8574 0.0000e+00
      3.977      0.069     3.0691     13.034     79.806  66.145415     1.9430      6.804   207.0647 1.2368e-01     8.7620      3.905      5.662    16.7052   998.8730 0.0000e+00
      3.995      0.067     2.5029      6.477     83.508  69.183996     1.9011      6.794   206.6548 1.2372e-01     8.8305      3.921      5.688    16.6061   998.8934 0.0000e+00
      4.004      0.067     1.9480      1.271     90.794  75.162786     1.8510      6.778   206.1093 1.2380e-01     8.9626      3.927      5.695    16.5117   998.9083 0.0000e+00
      4.014      0.067     1.4038     -2.661     97.455  80.504056     1.8306      6.754   205.7183 1.2380e-01     9.0491      3.935      5.707    16.4559   998.9181 0.0000e+00
      4.028      0.070     0.8644     -5.433     98.678  81.168275     1.8286      6.727   205.5396 1.2376e-01     9.0561      3.948      5.726    16.4333   998.9225 0.0000e+00
      4.049      0.077     0.4086     -7.072     95.176  77.851501     1.8780      6.701   205.5834 1.2376e-01     8.9489      3.968      5.755    16.4231   998.9248 0.0000e+00
      4.074      0.085     0.0564     -7.769     89.960  73.157949     1.9860      6.674   205.9043 1.2371e-01     8.7699      3.997      5.797    16.4093   998.9307 0.0000e+00
      4.099      0.091    -0.2072     -7.698     85.579  69.190069     2.0507      6.647   206.0647 1.2366e-01     8.7266      4.022      5.833    16.3446   998.9448 0.0000e+00
      4.121      0.092    -0.4043     -6.948     83.489  67.136658     2.0620      6.623   205.1130 1.2373e-01     8.7854      4.039      5.860    16.1391   998.9788 0.0000e+00
      4.146      0.087    -0.5111     -5.781     82.494  66.067838     2.0355      6.603   202.2267 1.2382e-01     8.7598      4.065      5.895    15.8798   999.0195 0.0000e+00
      4.173      0.079    -0.5572     -4.496     81.440  65.039043     1.9732      6.588   197.6676 1.2380e-01     8.6789      4.094      5.937    15.6498   999.0543 0.0000e+00
      4.194      0.069    -0.5574     -3.260     81.407  64.867808     1.9422      6.575   192.8369 1.2373e-01     8.6264      4.117      5.971    15.4094   999.0902 0.0000e+00
      4.208      0.057    -0.4978     -2.127     82.035  65.268696     1.9381      6.564   188.5586 1.2368e-01     8.5847      4.127      5.985    15.1795   999.1253 0.0000e+00
      4.220      0.045    -0.4099     -1.138     81.904  65.118769     1.8716      6.554   184.6568 1.2371e-01     8.7639      4.138      6.001    15.0181   999.1498 0.0000e+00
      4.230      0.034    -0.3152     -0.313     81.480  64.771258     1.7535      6.545   181.1082 1.2375e-01     9.1870      4.152      6.022    14.9233   999.1634 0.0000e+00
      4.235      0.027    -0.2290      0.342     81.257  64.626538     1.6893      6.540   178.1758 1.2375e-01     9.4409      4.153      6.025    14.8304   999.1773 0.0000e+00
      4.237      0.025    -0.1468      0.825     80.371  64.004641     1.6929      6.536   176.0462 1.2373e-01     9.5060      4.154      6.024    14.7605   999.1883 0.0000e+00
      4.242      0.026    -0.0767      1.174     77.696  61.955471     1.7196      6.533   174.8039 1.2368e-01     9.8431      4.160      6.033    14.7470   999.1901 0.0000e+00
      4.249      0.033    -0.0183      1.426     73.921  58.916568     1.7435      6.530   174.4264 1.2367e-01    10.4367      4.168      6.045    14.7337   999.1918 0.0000e+00
      4.254      0.045     0.0291      1.596     70.154  55.731649     1.7471      6.527   174.3213 1.2373e-01    10.7512      4.172      6.051    14.7484   999.1898 0.0000e+00
      4.264      0.059     0.0615      1.717     66.529  52.611113     1.7463      6.525   173.7058 1.2371e-01    10.7946      4.179      6.060    14.8106   999.1805 0.0000e+00
      4.282      0.069     0.0850      1.833     64.009  50.409744     1.7590      6.523   172.6629 1.2364e-01    10.8311      4.198      6.087    14.8937   999.1671 0.0000e+00
      4.306      0.078     0.1033      1.944     62.655  49.188493     1.8145      6.521   171.1764 1.2371e-01    11.1586      4.222      6.123    14.9012   999.1645 0.0000e+00
      4.333      0.085     0.1147      2.044     61.454  48.134511     1.8975      6.523   168.8100 1.2379e-01    11.8061      4.250      6.165    14.7233   999.1900 0.0000e+00
      4.356      0.090     0.1218      2.124     60.360  47.192818     1.9302      6.525   165.9040 1.2372e-01    12.1710      4.275      6.201    14.5152   999.2191 0.0000e+00
      4.376      0.091     0.1314      2.169     59.820  46.693790     1.9331      6.526   163.0566 1.2364e-01    12.1621      4.291      6.223    14.3608   999.2405 0.0000e+00
      4.396      0.090     0.1396      2.186     59.810  46.609789     1.9837      6.529   160.5394 1.2365e-01    11.7643      4.309      6.249    14.2341   999.2584 0.0000e+00
      4.421      0.087     0.1472      2.190     59.912  46.621627     2.0648      6.532   158.6133 1.2372e-01    11.0308      4.335      6.289    14.1530   999.2695 0.0000e+00
      4.447      0.085     0.1539      2.212     59.929  46.582812     2.1069      6.535   157.1473 1.2377e-01    10.6022      4.362      6.327    14.0883   999.2783 0.0000e+00
      4.472      0.083     0.1570      2.327     59.902  46.521456     2.1121      6.537   155.7208 1.2370e-01    10.5471      4.387      6.364    14.0254   999.2869 0.0000e+00
      4.491      0.081     0.1581      2.618     59.944  46.514789     2.1359      6.539   154.3573 1.2360e-01    10.4626      4.406      6.391    13.9607   999.2961 0.0000e+00
      4.506      0.081     0.1583      3.147     60.136  46.629169     2.1782      6.541   153.2233 1.2360e-01    10.2691      4.416      6.405    13.8989   999.3047 0.0000e+00
      4.523      0.082     0.1574      3.895     60.488  46.888273     2.1910      6.543   152.3348 1.2365e-01    10.1743      4.433      6.431    13.8570   999.3105 0.0000e+00
      4.544      0.082     0.1642      4.811     60.750  47.107311     2.1682      6.543   151.7878 1.2369e-01    10.2015      4.456      6.463    13.8296   999.3143 0.0000e+00
      4.568      0.080     0.1831      5.892     60.640  47.054818     2.0326      6.544   151.4287 1.2373e-01    10.6631      4.477      6.493    13.7938   999.3193 0.0000e+00
      4.596      0.075     0.2220      7.070     60.409  46.888697     1.8086      6.544   151.0900 1.2374e-01    11.5934      4.509      6.540    13.7604   999.3241 0.0000e+00
      4.620      0.066     0.2794      8.197     60.332  46.813460     1.7060      6.542   150.9614 1.2375e-01    12.1428      4.536      6.579    13.7454   999.3264 0.0000e+00
      4.633      0.055     0.3436      9.151     60.240  46.716684     1.7020      6.540   151.1647 1.2379e-01    12.2586      4.546      6.593    13.7604   999.3246 0.0000e+00
      4.639      0.042     0.4235      9.895     60.132  46.607641     1.7179      6.538   151.7404 1.2376e-01    12.6981      4.549      6.598    13.8039   999.3186 0.0000e+00
      4.646      0.029     0.5134     10.457     60.123  46.574608     1.7675      6.537   152.4160 1.2369e-01    13.4920      4.555      6.608    13.8191   999.3165 0.0000e+00
      4.653      0.019     0.5986     10.908     60.143  46.571275     1.7983      6.534   152.7947 1.2372e-01    13.9262      4.565      6.620    13.7926   999.3201 0.0000e+00
      4.658      0.016     0.6689     11.321     60.149  46.567329     1.8053      6.532   152.9641 1.2378e-01    13.9825      4.569      6.627    13.7718   999.3229 0.0000e+00
      4.660      0.021     0.7221     11.707     60.109  46.526887     1.8088      6.531   153.0867 1.2378e-01    14.0092      4.571      6.629    13.7517   999.3256 0.0000e+00
      4.660      0.032     0.7616     12.067     60.062  46.463321     1.7966      6.530   153.1593 1.2373e-01    13.9865      4.570      6.627    13.7268   999.3290 0.0000e+00
      4.661      0.045     0.7916     12.425     60.092  46.433776     1.7781      6.529   153.2401 1.2373e-01    13.9706      4.568      6.625    13.7098   999.3313 0.0000e+00
      4.671      0.059     0.8222     12.807     60.163  46.423612     1.7681      6.528   153.3747 1.2378e-01    13.9804      4.576      6.636    13.7051   999.3319 0.0000e+00
      4.696      0.072     0.8508     13.251     60.212  46.403866     1.7541      6.526   153.5813 1.2380e-01    14.0397      4.603      6.676    13.7048   999.3321 0.0000e+00
      4.727      0.082     0.8757     13.841     60.245  46.385481     1.6870      6.526   153.8462 1.2371e-01    14.5231      4.640      6.729    13.6845   999.3350 0.0000e+00
      4.752      0.089     0.9027     14.691     60.300  46.391782     1.5716      6.525   154.0819 1.2366e-01    15.3354      4.664      6.764    13.6367   999.3416 0.0000e+00
      4.771      0.089     0.9307     15.840     60.369  46.416502     1.5030      6.524   154.2805 1.2371e-01    15.7347      4.679      6.787    13.5751   999.3499 0.0000e+00
      4.790      0.083     0.9626     17.274     60.414  46.430307     1.4911      6.522   154.5263 1.2376e-01    15.7455      4.695      6.810    13.5257   999.3566 0.0000e+00
      4.813      0.074     1.0017     18.929     60.434  46.431667     1.4801      6.521   154.9031 1.2376e-01    15.6623      4.718      6.843    13.4920   999.3612 0.0000e+00
      4.837      0.069     1.0639     20.638     60.445  46.432937     1.4641      6.519   155.3090 1.2376e-01    15.4830      4.746      6.883    13.4621   999.3653 0.0000e+00
      4.854      0.065     1.1496     22.250     60.466  46.445649     1.4542      6.516   155.5620 1.2371e-01    15.3474      4.764      6.909    13.4390   999.3685 0.0000e+00
      4.864      0.061     1.2541     23.666     60.485  46.458352     1.4305      6.515   155.7247 1.2368e-01    15.3999      4.769      6.916    13.4219   999.3708 0.0000e+00
      4.875      0.055     1.3823     24.823     60.489  46.459517     1.2640      6.515   155.9002 1.2372e-01    16.6089      4.778      6.930    13.4102   999.3724 0.0000e+00
      4.891      0.047     1.5102     25.688     60.491  46.459727     0.9840      6.514   156.1356 1.2373e-01    18.8552      4.797      6.957    13.4051   999.3731 0.0000e+00
      4.908      0.041     1.6307     26.248     60.491  46.460890     0.8462      6.512   156.4195 1.2372e-01    20.1101      4.815      6.983    13.4026   999.3735 0.0000e+00
      4.919      0.037     1.7359     26.538     60.504  46.473582     0.8466      6.510   156.6659 1.2374e-01    20.1800      4.826      6.999    13.4013   999.3738 0.0000e+00
      4.924      0.035     1.8208     26.646     60.517  46.486179     0.9011      6.509   156.9629 1.2369e-01    19.5373      4.831      7.005    13.3999   999.3739 0.0000e+00
      4.927      0.036     1.8853     26.645     60.520  46.486189     1.0109      6.507   157.3434 1.2359e-01    18.4028      4.833      7.010    13.3986   999.3741 0.0000e+00
      4.930      0.042     1.9249     26.539     60.514  46.473709     1.0737      6.507   157.7395 1.2356e-01    17.8014      4.833      7.009    13.3993   999.3741 0.0000e+00
      4.939      0.053     1.9439     26.359     60.513  46.462278     1.0796      6.506   158.2247 1.2365e-01    17.7396      4.840      7.019    13.4018   999.3738 0.0000e+00
      4.957      0.066     1.9480     26.123     60.541  46.474973     1.0816      6.504   158.7357 1.2374e-01    17.7208      4.861      7.051    13.4056   999.3734 0.0000e+00
      4.980      0.077     1.9503     25.860     60.586  46.500177     1.0631      6.501   159.1848 1.2379e-01    17.7700      4.884      7.083    13.4047   999.3736 0.0000e+00
      5.003      0.084     1.9405     25.663     60.612  46.512984     1.0298      6.499   159.6119 1.2376e-01    17.9088      4.906      7.115    13.3958   999.3749 0.0000e+00
      5.028      0.088     1.9275     25.553     60.607  46.502800     1.0173      6.497   160.1135 1.2370e-01    18.0220      4.930      7.151    13.3867   999.3762 0.0000e+00
      5.052      0.088     1.9118     25.493     60.615  46.504060     1.0163      6.495   160.6905 1.2372e-01    18.0575      4.956      7.188    13.3797   999.3772 0.0000e+00
      5.073      0.087     1.8876     25.491     60.655  46.528204     0.9308      6.493   161.1675 1.2377e-01    18.3381      4.977      7.219    13.3718   999.3784 0.0000e+00
      5.093      0.085     1.8742     25.592     60.680  46.540698     0.7631      6.491   161.5783 1.2376e-01    18.8910      4.993      7.242    13.3648   999.3794 0.0000e+00
      5.114      0.082     1.8675     25.777     60.670  46.528103     0.6704      6.491   162.0436 1.2375e-01    19.2041      5.014      7.273    13.3611   999.3800 0.0000e+00
      5.138      0.078     1.8635     25.969     60.642  46.502919     0.6684      6.490   162.4917 1.2377e-01    19.3056      5.039      7.309    13.3574   999.3806 0.0000e+00
      5.160      0.073     1.8616     26.170     60.629  46.490219     0.6868      6.488   162.8671 1.2378e-01    19.4302      5.061      7.341    13.3515   999.3815 0.0000e+00
      5.177      0.067     1.8689     26.412     60.646  46.501557     0.7108      6.486   163.3124 1.2373e-01    19.5303      5.078      7.365    13.3460   999.3823 0.0000e+00
      5.192      0.061     1.8869     26.660     60.663  46.512989     0.7159      6.485   163.8318 1.2368e-01    19.5655      5.092      7.385    13.3420   999.3829 0.0000e+00
      5.206      0.056     1.8998     26.865     60.650  46.501431     0.7062      6.483   164.3289 1.2364e-01    19.5288      5.107      7.407    13.3389   999.3833 0.0000e+00
      5.218      0.052     1.9129     26.991     60.635  46.488824     0.6970      6.481   164.8489 1.2359e-01    19.4468      5.118      7.423    13.3367   999.3836 0.0000e+00
      5.229      0.051     1.9324     27.021     60.635  46.487566     0.6827      6.479   165.3865 1.2363e-01    19.3607      5.127      7.435    13.3353   999.3839 0.0000e+00
      5.243      0.053     1.9520     26.964     60.635  46.486212     0.6717      6.477   165.9255 1.2374e-01    19.3068      5.140      7.455    13.3341   999.3841 0.0000e+00
      5.258      0.057     1.9679     26.876     60.620  46.472461     0.6680      6.476   166.3764 1.2381e-01    19.2865      5.158      7.482    13.3331   999.3843 0.0000e+00
      5.270      0.061     1.9775     26.795     60.591  46.448309     0.6296      6.475   166.7077 1.2378e-01    19.2466      5.167      7.494    13.3320   999.3845 0.0000e+00
      5.285      0.063     1.9801     26.702     60.594  46.448205     0.5542      6.474   167.0922 1.2373e-01    19.1523      5.177      7.510    13.3306   999.3847 0.0000e+00
      5.305      0.061     1.9738     26.602     60.627  46.471203     0.5101      6.473   167.5828 1.2374e-01    19.0972      5.201      7.545    13.3296   999.3850 0.0000e+00
      5.326      0.056     1.9659     26.536     60.630  46.472348     0.5045      6.471   168.0799 1.2377e-01    19.1042      5.225      7.578    13.3284   999.3852 0.0000e+00
      5.342      0.054     1.9618     26.523     60.616  46.462051     0.4856      6.469   168.5424 1.2374e-01    19.0734      5.242      7.602    13.3262   999.3855 0.0000e+00
      5.352      0.054     1.9546     26.546     60.631  46.473710     0.4471      6.467   168.9591 1.2371e-01    19.0194      5.251      7.616    13.3238   999.3860 0.0000e+00
      5.357      0.056     1.9459     26.570     60.648  46.486307     0.4283      6.466   169.3318 1.2373e-01    19.0408      5.253      7.619    13.3219   999.3862 0.0000e+00
      5.363      0.061     1.9407     26.579     60.652  46.487348     0.4319      6.464   169.6936 1.2374e-01    19.1032      5.254      7.620    13.3211   999.3863 0.0000e+00
      5.381      0.069     1.9402     26.584     60.654  46.486298     0.4301      6.463   170.0643 1.2372e-01    19.1184      5.272      7.646    13.3214   999.3864 0.0000e+00
      5.409      0.075     1.9430     26.588     60.641  46.473607     0.4244      6.461   170.4576 1.2372e-01    19.1920      5.305      7.695    13.3222   999.3864 0.0000e+00
      5.435      0.079     1.9454     26.574     60.626  46.460907     0.4229      6.459   170.8351 1.2376e-01    19.3707      5.333      7.734    13.3217   999.3867 0.0000e+00
      5.457      0.077     1.9454     26.552     60.625  46.459753     0.4211      6.457   171.1013 1.2379e-01    19.5094      5.351      7.761    13.3197   999.3870 0.0000e+00
      5.476      0.070     1.9456     26.524     60.625  46.459648     0.4200      6.455   171.3528 1.2377e-01    19.5583      5.370      7.790    13.3174   999.3875 0.0000e+00
      5.491      0.063     1.9473     26.493     60.625  46.459638     0.4094      6.454   171.7253 1.2370e-01    19.6004      5.386      7.813    13.3156   999.3877 0.0000e+00
      5.503      0.058     1.9452     26.465     60.626  46.459638     0.3804      6.454   172.1639 1.2368e-01    19.6909      5.396      7.827    13.3147   999.3878 0.0000e+00
      5.514      0.056     1.9437     26.425     60.627  46.459639     0.3635      6.453   172.6122 1.2370e-01    19.7347      5.406      7.841    13.3141   999.3880 0.0000e+00
      5.527      0.056     1.9422     26.388     60.627  46.459647     0.3707      6.451   172.9307 1.2370e-01    19.7365      5.418      7.859    13.3138   999.3880 0.0000e+00
      5.544      0.055     1.9385     26.368     60.628  46.459742     0.3801      6.450   173.1753 1.2374e-01    19.7784      5.436      7.885    13.3139   999.3881 0.0000e+00
      5.561      0.055     1.9383     26.341     60.630  46.460783     0.3813      6.449   173.5041 1.2379e-01    19.8158      5.455      7.912    13.3133   999.3883 0.0000e+00
      5.576      0.056     1.9344     26.306     60.646  46.472233     0.3769      6.448   173.8081 1.2380e-01    19.7948      5.470      7.933    13.3127   999.3885 0.0000e+00
      5.588      0.058     1.9306     26.289     60.645  46.471173     0.3702      6.447   174.0985 1.2373e-01    19.7543      5.481      7.950    13.3123   999.3885 0.0000e+00
      5.598      0.063     1.9309     26.291     60.615  46.447966     0.3520      6.445   174.5197 1.2365e-01    19.7528      5.489      7.960    13.3123   999.3886 0.0000e+00
      5.611      0.071     1.9286     26.287     60.613  46.445656     0.3219      6.443   175.0293 1.2366e-01    19.7759      5.497      7.973    13.3120   999.3886 0.0000e+00
      5.631      0.082     1.9253     26.294     60.611  46.443242     0.3099      6.440   175.4424 1.2371e-01    19.8034      5.519      8.005    13.3112   999.3889 0.0000e+00
      5.656      0.094     1.9235     26.324     60.581  46.418786     0.3198      6.438   175.7286 1.2374e-01    19.7906      5.547      8.045    13.3109   999.3891 0.0000e+00
      5.682      0.103     1.9255     26.352     60.563  46.403976     0.3207      6.435   175.9939 1.2379e-01    19.7521      5.571      8.081    13.3103   999.3892 0.0000e+00
      5.712      0.108     1.9241     26.364     60.548  46.391179     0.3115      6.433   176.2418 1.2384e-01    19.7647      5.601      8.123    13.3098   999.3894 0.0000e+00
      5.744      0.108     1.9237     26.368     60.548  46.391065     0.3043      6.431   176.4888 1.2387e-01    19.8121      5.635      8.173    13.3091   999.3897 0.0000e+00
      5.774      0.104     1.9278     26.365     60.564  46.402596     0.3021      6.430   176.7430 1.2388e-01    19.8330      5.664      8.215    13.3080   999.3899 0.0000e+00
      5.799      0.098     1.9297     26.353     60.566  46.403592     0.3021      6.429   176.9058 1.2383e-01    19.8205      5.687      8.247    13.3070   999.3902 0.0000e+00
      5.823      0.092     1.9305     26.334     60.565  46.403106     0.2959      6.428   177.0809 1.2372e-01    19.9569      5.711      8.283    13.3063   999.3904 0.0000e+00
      5.843      0.083     1.9307     26.323     60.558  46.396711     0.2960      6.427   177.3979 1.2370e-01    20.2688      5.732      8.313    13.3058   999.3905 0.0000e+00
      5.862      0.072     1.9306     26.323     60.550  46.389785     0.3045      6.425   177.7274 1.2376e-01    20.4454      5.748      8.337    13.3054   999.3907 0.0000e+00
      5.882      0.060     1.9297     26.317     60.541  46.382868     0.3118      6.424   178.0533 1.2375e-01    20.4213      5.768      8.366    13.3052   999.3908 0.0000e+00
      5.902      0.048     1.9278     26.297     60.533  46.376578     0.3060      6.423   178.3270 1.2371e-01    20.1083      5.790      8.399    13.3051   999.3909 0.0000e+00
      5.913      0.038     1.9270     26.262     60.533  46.377245     0.2775      6.422   178.5411 1.2368e-01    19.5777      5.803      8.417    13.3047   999.3910 0.0000e+00
      5.915      0.033     1.9276     26.222     60.551  46.390933     0.2537      6.421   178.8347 1.2367e-01    19.3148      5.802      8.415    13.3041   999.3911 0.0000e+00
      5.915      0.033     1.9273     26.187     60.583  46.415062     0.2433      6.420   179.0382 1.2370e-01    19.2889      5.799      8.411    13.3037   999.3911 0.0000e+00
      5.920      0.036     1.9258     26.145     60.583  46.414962     0.2380      6.418   179.1085 1.2372e-01    19.3306      5.802      8.416    13.3038   999.3911 0.0000e+00
      5.931      0.042     1.9233     26.091     60.549  46.389726     0.2417      6.416   179.3409 1.2370e-01    19.4581      5.813      8.431    13.3042   999.3911 0.0000e+00
      5.947      0.050     1.9195     26.041     60.515  46.363961     0.2447      6.416   179.6960 1.2370e-01    19.5202      5.831      8.457    13.3044   999.3912 0.0000e+00
      5.966      0.058     1.9177     26.031     60.506  46.357454     0.2405      6.415   179.8753 1.2381e-01    19.5246      5.851      8.485    13.3040   999.3914 0.0000e+00
      5.983      0.064     1.9146     26.063     60.528  46.374556     0.2336      6.413   179.9602 1.2386e-01    19.5107      5.869      8.512    13.3036   999.3915 0.0000e+00
      5.995      0.066     1.9103     26.086     60.538  46.380229     0.2309      6.411   180.1197 1.2378e-01    19.4509      5.880      8.528    13.3041   999.3915 0.0000e+00
      6.009      0.064     1.9059     26.089     60.517  46.362531     0.2344      6.410   180.2551 1.2370e-01    19.3910      5.888      8.540    13.3047   999.3914 0.0000e+00
      6.029      0.060     1.9037     26.104     60.503  46.351089     0.2409      6.409   180.3925 1.2365e-01    19.3100      5.911      8.574    13.3050   999.3915 0.0000e+00
      6.050      0.057     1.9094     26.138     60.525  46.368891     0.2307      6.409   180.5769 1.2364e-01    19.0945      5.937      8.611    13.3053   999.3916 0.0000e+00
      6.064      0.055     1.9108     26.163     60.548  46.387260     0.1986      6.408   180.6780 1.2366e-01    18.8177      5.949      8.627    13.3036   999.3919 0.0000e+00
      6.073      0.052     1.9098     26.163     60.543  46.382675     0.1822      6.407   180.7540 1.2371e-01    18.7171      5.955      8.637    13.3021   999.3921 0.0000e+00
      6.082      0.048     1.9106     26.153     60.537  46.376959     0.1879      6.406   180.8942 1.2371e-01    18.6971      5.963      8.650    13.3016   999.3921 0.0000e+00
      6.094      0.048     1.9145     26.158     60.544  46.381645     0.1895      6.405   180.9962 1.2369e-01    18.6410      5.976      8.668    13.3021   999.3922 0.0000e+00
      6.108      0.053     1.9165     26.188     60.538  46.375822     0.1840      6.404   181.0403 1.2368e-01    18.6288      5.990      8.688    13.3030   999.3921 0.0000e+00
      6.120      0.061     1.9159     26.197     60.532  46.370058     0.1825      6.402   181.0835 1.2368e-01    18.6482      6.002      8.705    13.3023   999.3922 0.0000e+00
      6.134      0.067     1.9149     26.166     60.540  46.375453     0.1892      6.401   181.0886 1.2368e-01    18.6797      6.015      8.723    13.3012   999.3924 0.0000e+00
      6.152      0.072     1.9138     26.136     60.542  46.377551     0.1947      6.400   181.1024 1.2368e-01    18.6811      6.030      8.745    13.3004   999.3926 0.0000e+00
      6.175      0.073     1.9187     26.125     60.566  46.395430     0.2066      6.399   181.1647 1.2370e-01    18.5998      6.055      8.781    13.2996   999.3929 0.0000e+00
      6.200      0.071     1.9200     26.093     60.575  46.401104     0.2286      6.398   181.2392 1.2370e-01    18.5157      6.083      8.824    13.2988   999.3931 0.0000e+00
      6.220      0.064     1.9157     26.044     60.552  46.382644     0.2355      6.396   181.3145 1.2374e-01    18.4842      6.102      8.850    13.2986   999.3932 0.0000e+00
      6.234      0.054     1.9127     26.021     60.525  46.362752     0.2380      6.394   181.3013 1.2381e-01    18.4481      6.113      8.866    13.2985   999.3933 0.0000e+00
      6.247      0.042     1.9142     26.005     60.508  46.351110     0.2499      6.394   181.2512 1.2378e-01    18.3741      6.127      8.887    13.2986   999.3934 0.0000e+00
      6.255      0.031     1.9119     25.967     60.530  46.368894     0.2489      6.394   181.3974 1.2371e-01    18.2775      6.136      8.901    13.2976   999.3935 0.0000e+00
      6.260      0.023     1.9056     25.929     60.552  46.387258     0.2354      6.393   181.6061 1.2371e-01    18.2295      6.139      8.903    13.2958   999.3938 0.0000e+00
      6.263      0.018     1.9053     25.908     60.544  46.382634     0.2250      6.391   181.6233 1.2375e-01    18.2207      6.141      8.906    13.2968   999.3936 0.0000e+00
      6.266      0.013     1.9055     25.884     60.534  46.376493     0.2277      6.389   181.6056 1.2380e-01    18.3021      6.146      8.912    13.2989   999.3933 0.0000e+00
      6.270      0.010     1.9014     25.855     60.533  46.376514     0.2422      6.389   181.6496 1.2378e-01    18.4926      6.149      8.918    13.2991   999.3934 0.0000e+00
      6.272      0.008     1.8979     25.850     60.541  46.382884     0.2523      6.389   181.7252 1.2369e-01    18.6226      6.151      8.922    13.3000   999.3933 0.0000e+00
      6.274      0.006     1.8974     25.869     60.549  46.390016     0.2538      6.389   181.9173 1.2361e-01    18.6617      6.153      8.924    13.3016   999.3931 0.0000e+00
      6.274      0.004     1.8960     25.890     60.560  46.399233     0.2523      6.386   182.1663 1.2364e-01    18.6706      6.153      8.924    13.3025   999.3929 0.0000e+00
      6.275      0.003     1.8920     25.902     60.600  46.430823     0.2514      6.385   182.2397 1.2372e-01    18.6974      6.154      8.925    13.3034   999.3928 0.0000e+00
      6.276      0.003     1.8921     25.904     60.630  46.454445     0.2521      6.385   182.2031 1.2376e-01    18.7240      6.154      8.926    13.3040   999.3928 0.0000e+00
      6.276 -9.990e-29     1.8942 -9.990e-29 -9.990e-29 -9.990e-29 -9.990e-29 -9.990e-29 -9.990e-29 1.2382e-01 -9.990e-29      6.155      8.927    13.3047   999.3927 0.0000e+00
      6.276 -9.990e-29     1.8958 -9.990e-29 -9.990e-29 -9.990e-29 -9.990e-29 -9.990e-29 -9.990e-29 1.2382e-01 -9.990e-29      6.155      8.927    13.3058   999.3925 0.0000e+00
      6.276 -9.990e-29     1.8968 -9.990e-29 -9.990e-29 -9.990e-29 -9.990e-29 -9.990e-29 -9.990e-29 1.2372e-01 -9.990e-29      6.155      8.927    13.3066   999.3924 0.0000e+00
      6.276 -9.990e-29     1.8964 -9.990e-29 -9.990e-29 -9.990e-29 -9.990e-29 -9.990e-29 -9.990e-29 1.2367e-01 -9.990e-29      6.156      8.928    13.3066   999.3925 0.0000e+00
