* Sea-Bird SBE19plus  Data File:
* FileName = C:\R\Reservoirs\Data\DataNotYetUploadedToEDI\Raw_CTD\RawDownloads\101723_bvr50_S7809_0002.hex
* Software version 2.8.0.119
* Temperature SN = 7809
* Conductivity SN = 7809
* System UpLoad Time = Oct 18 2023 15:21:22
* <ApplicationData>
* <Seaterm232>
* <SoftwareVersion>2.8.0.119</SoftwareVersion>
* <BuildDate>07-Nov-2018</BuildDate>
* </Seaterm232>
* </ApplicationData>
* <InstrumentState>
* <HardwareData DeviceType='SBE19plus' SerialNumber='01907809'>
*
*    <Manufacturer>Sea-Bird Electronics, Inc.</Manufacturer>
*
*    <FirmwareVersion>3.1.8</FirmwareVersion>
*
*    <FirmwareDate>Mar  9 2016 16:22:29</FirmwareDate>
*
*    <CommandSetVersion>1.4</CommandSetVersion>
*
*    <PCBAssembly PCBSerialNum='120721' AssemblyNum='41054J'/>
*
*    <PCBAssembly PCBSerialNum='120715' AssemblyNum='41967A'/>
*
*    <PCBAssembly PCBSerialNum='116699' AssemblyNum='41606'/>
*
*    <PCBAssembly PCBSerialNum='120719' AssemblyNum='41059D'/>
*
*    <MfgDate>28-Apr-2017</MfgDate>
*
*    <InternalSensors>
*
*       <Sensor id='Main Temperature'>
*
*          <type>temperature0</type>
*
*          <SerialNumber>01907809</SerialNumber>
*
*       </Sensor>
*
*       <Sensor id='Main Conductivity'>
*
*          <type>conductivity-0</type>
*
*          <SerialNumber>01907809</SerialNumber>
*
*       </Sensor>
*
*       <Sensor id='Main Pressure'>
*
*          <type>strain-0</type>
*
*          <SerialNumber>10586018</SerialNumber>
*
*       </Sensor>
*
*    </InternalSensors>
*
*    <ExternalSensors>
*
*       <Sensor id='volt 0'>
*
*          <type>pH</type>
*
*          <SerialNumber>27-0363</SerialNumber>
*
*       </Sensor>
*
*       <Sensor id='volt 1'>
*
*          <type>ORP</type>
*
*          <SerialNumber>27-0363</SerialNumber>
*
*       </Sensor>
*
*       <Sensor id='volt 2'>
*
*          <type>OXY</type>
*
*          <SerialNumber>43-0434</SerialNumber>
*
*       </Sensor>
*
*       <Sensor id='volt 3'>
*
*          <type>PAR</type>
*
*          <SerialNumber>1122</SerialNumber>
*
*       </Sensor>
*
*       <Sensor id='volt 4'>
*
*          <type>ECO AFL/FL</type>
*
*          <SerialNumber>FLNTURT-2496</SerialNumber>
*
*       </Sensor>
*
*       <Sensor id='volt 5'>
*
*          <type>ECO-NTU</type>
*
*          <SerialNumber>FLNTURT-2496</SerialNumber>
*
*       </Sensor>
*
*       <Sensor id='serial'>
*
*          <type>not assigned</type>
*
*          <SerialNumber>not assigned</SerialNumber>
*
*       </Sensor>
*
*    </ExternalSensors>
*
* </HardwareData>
* <StatusData DeviceType='SBE19plus' SerialNumber='01907809'>
*
*    <DateTime>2023-10-18T15:19:39</DateTime>
*
*    <LoggingState>not logging</LoggingState>
*
*    <EventSummary numEvents='0'/>
*
*    <Power>
*
*       <vMain>12.8</vMain>
*
*       <vLith>8.3</vLith>
*
*       <iMain>63.1</iMain>
*
*       <iPump>83.8</iPump>
*
*       <iExt01>20.1</iExt01>
*
*       <iExt2345>37.5</iExt2345>
*
*    </Power>
*
*    <MemorySummary>
*
*       <Bytes>63825</Bytes>
*
*       <Samples>2775</Samples>
*
*       <SamplesFree>2858013</SamplesFree>
*
*       <SampleLength>23</SampleLength>
*
*       <Profiles>2</Profiles>
*
*    </MemorySummary>
*
* </StatusData>
* <ConfigurationData DeviceType='SBE19plus' SerialNumber='01907809'>
*
*    <ProfileMode>
*
*       <ScansToAverage>1</ScansToAverage>
*
*       <MinimumCondFreq>0</MinimumCondFreq>
*
*       <PumpDelay>45</PumpDelay>
*
*       <AutoRun>no</AutoRun>
*
*       <IgnoreSwitch>no</IgnoreSwitch>
*
*    </ProfileMode>
*
*    <Battery>
*
*       <Type>alkaline</Type>
*
*       <CutOff>7.5</CutOff>
*
*    </Battery>
*
*    <DataChannels>
*
*       <ExtVolt0>yes</ExtVolt0>
*
*       <ExtVolt1>yes</ExtVolt1>
*
*       <ExtVolt2>yes</ExtVolt2>
*
*       <ExtVolt3>yes</ExtVolt3>
*
*       <ExtVolt4>yes</ExtVolt4>
*
*       <ExtVolt5>yes</ExtVolt5>
*
*       <SBE38>no</SBE38>
*
*       <WETLABS>no</WETLABS>
*
*       <OPTODE>no</OPTODE>
*
*       <SBE63>no</SBE63>
*
*       <SeaFET>no</SeaFET>
*
*       <GTD>no</GTD>
*
*    </DataChannels>
*
*    <EchoCharacters>yes</EchoCharacters>
*
*    <OutputExecutedTag>yes</OutputExecutedTag>
*
*    <OutputFormat>raw HEX</OutputFormat>
*
* </ConfigurationData>
* <CalibrationCoefficients DeviceType='SBE19plus' SerialNumber='01907809'>
*
*    <Calibration format='TEMP1' id='Main Temperature'>
*
*       <SerialNum>01907809</SerialNum>
*
*       <CalDate>31-Jan-23</CalDate>
*
*       <TA0>1.218232e-03</TA0>
*
*       <TA1>2.815090e-04</TA1>
*
*       <TA2>-1.578887e-06</TA2>
*
*       <TA3>1.972343e-07</TA3>
*
*       <TOFFSET>0.000000e+00</TOFFSET>
*
*    </Calibration>
*
*    <Calibration format='WBCOND0' id='Main Conductivity'>
*
*       <SerialNum>01907809</SerialNum>
*
*       <CalDate>31-Jan-23</CalDate>
*
*       <G>-1.005652e+00</G>
*
*       <H>1.267963e-01</H>
*
*       <I>-1.561708e-04</I>
*
*       <J>2.645944e-05</J>
*
*       <CPCOR>-9.570000e-08</CPCOR>
*
*       <CTCOR>3.250000e-06</CTCOR>
*
*       <CSLOPE>1.000000e+00</CSLOPE>
*
*    </Calibration>
*
*    <Calibration format='STRAIN0' id='Main Pressure'>
*
*       <SerialNum>10586018</SerialNum>
*
*       <CalDate>20-Jan-23</CalDate>
*
*       <PA0>4.416439e-02</PA0>
*
*       <PA1>4.850502e-04</PA1>
*
*       <PA2>-3.090426e-12</PA2>
*
*       <PTCA0>5.254757e+05</PTCA0>
*
*       <PTCA1>1.050255e+01</PTCA1>
*
*       <PTCA2>-2.922435e-01</PTCA2>
*
*       <PTCB0>2.516687e+01</PTCB0>
*
*       <PTCB1>3.750000e-04</PTCB1>
*
*       <PTCB2>0.000000e+00</PTCB2>
*
*       <PTEMPA0>-5.470820e+01</PTEMPA0>
*
*       <PTEMPA1>5.485421e+01</PTEMPA1>
*
*       <PTEMPA2>-3.446578e-01</PTEMPA2>
*
*       <POFFSET>8.500000e-01</POFFSET>
*
*       <PRANGE>1.600000e+02</PRANGE>
*
*    </Calibration>
*
*    <Calibration format='VOLT0' id='Volt 0'>
*
*       <OFFSET>-4.920000e-02</OFFSET>
*
*       <SLOPE>1.248122e+00</SLOPE>
*
*    </Calibration>
*
*    <Calibration format='VOLT0' id='Volt 1'>
*
*       <OFFSET>-4.784000e-02</OFFSET>
*
*       <SLOPE>1.248871e+00</SLOPE>
*
*    </Calibration>
*
*    <Calibration format='VOLT0' id='Volt 2'>
*
*       <OFFSET>-4.864632e-02</OFFSET>
*
*       <SLOPE>1.248714e+00</SLOPE>
*
*    </Calibration>
*
*    <Calibration format='VOLT0' id='Volt 3'>
*
*       <OFFSET>-4.743790e-02</OFFSET>
*
*       <SLOPE>1.248571e+00</SLOPE>
*
*    </Calibration>
*
*    <Calibration format='VOLT0' id='Volt 4'>
*
*       <OFFSET>-4.671263e-02</OFFSET>
*
*       <SLOPE>1.248951e+00</SLOPE>
*
*    </Calibration>
*
*    <Calibration format='VOLT0' id='Volt 5'>
*
*       <OFFSET>-4.871053e-02</OFFSET>
*
*       <SLOPE>1.249136e+00</SLOPE>
*
*    </Calibration>
*
*    <Calibration format='FREQ0' id='external frequency channel'>
*
*       <EXTFREQSF>1.000014e+00</EXTFREQSF>
*
*    </Calibration>
*
* </CalibrationCoefficients>
* <EventCounters DeviceType='SBE19plus' SerialNumber='01907809'>
*
*    <EventSummary numEvents='0'/>
*
* </EventCounters></InstrumentState>
* <Headers>
*
* cast   2 17 Oct 2023 13:34:15 samples 1760 to 2775, avg = 1, stop = mag switch
*
# nquan = 15
# nvalues = 1016                        
# units = specified
# name 0 = depFM: Depth [fresh water, m]
# name 1 = dz/dtM: Descent Rate [m/s]
# name 2 = sbeox0Mg/L: Oxygen, SBE 43 [mg/l]
# name 3 = sbeox0PS: Oxygen, SBE 43 [% saturation]
# name 4 = specc: Specific Conductance [uS/cm]
# name 5 = c0uS/cm: Conductivity [uS/cm]
# name 6 = flECO-AFL: Fluorescence, WET Labs ECO-AFL/FL [mg/m^3]
# name 7 = ph: pH
# name 8 = orp: Oxidation Reduction Potential [mV]
# name 9 = par/sat/log: PAR/Logarithmic, Satlantic
# name 10 = turbWETntu0: Turbidity, WET Labs ECO [NTU]
# name 11 = prdM: Pressure, Strain Gauge [db]
# name 12 = prdE: Pressure, Strain Gauge [psi]
# name 13 = tv290C: Temperature [ITS-90, deg C]
# name 14 = flag:  0.000e+00
# span 0 =     -0.664,      9.478       
# span 1 =     -0.387,      0.148       
# span 2 =     0.7001,     9.0320       
# span 3 =      6.646,     90.246       
# span 4 =      0.290,    459.748       
# span 5 =   0.231954, 343.956698       
# span 6 =    -0.1380,     8.1249       
# span 7 =     -2.391,      6.423       
# span 8 = -1240.7455,   479.7409       
# span 9 = 1.2367e-01, 3.2635e+02       
# span 10 =     0.9476,    80.9321      
# span 11 =     -0.651,      9.296      
# span 12 =     -0.944,     13.482      
# span 13 =    12.3991,    15.5220      
# span 14 = 0.0000e+00, 0.0000e+00      
# interval = seconds: 0.25
# start_time = Oct 17 2023 13:34:15 [Instrument's time stamp, header]
# bad_flag = -9.990e-29
# <Sensors count="9" >
#   <sensor Channel="1" >
#     <!-- Count, Temperature -->
#     <TemperatureSensor SensorID="58" >
#       <SerialNumber>7809</SerialNumber>
#       <CalibrationDate>31-Jan-23</CalibrationDate>
#       <A0>1.21823180e-003</A0>
#       <A1>2.81508993e-004</A1>
#       <A2>-1.57888696e-006</A2>
#       <A3>1.97234302e-007</A3>
#       <Slope>1.00000000</Slope>
#       <Offset>0.0000</Offset>
#     </TemperatureSensor>
#   </sensor>
#   <sensor Channel="2" >
#     <!-- Frequency 0, Conductivity -->
#     <ConductivitySensor SensorID="3" >
#       <SerialNumber>7809</SerialNumber>
#       <CalibrationDate>31-Jan-23</CalibrationDate>
#       <UseG_J>1</UseG_J>
#       <!-- Cell const and series R are applicable only for wide range sensors. -->
#       <SeriesR>0.0000</SeriesR>
#       <CellConst>2000.0000</CellConst>
#       <ConductivityType>0</ConductivityType>
#       <Coefficients equation="0" >
#         <A>0.00000000e+000</A>
#         <B>0.00000000e+000</B>
#         <C>0.00000000e+000</C>
#         <D>0.00000000e+000</D>
#         <M>0.0</M>
#         <CPcor>-9.57000000e-008</CPcor>
#       </Coefficients>
#       <Coefficients equation="1" >
#         <G>-1.00565232e+000</G>
#         <H>1.26796307e-001</H>
#         <I>-1.56170788e-004</I>
#         <J>2.64594368e-005</J>
#         <CPcor>-9.57000000e-008</CPcor>
#         <CTcor>3.2500e-006</CTcor>
#         <!-- WBOTC not applicable unless ConductivityType = 1. -->
#         <WBOTC>0.00000000e+000</WBOTC>
#       </Coefficients>
#       <Slope>1.00000000</Slope>
#       <Offset>0.00000</Offset>
#     </ConductivitySensor>
#   </sensor>
#   <sensor Channel="3" >
#     <!-- Count, Pressure, Strain Gauge -->
#     <PressureSensor SensorID="46" >
#       <SerialNumber>7809</SerialNumber>
#       <CalibrationDate>20-Jan-23</CalibrationDate>
#       <PA0>4.41643944e-002</PA0>
#       <PA1>4.85050239e-004</PA1>
#       <PA2>-3.09042623e-012</PA2>
#       <PTEMPA0>-5.47081996e+001</PTEMPA0>
#       <PTEMPA1>5.48542136e+001</PTEMPA1>
#       <PTEMPA2>-3.44657813e-001</PTEMPA2>
#       <PTCA0>5.25475731e+005</PTCA0>
#       <PTCA1>1.05025484e+001</PTCA1>
#       <PTCA2>-2.92243463e-001</PTCA2>
#       <PTCB0>2.51668750e+001</PTCB0>
#       <PTCB1>3.75000000e-004</PTCB1>
#       <PTCB2>0.00000000e+000</PTCB2>
#       <Offset>0.000000</Offset>
#     </PressureSensor>
#   </sensor>
#   <sensor Channel="4" >
#     <!-- A/D voltage 0, Oxygen, SBE 43 -->
#     <OxygenSensor SensorID="38" >
#       <SerialNumber>0434</SerialNumber>
#       <CalibrationDate>18-Feb-23</CalibrationDate>
#       <Use2007Equation>1</Use2007Equation>
#       <CalibrationCoefficients equation="0" >
#         <!-- Coefficients for Owens-Millard equation. -->
#         <Boc>0.0000</Boc>
#         <Soc>0.0000e+000</Soc>
#         <offset>0.0000</offset>
#         <Pcor>0.00e+000</Pcor>
#         <Tcor>0.0000</Tcor>
#         <Tau>0.0</Tau>
#       </CalibrationCoefficients>
#       <CalibrationCoefficients equation="1" >
#         <!-- Coefficients for Sea-Bird equation - SBE calibration in 2007 and later. -->
#         <Soc>5.1878e-001</Soc>
#         <offset>-0.5046</offset>
#         <A>-4.2788e-003</A>
#         <B> 1.5372e-004</B>
#         <C>-2.1853e-006</C>
#         <D0> 2.5826e+000</D0>
#         <D1> 1.92634e-004</D1>
#         <D2>-4.64803e-002</D2>
#         <E> 3.6000e-002</E>
#         <Tau20> 0.9900</Tau20>
#         <H1>-3.3000e-002</H1>
#         <H2> 5.0000e+003</H2>
#         <H3> 1.4500e+003</H3>
#       </CalibrationCoefficients>
#     </OxygenSensor>
#   </sensor>
#   <sensor Channel="5" >
#     <!-- A/D voltage 1, PAR/Logarithmic, Satlantic -->
#     <PARLog_SatlanticSensor SensorID="76" >
#       <SerialNumber>1122</SerialNumber>
#       <CalibrationDate>08-Sep-2021</CalibrationDate>
#       <a0>9.6751e-001</a0>
#       <a1>8.0992e-001</a1>
#       <Im>1.3589e+000</Im>
#       <Multiplier>1.0000e+000</Multiplier>
#     </PARLog_SatlanticSensor>
#   </sensor>
#   <sensor Channel="6" >
#     <!-- A/D voltage 2, pH -->
#     <pH_Sensor SensorID="43" >
#       <SerialNumber>0363</SerialNumber>
#       <CalibrationDate>28-Feb-23</CalibrationDate>
#       <Slope>4.7364</Slope>
#       <Offset>2.5433</Offset>
#     </pH_Sensor>
#   </sensor>
#   <sensor Channel="7" >
#     <!-- A/D voltage 3, Oxidation Reduction Potential -->
#     <OxidationReductionPotentialSensor SensorID="41" >
#       <SerialNumber>0363</SerialNumber>
#       <CalibrationDate>28-Feb-23</CalibrationDate>
#       <B>2.499480</B>
#       <M>-0.496195</M>
#       <Offset>0.0</Offset>
#     </OxidationReductionPotentialSensor>
#   </sensor>
#   <sensor Channel="8" >
#     <!-- A/D voltage 4, Fluorometer, WET Labs ECO-AFL/FL -->
#     <FluoroWetlabECO_AFL_FL_Sensor SensorID="20" >
#       <SerialNumber>FLNTURT-2496</SerialNumber>
#       <CalibrationDate>02-Sep-2021</CalibrationDate>
#       <ScaleFactor>4.80000000e+001</ScaleFactor>
#       <!-- Dark output -->
#       <Vblank>0.0550</Vblank>
#     </FluoroWetlabECO_AFL_FL_Sensor>
#   </sensor>
#   <sensor Channel="9" >
#     <!-- A/D voltage 5, Turbidity Meter, WET Labs, ECO-NTU -->
#     <TurbidityMeter SensorID="67" >
#       <SerialNumber>FLNTURT--2496</SerialNumber>
#       <CalibrationDate>02-Sep-2021</CalibrationDate>
#       <ScaleFactor>197.000000</ScaleFactor>
#       <!-- Dark output -->
#       <DarkVoltage>0.070000</DarkVoltage>
#     </TurbidityMeter>
#   </sensor>
# </Sensors>
# datcnv_date = Oct 18 2023 15:43:51, 7.26.7.129 [datcnv_vars = 14]
# datcnv_in = C:\R\Reservoirs\Data\DataNotYetUploadedToEDI\Raw_CTD\RawDownloads\101723_fcr50_S7809002.hex C:\R\Reservoirs\Data\DataNotYetUploadedToEDI\Raw_CTD\RawDownloads\SBE19plusV2_7809_start20230701.xmlcon
# datcnv_skipover = 0
# datcnv_ox_hysteresis_correction = yes
# datcnv_ox_tau_correction = yes
# filter_date = Oct 18 2023 15:45:06, 7.26.7.129
# filter_in = C:\R\Reservoirs\Data\DataNotYetUploadedToEDI\Raw_CTD\RawDownloads\101723_fcr50_S7809002.cnv
# filter_low_pass_tc_A = 0.030
# filter_low_pass_tc_B = 0.150
# filter_low_pass_A_vars = sbeox0Mg/L prdM prdE tv290C
# filter_low_pass_B_vars = depFM dz/dtM sbeox0PS specc c0uS/cm flECO-AFL ph orp par/sat/log turbWETntu0
# alignctd_date = Oct 18 2023 15:45:41, 7.26.7.129
# alignctd_in = C:\R\Reservoirs\Data\DataNotYetUploadedToEDI\Raw_CTD\RawDownloads\101723_fcr50_S7809002.cnv
# alignctd_adv = dz/dtM 1.000, sbeox0PS 1.000, specc 1.000, c0uS/cm 1.000, flECO-AFL 1.000, ph 1.000, orp 1.000, turbWETntu0 1.000                                                                                                   
# file_type = ascii
*END*
     -0.663 -5.229e-08     8.8088     87.468      0.355   0.284294    -0.0982     -2.391 -1240.7455 2.6019e+02     1.6543     -0.650     -0.943    15.0338 0.0000e+00
     -0.663 -9.587e-08     8.8012     87.439      0.339   0.271612    -0.0991     -2.391 -1240.7455 2.5939e+02     1.6666     -0.651     -0.944    15.0337 0.0000e+00
     -0.663 -5.230e-08     8.8085     87.426      0.323   0.258849    -0.0973     -2.391 -1240.7455 2.5650e+02     1.6617     -0.650     -0.943    15.0335 0.0000e+00
     -0.663 -4.754e-09     8.8211     87.391      0.321   0.256650    -0.1009     -2.391 -1240.7455 2.5306e+02     1.5944     -0.650     -0.942    15.0335 0.0000e+00
     -0.663 -4.321e-10     8.8123     87.350      0.306   0.245029    -0.1019     -2.391 -1240.7455 2.5007e+02     1.4685     -0.650     -0.943    15.0337 0.0000e+00
     -0.663 -3.929e-11     8.8093     87.352      0.306   0.245029    -0.0926     -2.391 -1240.7455 2.4636e+02     1.4378     -0.650     -0.942    15.0336 0.0000e+00
     -0.663 -3.572e-12     8.8114     87.431      0.321   0.256649    -0.0883     -2.391 -1240.7455 2.4343e+02     1.4962     -0.650     -0.943    15.0336 0.0000e+00
     -0.663 -3.247e-13     8.8059     87.546      0.324   0.258843    -0.0832     -2.391 -1240.7455 2.4522e+02     1.8327     -0.650     -0.943    15.0335 0.0000e+00
     -0.663 -2.952e-14     8.8005     87.595      0.340   0.271555    -0.0556     -2.391 -1240.7455 2.5030e+02     2.5011     -0.650     -0.943    15.0334 0.0000e+00
     -0.663 -2.683e-15     8.7985     87.551      0.355   0.283661    -0.0376     -2.391 -1240.7455 2.5322e+02     2.8819     -0.650     -0.943    15.0335 0.0000e+00
     -0.663 -2.439e-16     8.8076     87.497      0.348   0.278531    -0.0494     -2.390 -1240.7455 2.5244e+02     2.8844     -0.651     -0.944    15.0333 0.0000e+00
     -0.663 -2.218e-17     8.8249     87.481      0.341   0.272877    -0.0648     -2.385 -1240.7455 2.5051e+02     2.8045     -0.650     -0.943    15.0331 0.0000e+00
     -0.662 -2.016e-18     8.8308     87.422      0.348   0.278646    -0.0736     -2.326 -1240.7455 2.4923e+02     2.7012     -0.650     -0.942    15.0330 0.0000e+00
     -0.662 -1.833e-19     8.8227     87.330      0.356   0.284943    -0.0809     -1.677 -1240.7455 2.4300e+02     2.6950     -0.650     -0.942    15.0330 0.0000e+00
     -0.662 -1.666e-20     8.8123     87.281      0.357   0.285670    -0.1036     -0.027 -1240.7455 2.3222e+02     2.6951     -0.649     -0.941    15.0328 0.0000e+00
     -0.663 -1.515e-21     8.8186     87.256      0.359   0.287435    -0.1143      1.844 -1240.7455 2.3148e+02     2.6345     -0.650     -0.942    15.0324 0.0000e+00
     -0.663 -1.377e-22     8.8120     87.277      0.383   0.306283    -0.0777      3.141 -1240.7455 2.4258e+02     2.6452     -0.650     -0.943    15.0320 0.0000e+00
     -0.663 -1.252e-23     8.7953     87.330      0.404   0.323548    -0.0360      3.946 -1240.7455 2.5402e+02     2.6534     -0.650     -0.942    15.0315 0.0000e+00
     -0.663 -1.138e-24     8.7968     87.349      0.383   0.306160    -0.0264      4.530 -1240.7455 2.6167e+02     2.5967     -0.650     -0.943    15.0311 0.0000e+00
     -0.663 -1.035e-25     8.7901     87.349      0.358   0.286070    -0.0445      4.877 -1240.7455 2.6482e+02     2.4727     -0.650     -0.942    15.0302 0.0000e+00
     -0.663 -9.405e-27     8.7933     87.375      0.338   0.270651    -0.0713      4.903 -1240.7455 2.6304e+02     2.2817     -0.650     -0.943    15.0275 0.0000e+00
     -0.662 -8.550e-28     8.8046     87.413      0.308   0.246416    -0.0924      4.778 -1240.7455 2.5962e+02     2.1313     -0.650     -0.942    15.0234 0.0000e+00
     -0.662 -7.770e-29     8.8047     87.425      0.308   0.246396    -0.1080      4.676 -1240.7455 2.5842e+02     2.0543     -0.650     -0.942    15.0195 0.0000e+00
     -0.663 -7.043e-30     8.8035     87.417      0.338   0.270412    -0.1105      4.642 -1240.7455 2.5985e+02     2.0344     -0.650     -0.943    15.0165 0.0000e+00
     -0.663 -3.966e-31     8.8069     87.418      0.355   0.283432    -0.0979      4.664 -1240.7455 2.6200e+02     1.8905     -0.650     -0.943    15.0134 0.0000e+00
     -0.663 2.6460e-30     8.8146     87.430      0.347   0.277141    -0.0802      4.698 -1240.7455 2.6356e+02     1.5788     -0.650     -0.943    15.0103 0.0000e+00
     -0.663 2.9743e-29     8.8143     87.430      0.322   0.257686    -0.0713      4.721 -1240.7455 2.6534e+02     1.4081     -0.650     -0.943    15.0073 0.0000e+00
     -0.663 3.2723e-28     8.8147     87.395      0.298   0.238233    -0.0822      4.733 -1240.7455 2.6811e+02     1.4324     -0.650     -0.943    15.0044 0.0000e+00
     -0.663 3.5995e-27     8.8115     87.126      0.290   0.231954    -0.0956      4.737 -1240.7455 2.6921e+02     1.4629     -0.650     -0.943    15.0022 0.0000e+00
     -0.663 3.9595e-26     8.8201     86.809      0.306   0.245101    -0.0996      4.742 -1240.7455 2.6712e+02     1.4014     -0.650     -0.943    15.0011 0.0000e+00
     -0.663 4.3555e-25     8.8113     86.919      0.338   0.270521    -0.1055      4.750 -1240.7455 2.6522e+02     1.3372     -0.651     -0.944    15.0007 0.0000e+00
     -0.663 4.7910e-24     8.8240     87.179      0.358   0.285945    -0.1008      4.755 -1240.7455 2.6590e+02     1.3700     -0.650     -0.943    15.0014 0.0000e+00
     -0.663 5.2701e-23     8.7984     87.298      0.381   0.304903    -0.0847      4.755 -1240.7455 2.6890e+02     1.4212     -0.650     -0.942    15.0030 0.0000e+00
     -0.663 5.7971e-22     8.7180     87.369      0.387   0.309728    -0.0847      4.753 -1240.7455 2.7427e+02     1.4098     -0.650     -0.943    15.0047 0.0000e+00
     -0.663 6.3768e-21     8.7642     87.427      0.351   0.280948    -0.0936      4.749 -1240.7455 2.8047e+02     1.4037     -0.650     -0.943    15.0064 0.0000e+00
     -0.663 7.0145e-20     8.7993     87.485      0.342   0.273621    -0.0913      4.743 -1240.7455 2.8552e+02     1.4504     -0.650     -0.943    15.0086 0.0000e+00
     -0.663 7.7159e-19     8.7980     87.530      0.356   0.284470    -0.0989      4.730 -1240.7455 2.8890e+02     1.4613     -0.651     -0.944    15.0106 0.0000e+00
     -0.664 8.4875e-18     8.8106     87.516      0.357   0.285448    -0.1188      4.698 -1240.7455 2.9140e+02     1.4329     -0.651     -0.944    15.0126 0.0000e+00
     -0.664 9.3363e-17     8.8111     87.407      0.357   0.285438    -0.1151      4.602 -1240.7455 2.9371e+02     1.4489     -0.651     -0.944    15.0145 0.0000e+00
     -0.663 1.0270e-15     8.8205     87.308      0.355   0.284356    -0.0871      4.379 -1240.7455 2.9526e+02     1.4846     -0.650     -0.943    15.0160 0.0000e+00
     -0.663 1.1297e-14     8.8230     87.308      0.340   0.272364    -0.0807      4.032 -1240.7455 2.9668e+02     1.4546     -0.650     -0.943    15.0170 0.0000e+00
     -0.663 1.2427e-13     8.8279     87.333      0.334   0.267120    -0.1042      3.575 -1240.7455 2.9748e+02     1.3933     -0.651     -0.944    15.0179 0.0000e+00
     -0.663 1.3669e-12     8.8096     87.320      0.355   0.284290    -0.1128      2.984 -1240.7455 2.9664e+02     1.3925     -0.651     -0.944    15.0189 0.0000e+00
     -0.663 1.5036e-11     8.7939     87.310      0.362   0.289953    -0.1025      2.329 -1240.7455 2.9627e+02     1.4442     -0.650     -0.943    15.0196 0.0000e+00
     -0.663 1.6540e-10     8.8000     87.320      0.340   0.272252    -0.0959      1.740 -1240.7455 2.9765e+02     1.4377     -0.650     -0.943    15.0201 0.0000e+00
     -0.663 1.8194e-09     8.8053     87.322      0.325   0.260283    -0.0989      1.229 -1240.7455 2.9916e+02     1.3828     -0.650     -0.943    15.0203 0.0000e+00
     -0.663 2.0013e-08     8.8003     87.318      0.340   0.271914    -0.0975      0.723 -1240.7455 2.9891e+02     1.3953     -0.650     -0.943    15.0208 0.0000e+00
     -0.663 2.2014e-07     8.7985     87.317      0.358   0.286204    -0.0786      0.193 -1240.7455 2.9711e+02     1.4187     -0.651     -0.944    15.0214 0.0000e+00
     -0.663      0.000     8.8020     87.314      0.383   0.306380    -0.0711     -0.339 -1240.7455 2.9489e+02     1.3914     -0.650     -0.943    15.0219 0.0000e+00
     -0.663      0.000     8.8011     87.318      0.407   0.325850    -0.0815     -0.868 -1240.7455 2.9369e+02     1.4064     -0.651     -0.944    15.0222 0.0000e+00
     -0.663      0.000     8.8000     87.328      0.571   0.458276    -0.0871     -1.427 -1240.7451 2.9523e+02     1.4634     -0.650     -0.943    15.0229 0.0000e+00
     -0.663      0.003     8.8009     87.338      3.399   2.730942    -0.0976     -1.957 -1240.7414 2.9932e+02     1.4663     -0.650     -0.943    15.0233 0.0000e+00
     -0.663      0.010     8.7991     87.343     11.180   8.988637    -0.1085     -2.281 -1240.7009 3.0435e+02     1.4078     -0.651     -0.944    15.0247 0.0000e+00
     -0.663      0.020     8.8001     87.331     19.082  15.355119    -0.1021     -2.375 -1240.2550 3.0810e+02     1.3698     -0.650     -0.943    15.0243 0.0000e+00
     -0.661      0.030     8.8007     87.313     22.248  17.920484    -0.0876     -2.377 -1235.3499 3.0927e+02     1.3833     -0.651     -0.944    15.0271 0.0000e+00
     -0.652      0.040     8.7930     87.309     25.329  20.422024    -0.0823     -2.322 -1181.3941 3.0861e+02     1.4005     -0.644     -0.934    15.0732 0.0000e+00
     -0.633      0.050     8.7786     87.319     33.335  26.895470    -0.0880     -1.718  -587.8805 3.0758e+02     1.4070     -0.619     -0.899    15.1546 0.0000e+00
     -0.614      0.064     8.7647     87.338     41.703  33.659336    -0.0895     -0.133   302.1899 3.0710e+02     1.4269     -0.600     -0.871    15.2220 0.0000e+00
     -0.600      0.082     8.7505     87.385     45.045  36.364408    -0.0843      1.791   479.7409 3.0769e+02     1.4708     -0.587     -0.852    15.2723 0.0000e+00
     -0.588      0.103     8.7463     87.884     45.375  36.637878    -0.0838      3.268   293.1495 3.0966e+02     1.4593     -0.580     -0.841    15.3103 0.0000e+00
     -0.567      0.124     8.7372     89.034     45.453  36.712033    -0.0828      4.215   270.9335 3.1275e+02     1.5280     -0.564     -0.817    15.3369 0.0000e+00
     -0.529      0.140     8.7441     89.986     45.481  36.753391    -0.0139      4.809   264.7308 3.1640e+02     2.7792     -0.524     -0.760    15.3536 0.0000e+00
     -0.478      0.148     8.7303     90.186     45.461  36.757231     0.7902      5.194   260.9148 3.1947e+02    16.1773     -0.470     -0.683    15.3625 0.0000e+00
     -0.423      0.146     8.7469     89.960     45.444  36.758489     2.2817      5.476   256.9731 3.2143e+02    40.6867     -0.411     -0.598    15.3658 0.0000e+00
     -0.378      0.133     8.9209     89.623     45.445  36.768613     3.1127      5.711   251.4020 3.2167e+02    53.9572     -0.364     -0.529    15.3754 0.0000e+00
     -0.350      0.116     9.0320     89.195     45.416  36.752748     3.2308      5.886   244.3190 3.1930e+02    53.9980     -0.338     -0.491    15.4017 0.0000e+00
     -0.334      0.101     9.0202     88.674     45.335  36.693576     3.6681      6.005   239.1314 3.1784e+02    41.2145     -0.327     -0.474    15.4268 0.0000e+00
     -0.321      0.094     8.9870     88.259     45.244  36.624258     4.4628      6.100   237.2918 3.2062e+02    17.6180     -0.317     -0.459    15.4420 0.0000e+00
     -0.304      0.094     8.9499     88.092     45.226  36.612626     4.9000      6.183   236.4442 3.2449e+02     4.7703     -0.302     -0.437    15.4515 0.0000e+00
     -0.278      0.096     8.9140     88.259     45.231  36.616392     4.9421      6.247   235.7662 3.2635e+02     3.6221     -0.278     -0.403    15.4587 0.0000e+00
     -0.243      0.095     8.8439     88.701     45.224  36.606342     4.9386      6.288   235.3748 3.2615e+02     3.9056     -0.239     -0.347    15.4654 0.0000e+00
     -0.207      0.087     8.8021     89.186     45.245  36.618017     4.9321      6.312   234.8957 3.2417e+02     4.6806     -0.199     -0.288    15.4706 0.0000e+00
     -0.182      0.073     8.7788     89.589     45.266  36.630629     4.9305      6.323   234.1889 3.2174e+02     5.1353     -0.174     -0.253    15.4752 0.0000e+00
     -0.170      0.055     8.7954     89.902     45.271  36.631919     4.9365      6.323   233.6266 3.2039e+02     5.1677     -0.163     -0.238    15.4753 0.0000e+00
     -0.165      0.035     8.8554     90.128     45.276  36.633616     4.9542      6.317   233.3449 3.2030e+02     4.7656     -0.160     -0.232    15.4694 0.0000e+00
     -0.163      0.019     8.9060     90.240     45.299  36.651142     4.9699      6.307   233.1060 3.2093e+02     3.9623     -0.161     -0.233    15.4626 0.0000e+00
     -0.161      0.009     8.9483     90.246     45.380  36.716915     4.9764      6.296   232.8030 3.2150e+02     3.4817     -0.158     -0.229    15.4581 0.0000e+00
     -0.158      0.004     8.9778     90.199     45.474  36.794339     4.9739      6.285   232.3495 3.2160e+02     3.4292     -0.154     -0.224    15.4545 0.0000e+00
     -0.158      0.002     9.0043     90.114     45.511  36.825824     4.9328      6.275   231.7521 3.2143e+02     3.4304     -0.154     -0.223    15.4516 0.0000e+00
     -0.159      0.000     9.0149     90.002     45.531  36.843783     4.8620      6.265   231.3448 3.2129e+02     3.3600     -0.156     -0.226    15.4505 0.0000e+00
     -0.159     -0.002     9.0125     89.897     45.578  36.884568     4.8251      6.256   231.2097 3.2130e+02     3.2614     -0.157     -0.228    15.4510 0.0000e+00
     -0.159     -0.002     9.0075     89.819     45.639  36.938232     4.8284      6.247   231.0648 3.2097e+02     3.2289     -0.156     -0.227    15.4523 0.0000e+00
     -0.160     -0.002     8.9992     89.731     45.692  36.985002     4.8437      6.240   230.8839 3.2007e+02     3.2403     -0.157     -0.229    15.4534 0.0000e+00
     -0.161     -0.001     8.9850     89.482     45.713  37.005884     4.9098      6.233   230.7440 3.1935e+02     3.2618     -0.159     -0.231    15.4556 0.0000e+00
     -0.161      0.001     8.9740     88.818     45.701  37.000358     5.0281      6.227   230.5773 3.1902e+02     3.2847     -0.158     -0.229    15.4594 0.0000e+00
     -0.161      0.001     8.9654     87.539     45.674  36.981647     5.0922      6.222   230.3314 3.1892e+02     3.2784     -0.157     -0.228    15.4640 0.0000e+00
     -0.161      0.000     8.9606     85.601     45.657  36.970016     5.1022      6.216   230.0078 3.1882e+02     3.2879     -0.158     -0.229    15.4687 0.0000e+00
     -0.160     -0.002     8.9457     83.073     45.674  36.986650     5.1079      6.210   229.5042 3.1847e+02     3.3306     -0.157     -0.228    15.4734 0.0000e+00
     -0.159     -0.005     8.8866     80.182     45.679  36.992405     5.0940      6.204   228.8881 3.1794e+02     3.3168     -0.155     -0.224    15.4776 0.0000e+00
     -0.159     -0.009     8.7587     77.300     45.657  36.976138     5.0670      6.199   228.4960 3.1769e+02     3.2569     -0.155     -0.225    15.4809 0.0000e+00
     -0.162     -0.012     8.5626     74.680     45.661  36.980332     5.0399      6.191   228.3764 3.1870e+02     3.2214     -0.157     -0.230    15.4836 0.0000e+00
     -0.168     -0.014     8.3048     72.499     45.661  36.979666     5.0081      6.182   228.2166 3.2077e+02     3.2631     -0.164     -0.238    15.4860 0.0000e+00
     -0.174     -0.014     7.9964     70.923     45.646  36.968078     4.9735      6.173   227.8538 3.2239e+02     3.3518     -0.173     -0.250    15.4881 0.0000e+00
     -0.179     -0.012     7.7031     69.928     45.645  36.967128     4.9542      6.166   227.6046 3.2276e+02     3.3716     -0.176     -0.256    15.4897 0.0000e+00
     -0.181     -0.009     7.4367     69.347     45.646  36.968186     4.9494      6.161   227.6120 3.2216e+02     3.2983     -0.177     -0.256    15.4904 0.0000e+00
     -0.182     -0.004     7.2096     69.028     45.661  36.980872     4.9980      6.154   227.5985 3.2138e+02     3.2162     -0.178     -0.259    15.4902 0.0000e+00
     -0.183      0.000     7.0543     68.765     45.676  36.993605     5.1015      6.146   227.5290 3.2119e+02     3.2332     -0.180     -0.262    15.4901 0.0000e+00
     -0.183      0.004     6.9640     68.387     45.678  36.995227     5.1689      6.138   227.4595 3.2121e+02     3.3324     -0.180     -0.262    15.4906 0.0000e+00
     -0.180      0.005     6.9082     67.890     45.684  37.000482     5.1894      6.129   227.4464 3.2046e+02     3.3915     -0.177     -0.256    15.4909 0.0000e+00
     -0.177      0.005     6.8843     67.281     45.676  36.993688     5.2244      6.120   227.4563 3.1935e+02     3.4013     -0.174     -0.251    15.4915 0.0000e+00
     -0.174      0.003     6.8678     66.573     45.655  36.976539     5.2922      6.113   227.3208 3.1895e+02     3.4498     -0.171     -0.247    15.4923 0.0000e+00
     -0.173     -0.000     6.8249     65.826     45.664  36.983504     5.3423      6.108   227.0992 3.1929e+02     3.5000     -0.169     -0.245    15.4925 0.0000e+00
     -0.173     -0.004     6.7774     65.107     45.702  37.014448     5.3483      6.104   226.8410 3.1944e+02     3.4970     -0.169     -0.245    15.4924 0.0000e+00
     -0.176     -0.005     6.7163     64.462     45.726  37.033398     5.3396      6.103   226.6079 3.1913e+02     3.4805     -0.172     -0.249    15.4922 0.0000e+00
     -0.181     -0.005     6.6428     63.892     45.713  37.022266     5.3451      6.102   226.5189 3.1893e+02     3.4376     -0.177     -0.257    15.4917 0.0000e+00
     -0.185     -0.002     6.5663     63.388     45.695  37.006763     5.3732      6.099   226.5393 3.1858e+02     3.3883     -0.181     -0.263    15.4916 0.0000e+00
     -0.186      0.003     6.4921     63.014     45.655  36.972858     5.4049      6.096   226.5953 3.1795e+02     3.3976     -0.184     -0.266    15.4919 0.0000e+00
     -0.183      0.009     6.4282     62.806     45.602  36.929596     5.4203      6.094   226.5945 3.1756e+02     3.4476     -0.182     -0.264    15.4916 0.0000e+00
     -0.176      0.015     6.3734     62.763     45.600  36.927871     5.4013      6.091   226.5300 3.1665e+02     3.4116     -0.174     -0.252    15.4908 0.0000e+00
     -0.170      0.019     6.3190     62.914     45.629  36.952002     5.3574      6.086   226.3312 3.1510e+02     3.2692     -0.165     -0.239    15.4896 0.0000e+00
     -0.165      0.017     6.2804     63.194     45.648  36.967539     5.3315      6.081   225.9117 3.1461e+02     3.1954     -0.163     -0.236    15.4880 0.0000e+00
     -0.160      0.008     6.2626     63.485     45.674  36.988819     5.3296      6.076   225.5014 3.1597e+02     3.2360     -0.159     -0.231    15.4868 0.0000e+00
     -0.153     -0.002     6.2535     63.722     45.710  37.018934     5.2850      6.072   225.4142 3.1846e+02     3.2823     -0.149     -0.216    15.4873 0.0000e+00
     -0.151     -0.011     6.2722     63.862     45.704  37.014380     5.1834      6.070   225.6326 3.2097e+02     3.2769     -0.143     -0.207    15.4881 0.0000e+00
     -0.161     -0.016     6.3058     63.898     45.683  36.997218     5.1155      6.069   225.8180 3.2312e+02     3.2735     -0.156     -0.226    15.4882 0.0000e+00
     -0.176     -0.017     6.3353     63.818     45.689  37.001796     5.1048      6.066   225.8494 3.2489e+02     3.2747     -0.177     -0.256    15.4887 0.0000e+00
     -0.186     -0.014     6.3619     63.608     45.694  37.006274     5.1374      6.062   225.8403 3.2560e+02     3.2577     -0.186     -0.270    15.4898 0.0000e+00
     -0.187     -0.009     6.3746     63.299     45.671  36.987911     5.2024      6.059   225.7935 3.2495e+02     3.2732     -0.185     -0.269    15.4904 0.0000e+00
     -0.182     -0.002     6.3787     62.969     45.649  36.970132     5.2407      6.058   225.7143 3.2370e+02     3.2571     -0.178     -0.257    15.4901 0.0000e+00
     -0.177      0.003     6.3726     62.671     45.662  36.981668     5.2345      6.057   225.7426 3.2280e+02     3.1988     -0.172     -0.250    15.4891 0.0000e+00
     -0.175      0.004     6.3500     62.419     45.684  37.000485     5.2023      6.057   225.7920 3.2305e+02     3.1839     -0.171     -0.248    15.4890 0.0000e+00
     -0.176      0.002     6.3161     62.245     45.692  37.007290     5.1683      6.057   225.7090 3.2401e+02     3.2137     -0.172     -0.249    15.4896 0.0000e+00
     -0.177      0.000     6.2803     62.156     45.683  37.000481     5.1644      6.057   225.6860 3.2426e+02     3.2855     -0.174     -0.252    15.4904 0.0000e+00
     -0.179      0.000     6.2517     62.091     45.660  36.981611     5.1710      6.058   225.7719 3.2396e+02     3.2995     -0.176     -0.255    15.4913 0.0000e+00
     -0.179      0.001     6.2243     61.983     45.645  36.969502     5.1659      6.059   225.8867 3.2391e+02     3.2128     -0.176     -0.256    15.4922 0.0000e+00
     -0.178      0.004     6.2057     61.804     45.659  36.980989     5.1857      6.060   225.9552 3.2385e+02     3.1938     -0.175     -0.254    15.4931 0.0000e+00
     -0.176      0.006     6.2002     61.559     45.674  36.993584     5.2282      6.062   225.8267 3.2356e+02     3.2744     -0.173     -0.251    15.4935 0.0000e+00
     -0.173      0.008     6.1961     61.256     45.675  36.994884     5.2458      6.064   225.7094 3.2324e+02     3.3344     -0.170     -0.247    15.4935 0.0000e+00
     -0.171      0.008     6.1865     60.945     45.677  36.996709     5.2409      6.064   225.7414 3.2303e+02     3.3042     -0.168     -0.244    15.4931 0.0000e+00
     -0.168      0.008     6.1676     60.670     45.701  37.015649     5.2694      6.063   225.7824 3.2265e+02     3.2503     -0.165     -0.239    15.4932 0.0000e+00
     -0.166      0.007     6.1438     60.467     45.723  37.033528     5.3485      6.064   225.7759 3.2190e+02     3.2975     -0.162     -0.235    15.4935 0.0000e+00
     -0.164      0.006     6.1114     60.417     45.709  37.022516     5.4060      6.065   225.8347 3.2116e+02     3.3629     -0.161     -0.234    15.4940 0.0000e+00
     -0.164      0.005     6.0772     60.469     45.694  37.009406     5.4155      6.065   226.0629 3.2077e+02     3.3239     -0.161     -0.234    15.4943 0.0000e+00
     -0.164      0.004     6.0526     60.542     45.685  37.001921     5.3972      6.065   226.2125 3.2072e+02     3.2354     -0.161     -0.234    15.4945 0.0000e+00
     -0.163      0.001     6.0238     60.669     45.677  36.995476     5.3591      6.065   226.1809 3.2054e+02     3.2157     -0.159     -0.232    15.4946 0.0000e+00
     -0.161     -0.002     6.0232     60.826     45.676  36.994931     5.3464      6.065   226.1113 3.1993e+02     3.2566     -0.157     -0.229    15.4945 0.0000e+00
     -0.160     -0.005     6.0350     60.995     45.677  36.995335     5.3606      6.066   225.9731 3.1913e+02     3.2512     -0.157     -0.228    15.4938 0.0000e+00
     -0.162     -0.009     6.0350     61.166     45.682  37.000354     5.3388      6.068   225.7998 3.1898e+02     3.2188     -0.158     -0.229    15.4932 0.0000e+00
     -0.166     -0.010     6.0528     61.264     45.672  36.992163     5.2733      6.069   225.8235 3.2017e+02     3.2066     -0.162     -0.235    15.4930 0.0000e+00
     -0.171     -0.010     6.0677     61.242     45.633  36.959755     5.2265      6.068   226.0870 3.2182e+02     3.2396     -0.168     -0.244    15.4931 0.0000e+00
     -0.176     -0.008     6.0836     61.145     45.593  36.925782     5.2320      6.067   226.4046 3.2254e+02     3.3105     -0.174     -0.252    15.4935 0.0000e+00
     -0.179     -0.005     6.1050     60.964     45.560  36.898673     5.2896      6.067   226.5662 3.2222e+02     3.3120     -0.178     -0.257    15.4936 0.0000e+00
     -0.178     -0.002     6.1175     60.642     45.544  36.885807     5.3655      6.067   226.4931 3.2148e+02     3.2250     -0.176     -0.255    15.4934 0.0000e+00
     -0.175     -0.000     6.1114     60.211     45.558  36.897119     5.3997      6.067   226.3803 3.2058e+02     3.1804     -0.170     -0.247    15.4932 0.0000e+00
     -0.173     -0.000     6.1017     59.711     45.573  36.908540     5.3952      6.068   226.4067 3.1987e+02     3.2163     -0.168     -0.244    15.4918 0.0000e+00
     -0.174     -0.001     6.0899     59.187     45.560  36.896992     5.3863      6.070   226.5545 3.2005e+02     3.2150     -0.170     -0.247    15.4903 0.0000e+00
     -0.176     -0.003     6.0526     58.711     45.545  36.884407     5.3839      6.073   226.7047 3.2080e+02     3.1986     -0.173     -0.251    15.4905 0.0000e+00
     -0.178     -0.005     6.0098     58.282     45.544  36.883273     5.3834      6.074   226.8466 3.2121e+02     3.2236     -0.175     -0.254    15.4908 0.0000e+00
     -0.180     -0.006     5.9590     57.878     45.544  36.883283     5.3791      6.074   227.0654 3.2091e+02     3.2099     -0.176     -0.256    15.4900 0.0000e+00
     -0.181     -0.007     5.9020     57.511     45.546  36.884531     5.3737      6.075   227.1992 3.2005e+02     3.1693     -0.177     -0.256    15.4894 0.0000e+00
     -0.182     -0.008     5.8560     57.179     45.563  36.898365     5.3271      6.075   227.0871 3.1915e+02     3.1764     -0.178     -0.258    15.4889 0.0000e+00
     -0.183     -0.008     5.8147     56.858     45.595  36.923631     5.2320      6.076   227.0001 3.1855e+02     3.2287     -0.179     -0.260    15.4884 0.0000e+00
     -0.186     -0.007     5.7733     56.555     45.612  36.936207     5.1721      6.077   227.0084 3.1835e+02     3.2550     -0.181     -0.263    15.4879 0.0000e+00
     -0.191     -0.005     5.7362     56.283     45.597  36.923507     5.1685      6.077   227.0162 3.1885e+02     3.2547     -0.187     -0.271    15.4877 0.0000e+00
     -0.194     -0.001     5.7057     56.049     45.565  36.896992     5.2051      6.076   227.2665 3.1981e+02     3.2940     -0.191     -0.278    15.4878 0.0000e+00
     -0.194      0.003     5.6721     55.844     45.530  36.869419     5.2655      6.074   227.5392 3.2012e+02     3.3199     -0.191     -0.277    15.4871 0.0000e+00
     -0.191      0.004     5.6419     55.635     45.499  36.843942     5.2915      6.071   227.5603 3.1899e+02     3.2936     -0.189     -0.273    15.4861 0.0000e+00
     -0.186      0.002     5.6144     55.388     45.499  36.842777     5.2772      6.069   227.4355 3.1668e+02     3.2498     -0.183     -0.266    15.4855 0.0000e+00
     -0.181     -0.001     5.5911     55.100     45.516  36.855324     5.2261      6.069   227.3210 3.1431e+02     3.2338     -0.176     -0.255    15.4850 0.0000e+00
     -0.181     -0.005     5.5726     54.818     45.535  36.868738     5.1566      6.072   227.3808 3.1339e+02     3.2718     -0.175     -0.253    15.4849 0.0000e+00
     -0.187     -0.008     5.5524     54.584     45.548  36.878063     5.1280      6.073   227.4697 3.1461e+02     3.2996     -0.182     -0.264    15.4856 0.0000e+00
     -0.195     -0.008     5.5289     54.411     45.504  36.841154     5.1295      6.073   227.6215 3.1666e+02     3.2960     -0.193     -0.280    15.4848 0.0000e+00
     -0.200     -0.006     5.4978     54.296     45.457  36.803206     5.1744      6.072   227.9251 3.1764e+02     3.2622     -0.198     -0.288    15.4818 0.0000e+00
     -0.200     -0.001     5.4681     54.197     45.453  36.799964     5.2710      6.070   228.1293 3.1666e+02     3.2337     -0.197     -0.286    15.4799 0.0000e+00
     -0.196      0.003     5.4455     54.074     45.457  36.801948     5.3407      6.069   228.1109 3.1416e+02     3.2586     -0.193     -0.280    15.4787 0.0000e+00
     -0.191      0.006     5.4269     53.899     45.490  36.827197     5.3594      6.072   227.9618 3.1194e+02     3.2900     -0.187     -0.272    15.4776 0.0000e+00
     -0.188      0.007     5.4188     53.688     45.521  36.851423     5.3478      6.077   227.8748 3.1137e+02     3.2710     -0.183     -0.266    15.4771 0.0000e+00
     -0.187      0.006     5.4093     53.489     45.510  36.841049     5.3507      6.080   228.0052 3.1227e+02     3.2001     -0.183     -0.265    15.4775 0.0000e+00
     -0.188      0.005     5.3982     53.269     45.496  36.828672     5.3857      6.081   228.2480 3.1363e+02     3.1845     -0.185     -0.268    15.4770 0.0000e+00
     -0.188      0.005     5.3820     53.028     45.497  36.828672     5.4043      6.082   228.4009 3.1412e+02     3.2523     -0.185     -0.269    15.4746 0.0000e+00
     -0.188      0.006     5.3555     52.791     45.513  36.841051     5.4093      6.084   228.3919 3.1345e+02     3.3030     -0.185     -0.268    15.4726 0.0000e+00
     -0.185      0.007     5.3406     52.549     45.527  36.851433     5.4209      6.087   228.3113 3.1211e+02     3.3533     -0.182     -0.264    15.4719 0.0000e+00
     -0.181      0.009     5.3178     52.320     45.498  36.827302     5.4285      6.088   228.2869 3.1071e+02     3.4164     -0.178     -0.258    15.4713 0.0000e+00
     -0.178      0.009     5.2914     52.115     45.469  36.803098     5.4424      6.089   228.4411 3.1032e+02     3.4518     -0.175     -0.253    15.4701 0.0000e+00
     -0.176      0.008     5.2708     51.928     45.481  36.812602     5.4643      6.092   228.7126 3.1112e+02     3.5070     -0.174     -0.252    15.4690 0.0000e+00
     -0.174      0.007     5.2440     51.763     45.486  36.815301     5.4685      6.093   228.8166 3.1174e+02     3.5372     -0.172     -0.250    15.4682 0.0000e+00
     -0.172      0.005     5.2220     51.688     45.512  36.835735     5.4605      6.094   228.7522 3.1101e+02     3.4758     -0.168     -0.243    15.4673 0.0000e+00
     -0.171      0.003     5.2008     51.741     45.631  36.932750     5.4581      6.096   228.7088 3.0958e+02     3.4143     -0.167     -0.242    15.4665 0.0000e+00
     -0.171      0.002     5.1840     51.996     45.751  37.036489     5.4567      6.099   228.8083 3.0932e+02     3.4424     -0.167     -0.243    15.4656 0.0000e+00
     -0.171      0.000     5.1642     52.996     45.784  37.074771     5.3942      6.101   229.0085 3.1060e+02     3.4736     -0.167     -0.243    15.4651 0.0000e+00
     -0.172      0.000     5.1523     55.446     45.774  37.078353     5.2595      6.101   229.1501 3.1156e+02     3.3821     -0.169     -0.245    15.4642 0.0000e+00
     -0.172      0.000     5.1658     59.476     45.766  37.079813     5.1680      6.103   229.1432 3.1055e+02     3.2579     -0.169     -0.246    15.4632 0.0000e+00
     -0.172      0.001     5.1659     64.410     45.775  37.092437     5.1542      6.105   229.0112 3.0767e+02     3.2014     -0.169     -0.245    15.4699 0.0000e+00
     -0.171      0.001     5.2320     69.304     45.785  37.104091     5.1844      6.106   228.9307 3.0506e+02     3.2119     -0.168     -0.244    15.4853 0.0000e+00
     -0.170      0.000     5.4681     73.582     45.770  37.093812     5.2335      6.108   229.0302 3.0452e+02     3.2815     -0.168     -0.243    15.4989 0.0000e+00
     -0.170 -3.881e-07     5.8966     76.925     45.770  37.095060     5.2477      6.110   229.1819 3.0515e+02     3.2922     -0.166     -0.241    15.5075 0.0000e+00
     -0.171      0.000     6.4320     79.164     45.799  37.119184     5.2317      6.112   229.3021 3.0516e+02     3.2044     -0.167     -0.242    15.5131 0.0000e+00
     -0.172      0.000     6.9314     80.230     45.814  37.131666     5.2232      6.114   229.4515 3.0421e+02     3.1769     -0.170     -0.246    15.5165 0.0000e+00
     -0.172     -0.001     7.3710     80.185     45.798  37.119081     5.2107      6.115   229.5254 3.0317e+02     3.2326     -0.169     -0.245    15.5185 0.0000e+00
     -0.172     -0.001     7.7090     79.397     45.767  37.093927     5.1973      6.117   229.5082 3.0226e+02     3.2633     -0.168     -0.244    15.5196 0.0000e+00
     -0.171      0.000     7.9327     78.337     45.752  37.081342     5.1860      6.118   229.5869 3.0131e+02     3.2406     -0.168     -0.244    15.5205 0.0000e+00
     -0.171 -1.847e-08     8.0425     77.317     45.768  37.093824     5.1658      6.119   229.7890 3.0095e+02     3.1973     -0.167     -0.243    15.5207 0.0000e+00
     -0.172 -2.031e-07     8.0204     76.419     45.798  37.117937     5.1861      6.121   229.9720 3.0090e+02     3.2178     -0.168     -0.244    15.5209 0.0000e+00
     -0.172 -2.025e-07     7.9239     75.601     45.799  37.119082     5.2487      6.124   230.0791 3.0052e+02     3.2833     -0.168     -0.244    15.5208 0.0000e+00
     -0.172 -1.038e-08     7.8073     74.926     45.785  37.107658     5.2812      6.126   230.1375 2.9994e+02     3.3059     -0.168     -0.244    15.5206 0.0000e+00
     -0.171 8.7355e-08     7.7027     74.464     45.784  37.106723     5.2797      6.127   230.1623 2.9930e+02     3.2863     -0.168     -0.244    15.5205 0.0000e+00
     -0.171 9.7922e-07     7.6190     74.146     45.786  37.107782     5.2470      6.128   230.2067 2.9892e+02     3.3192     -0.168     -0.244    15.5201 0.0000e+00
     -0.171      0.000     7.5331     73.920     45.801  37.120454     5.1935      6.130   230.3297 2.9861e+02     3.4642     -0.167     -0.243    15.5200 0.0000e+00
     -0.171      0.000     7.4604     73.762     45.816  37.133029     5.1744      6.132   230.4457 2.9816e+02     3.6060     -0.168     -0.243    15.5201 0.0000e+00
     -0.172      0.001     7.4210     73.648     45.816  37.132924     5.1825      6.135   230.4045 2.9805e+02     3.6335     -0.168     -0.244    15.5201 0.0000e+00
     -0.172      0.004     7.3895     73.558     45.799  37.119185     5.2006      6.137   230.3477 2.9813e+02     3.4883     -0.168     -0.244    15.5202 0.0000e+00
     -0.171      0.008     7.3675     73.446     45.768  37.093821     5.2266      6.139   230.4472 2.9801e+02     3.3194     -0.168     -0.244    15.5201 0.0000e+00
     -0.169      0.010     7.3537     73.290     45.750  37.080068     5.2465      6.139   230.4897 2.9816e+02     3.2988     -0.167     -0.242    15.5201 0.0000e+00
     -0.165      0.010     7.3411     73.111     45.750  37.079798     5.2583      6.139   230.4308 2.9907e+02     3.3077     -0.163     -0.236    15.5201 0.0000e+00
     -0.159      0.008     7.3353     72.930     45.764  37.090563     5.2524      6.140   230.2518 2.9980e+02     3.3242     -0.156     -0.226    15.5201 0.0000e+00
     -0.154      0.004     7.3251     72.758     45.756  37.083314     5.2329      6.141   230.1322 2.9938e+02     3.3965     -0.149     -0.217    15.5202 0.0000e+00
     -0.153     -0.001     7.3076     72.574     45.721  37.055615     5.2225      6.143   230.4463 2.9862e+02     3.4654     -0.148     -0.216    15.5200 0.0000e+00
     -0.158     -0.006     7.2900     72.367     45.742  37.072931     5.2270      6.144   230.8672 2.9863e+02     3.5071     -0.154     -0.223    15.5198 0.0000e+00
     -0.163     -0.009     7.2704     72.165     45.778  37.102307     5.2294      6.144   231.0908 2.9924e+02     3.4909     -0.161     -0.233    15.5199 0.0000e+00
     -0.168     -0.010     7.2548     72.005     45.768  37.093526     5.2009      6.144   231.1708 2.9927e+02     3.3720     -0.165     -0.239    15.5198 0.0000e+00
     -0.169     -0.009     7.2375     71.902     45.768  37.093673     5.1490      6.146   231.2320 2.9822e+02     3.2312     -0.165     -0.240    15.5197 0.0000e+00
     -0.170     -0.006     7.2149     71.827     45.781  37.104080     5.1180      6.148   231.4009 2.9677e+02     3.2237     -0.167     -0.242    15.5200 0.0000e+00
     -0.172     -0.003     7.1941     71.785     45.767  37.092449     5.1178      6.149   231.5782 2.9579e+02     3.3153     -0.169     -0.246    15.5201 0.0000e+00
     -0.172     -0.001     7.1760     71.810     45.752  37.079959     5.1462      6.149   231.6556 2.9553e+02     3.3134     -0.169     -0.245    15.5201 0.0000e+00
     -0.171     -0.000     7.1689     71.890     45.752  37.079969     5.1958      6.150   231.7336 2.9531e+02     3.2347     -0.168     -0.244    15.5202 0.0000e+00
     -0.170 -4.098e-07     7.1611     71.981     45.767  37.092564     5.2182      6.153   231.8334 2.9468e+02     3.2184     -0.166     -0.241    15.5201 0.0000e+00
     -0.170     -0.000     7.1540     72.060     45.783  37.105341     5.2081      6.156   231.9155 2.9399e+02     3.2529     -0.167     -0.242    15.5200 0.0000e+00
     -0.171     -0.000     7.1579     72.130     45.785  37.107543     5.2148      6.157   232.1244 2.9366e+02     3.3093     -0.168     -0.244    15.5197 0.0000e+00
     -0.171     -0.001     7.1677     72.210     45.800  37.119195     5.2328      6.158   232.3804 2.9349e+02     3.3201     -0.167     -0.243    15.5196 0.0000e+00
     -0.171     -0.001     7.1778     72.289     45.801  37.119308     5.2267      6.160   232.4289 2.9298e+02     3.2472     -0.168     -0.243    15.5195 0.0000e+00
     -0.171     -0.001     7.1853     72.367     45.788  37.108916     5.2157      6.161   232.3674 2.9228e+02     3.1793     -0.168     -0.243    15.5193 0.0000e+00
     -0.172     -0.001     7.1909     72.448     45.803  37.120454     5.2243      6.162   232.4107 2.9178e+02     3.1818     -0.169     -0.245    15.5193 0.0000e+00
     -0.172     -0.001     7.2002     72.512     45.817  37.131894     5.2395      6.163   232.5218 2.9193e+02     3.2438     -0.170     -0.246    15.5191 0.0000e+00
     -0.172     -0.001     7.2080     72.537     45.803  37.120339     5.2330      6.164   232.5923 2.9260e+02     3.2796     -0.169     -0.245    15.5190 0.0000e+00
     -0.172      0.000     7.2145     72.488     45.787  37.107647     5.2129      6.166   232.5752 2.9282e+02     3.2726     -0.168     -0.244    15.5188 0.0000e+00
     -0.172 -1.866e-08     7.2252     72.373     45.784  37.105350     5.1955      6.169   232.5736 2.9252e+02     3.2629     -0.169     -0.244    15.5186 0.0000e+00
     -0.173 -2.052e-07     7.2307     72.263     45.768  37.092555     5.1723      6.171   232.7451 2.9232e+02     3.2641     -0.170     -0.246    15.5184 0.0000e+00
     -0.173 -2.083e-07     7.2355     72.164     45.752  37.079864     5.1661      6.172   232.9277 2.9239e+02     3.2871     -0.169     -0.246    15.5182 0.0000e+00
     -0.172 -5.586e-08     7.2314     72.050     45.751  37.078814     5.1706      6.173   232.9738 2.9261e+02     3.2674     -0.169     -0.245    15.5182 0.0000e+00
     -0.172 -4.112e-07     7.2146     71.965     45.753  37.079854     5.1596      6.175   233.0448 2.9255e+02     3.1967     -0.168     -0.244    15.5182 0.0000e+00
     -0.172     -0.000     7.2041     71.916     45.768  37.092440     5.1831      6.175   233.0980 2.9237e+02     3.1838     -0.169     -0.245    15.5184 0.0000e+00
     -0.173     -0.000     7.1980     71.896     45.782  37.104081     5.2546      6.176   233.0155 2.9260e+02     3.2493     -0.169     -0.246    15.5183 0.0000e+00
     -0.173     -0.001     7.1813     71.891     45.770  37.093697     5.2998      6.178   233.0787 2.9289e+02     3.3389     -0.169     -0.246    15.5182 0.0000e+00
     -0.173     -0.001     7.1744     71.870     45.770  37.093802     5.3057      6.179   233.3465 2.9292e+02     3.3794     -0.169     -0.245    15.5182 0.0000e+00
     -0.173     -0.001     7.1707     71.878     45.784  37.105339     5.3255      6.179   233.5000 2.9277e+02     3.3284     -0.170     -0.246    15.5182 0.0000e+00
     -0.173     -0.000     7.1659     71.898     45.785  37.106284     5.3735      6.180   233.5581 2.9244e+02     3.3029     -0.169     -0.245    15.5182 0.0000e+00
     -0.174     -0.000     7.1721     71.903     45.783  37.105226     5.4032      6.181   233.6185 2.9219e+02     3.3445     -0.170     -0.246    15.5181 0.0000e+00
     -0.174     -0.000     7.1626     71.969     45.768  37.092553     5.4011      6.182   233.7136 2.9212e+02     3.3534     -0.171     -0.248    15.5182 0.0000e+00
     -0.173     -0.001     7.1663     72.086     45.753  37.079968     5.3821      6.183   233.8479 2.9215e+02     3.3076     -0.170     -0.247    15.5182 0.0000e+00
     -0.173     -0.001     7.1720     72.185     45.753  37.079959     5.3482      6.184   233.8660 2.9198e+02     3.2349     -0.169     -0.246    15.5184 0.0000e+00
     -0.173     -0.000     7.1650     72.282     45.768  37.092450     5.3325      6.184   233.9316 2.9156e+02     3.2263     -0.170     -0.246    15.5183 0.0000e+00
     -0.174 -1.847e-08     7.1736     72.379     45.782  37.104082     5.3491      6.184   234.2113 2.9124e+02     3.3055     -0.171     -0.248    15.5184 0.0000e+00
     -0.174 -2.032e-07     7.1897     72.423     45.770  37.093698     5.3910      6.186   234.4090 2.9104e+02     3.4071     -0.171     -0.248    15.5185 0.0000e+00
     -0.174 -2.032e-07     7.1976     72.448     45.770  37.093803     5.4320      6.189   234.4291 2.9094e+02     3.4982     -0.171     -0.248    15.5184 0.0000e+00
     -0.174 -1.847e-08     7.2052     72.483     45.784  37.105350     5.4448      6.190   234.4543 2.9086e+02     3.5182     -0.170     -0.247    15.5185 0.0000e+00
     -0.174 -1.680e-09     7.2211     72.453     45.785  37.106409     5.4552      6.191   234.4559 2.9083e+02     3.5122     -0.170     -0.247    15.5184 0.0000e+00
     -0.174 -1.527e-10     7.2217     72.314     45.785  37.106599     5.4652      6.193   234.5343 2.9101e+02     3.5283     -0.170     -0.247    15.5183 0.0000e+00
     -0.174 -1.386e-11     7.2214     72.144     45.787  37.107658     5.4661      6.195   234.8857 2.9118e+02     3.5418     -0.170     -0.247    15.5182 0.0000e+00
     -0.174 -1.007e-12     7.2300     72.002     45.802  37.119205     5.4660      6.196   235.2630 2.9113e+02     3.5391     -0.170     -0.247    15.5182 0.0000e+00
     -0.174 2.6864e-12     7.2296     71.890     45.803  37.119310     5.4555      6.197   235.3109 2.9117e+02     3.4960     -0.171     -0.248    15.5182 0.0000e+00
     -0.174 3.0802e-11     7.2111     71.813     45.790  37.108927     5.4725      6.198   235.2067 2.9141e+02     3.4308     -0.170     -0.247    15.5182 0.0000e+00
     -0.173 3.3894e-10     7.1912     71.768     45.805  37.120569     5.5295      6.200   235.2935 2.9161e+02     3.3662     -0.170     -0.246    15.5181 0.0000e+00
     -0.173 3.7283e-09     7.1796     71.803     45.821  37.133163     5.5621      6.201   235.4136 2.9176e+02     3.2954     -0.170     -0.246    15.5176 0.0000e+00
     -0.173 4.1011e-08     7.1657     71.925     45.822  37.134298     5.5591      6.202   235.4551 2.9208e+02     3.2239     -0.170     -0.247    15.5173 0.0000e+00
     -0.173 4.5112e-07     7.1611     72.039     45.821  37.134289     5.5521      6.203   235.5369 2.9259e+02     3.1842     -0.171     -0.248    15.5171 0.0000e+00
     -0.173      0.000     7.1531     72.133     45.819  37.133050     5.5266      6.203   235.6279 2.9300e+02     3.1919     -0.170     -0.247    15.5168 0.0000e+00
     -0.173      0.000     7.1541     72.231     45.803  37.119321     5.4846      6.201   235.6091 2.9310e+02     3.2485     -0.169     -0.246    15.5168 0.0000e+00
     -0.173      0.001     7.1743     72.301     45.773  37.095196     5.4603      6.198   235.3961 2.9309e+02     3.2881     -0.169     -0.245    15.5170 0.0000e+00
     -0.173      0.002     7.1841     72.327     45.773  37.095186     5.4492      6.195   235.2028 2.9330e+02     3.2608     -0.170     -0.246    15.5170 0.0000e+00
     -0.173      0.003     7.1911     72.294     45.802  37.119195     5.4416      6.194   234.4769 2.9375e+02     3.2258     -0.169     -0.246    15.5171 0.0000e+00
     -0.172      0.004     7.2043     72.183     45.817  37.131667     5.4428      6.192   233.6744 2.9450e+02     3.2408     -0.169     -0.246    15.5171 0.0000e+00
     -0.171      0.006     7.2104     72.017     45.801  37.119080     5.4555      6.187   234.2755 2.9504e+02     3.2710     -0.168     -0.243    15.5170 0.0000e+00
     -0.169      0.008     7.2135     71.837     45.770  37.093916     5.4620      6.182   234.7762 2.9239e+02     3.2491     -0.166     -0.240    15.5170 0.0000e+00
     -0.166      0.008     7.2124     71.721     45.754  37.081226     5.4387      6.179   233.6195 2.8554e+02     3.2155     -0.163     -0.237    15.5172 0.0000e+00
     -0.163      0.007     7.1987     71.723     45.767  37.092556     5.3989      6.179   231.9056 2.7821e+02     3.2061     -0.160     -0.233    15.5176 0.0000e+00
     -0.159      0.007     7.1823     71.810     45.781  37.103989     5.3878      6.181   230.9168 2.7348e+02     3.2381     -0.156     -0.227    15.5181 0.0000e+00
     -0.158      0.010     7.1600     71.877     45.767  37.092554     5.4126      6.185   231.6451 2.7193e+02     3.3296     -0.154     -0.224    15.5184 0.0000e+00
     -0.159      0.018     7.1463     71.900     45.753  37.081217     5.4081      6.187   233.7411 2.7106e+02     3.4237     -0.156     -0.227    15.5186 0.0000e+00
     -0.160      0.028     7.1477     71.971     45.768  37.093812     5.3661      6.188   235.0084 2.6610e+02     3.4880     -0.158     -0.229    15.5191 0.0000e+00
     -0.155      0.039     7.1606     72.048     45.798  37.117935     5.3465      6.190   235.0938 2.4704e+02     3.4918     -0.155     -0.226    15.5194 0.0000e+00
     -0.141      0.049     7.1714     72.065     45.798  37.119070     5.3532      6.192   235.1183 2.1151e+02     3.4696     -0.141     -0.206    15.5194 0.0000e+00
     -0.118      0.056     7.1637     72.049     45.783  37.107532     5.3981      6.193   235.1327 1.8048e+02     3.4927     -0.114     -0.165    15.5193 0.0000e+00
     -0.098      0.060     7.1757     71.945     45.780  37.105340     5.4730      6.194   234.5797 1.6850e+02     3.4983     -0.093     -0.134    15.5197 0.0000e+00
     -0.083      0.062     7.1884     71.762     45.765  37.092564     5.5012      6.196   233.4219 1.6431e+02     3.4690     -0.083     -0.121    15.5204 0.0000e+00
     -0.069      0.065     7.1833     71.685     45.750  37.079970     5.4973      6.196   231.1143 1.5964e+02     3.4799     -0.067     -0.096    15.5208 0.0000e+00
     -0.057      0.072     7.1874     71.806     45.750  37.079970     5.5097      6.195   227.7584 1.5663e+02     3.4931     -0.054     -0.078    15.5214 0.0000e+00
     -0.045      0.087     7.1785     72.001     45.765  37.092565     5.5105      6.193   225.7139 1.5049e+02     3.4580     -0.050     -0.073    15.5217 0.0000e+00
     -0.025      0.103     7.1501     72.167     45.781  37.105351     5.4819      6.193   225.2364 1.4296e+02     3.4311     -0.029     -0.041    15.5213 0.0000e+00
      0.006      0.115     7.1369     72.305     45.784  37.107648     5.4543      6.195   225.0828 1.3652e+02     3.4418      0.002      0.003    15.5210 0.0000e+00
      0.047      0.124     7.1581     72.440     45.799  37.120339     5.4593      6.199   225.1458 1.2614e+02     3.4846      0.044      0.063    15.5209 0.0000e+00
      0.091      0.126     7.1807     72.555     45.814  37.131886     5.4772      6.202   225.2238 1.1729e+02     3.4704      0.094      0.138    15.5209 0.0000e+00
      0.126      0.121     7.1962     72.564     45.800  37.120349     5.4789      6.205   225.2526 1.1237e+02     3.3388      0.125      0.182    15.5210 0.0000e+00
      0.151      0.106     7.2093     72.423     45.784  37.107763     5.4710      6.208   225.4932 1.0849e+02     3.2245      0.148      0.215    15.5211 0.0000e+00
      0.174      0.086     7.2217     72.227     45.782  37.106610     5.4646      6.209   225.8105 1.0561e+02     3.2158      0.171      0.248    15.5209 0.0000e+00
      0.196      0.066     7.2381     72.067     45.782  37.106412     5.4936      6.212   226.0770 1.0200e+02     3.2683      0.193      0.280    15.5210 0.0000e+00
      0.213      0.049     7.2420     71.953     45.781  37.105362     5.5556      6.215   226.3935 9.9426e+01     3.2784      0.213      0.309    15.5211 0.0000e+00
      0.223      0.036     7.2223     71.877     45.766  37.093917     5.5895      6.218   226.5395 9.8803e+01     3.2347      0.220      0.320    15.5214 0.0000e+00
      0.225      0.027     7.1988     71.822     45.767  37.094942     5.5875      6.221   226.7238 9.8376e+01     3.2191      0.221      0.320    15.5216 0.0000e+00
      0.225      0.026     7.1839     71.781     45.796  37.117756     5.5819      6.222   227.4173 9.7561e+01     3.2950      0.219      0.318    15.5217 0.0000e+00
      0.226      0.034     7.1722     71.803     45.793  37.115945     5.5884      6.221   228.3860 9.6014e+01     3.4345      0.221      0.320    15.5219 0.0000e+00
      0.231      0.049     7.1654     71.908     45.740  37.073048     5.5909      6.220   229.2297 9.4092e+01     3.4711      0.225      0.327    15.5220 0.0000e+00
      0.242      0.065     7.1613     72.046     45.704  37.043269     5.5872      6.221   229.7025 9.1260e+01     3.4301      0.232      0.337    15.5218 0.0000e+00
      0.267      0.078     7.1545     72.181     45.740  37.073161     5.5847      6.222   229.8874 8.7223e+01     3.4173      0.259      0.376    15.5217 0.0000e+00
      0.299      0.085     7.1542     72.272     45.795  37.117194     5.5780      6.224   230.1740 8.4105e+01     3.4524      0.296      0.429    15.5217 0.0000e+00
      0.328      0.085     7.1697     72.297     45.812  37.131485     5.5808      6.227   230.6731 8.2230e+01     3.5137      0.323      0.468    15.5217 0.0000e+00
      0.352      0.078     7.1824     72.297     45.797  37.119040     5.5851      6.228   231.1900 8.0799e+01     3.4752      0.347      0.504    15.5217 0.0000e+00
      0.369      0.067     7.1983     72.288     45.766  37.093640     5.5725      6.230   231.6047 8.0242e+01     3.3962      0.364      0.529    15.5217 0.0000e+00
      0.379      0.055     7.2092     72.217     45.747  37.078195     5.5523      6.233   231.9881 7.9575e+01     3.3450      0.372      0.539    15.5217 0.0000e+00
      0.389      0.045     7.2086     72.045     45.724  37.059204     5.5410      6.236   232.2979 7.8745e+01     3.2659      0.381      0.552    15.5216 0.0000e+00
      0.400      0.037     7.2075     71.832     45.718  37.054380     5.5440      6.238   232.5105 7.8394e+01     3.2249      0.392      0.570    15.5215 0.0000e+00
      0.411      0.031     7.2094     71.679     45.754  37.083317     5.5558      6.240   232.7521 7.8081e+01     3.2252      0.403      0.586    15.5212 0.0000e+00
      0.419      0.028     7.2052     71.620     45.765  37.091803     5.5994      6.243   233.0686 7.7692e+01     3.2009      0.413      0.597    15.5211 0.0000e+00
      0.423      0.028     7.1845     71.578     45.767  37.093528     5.6797      6.245   233.5835 7.7417e+01     3.2044      0.416      0.603    15.5212 0.0000e+00
      0.426      0.029     7.1593     71.507     45.780  37.104181     5.7272      6.246   234.1598 7.7284e+01     3.2678      0.417      0.605    15.5211 0.0000e+00
      0.431      0.031     7.1417     71.449     45.767  37.093698     5.7334      6.247   234.4443 7.6961e+01     3.3180      0.420      0.610    15.5212 0.0000e+00
      0.441      0.031     7.1406     71.419     45.767  37.093690     5.7134      6.249   234.5279 7.6231e+01     3.2998      0.431      0.626    15.5210 0.0000e+00
      0.456      0.030     7.1393     71.407     45.780  37.104082     5.6595      6.250   234.5681 7.5471e+01     3.2181      0.448      0.650    15.5208 0.0000e+00
      0.468      0.028     7.1281     71.422     45.765  37.092441     5.6319      6.251   234.6722 7.5079e+01     3.1837      0.460      0.667    15.5209 0.0000e+00
      0.474      0.026     7.1225     71.476     45.749  37.079846     5.6380      6.252   235.0985 7.5170e+01     3.2258      0.465      0.676    15.5209 0.0000e+00
      0.475      0.026     7.1208     71.588     45.748  37.078701     5.5999      6.254   235.6783 7.5461e+01     3.2492      0.466      0.674    15.5209 0.0000e+00
      0.475      0.026     7.1179     71.740     45.748  37.078597     5.5119      6.256   236.0038 7.5522e+01     3.2607      0.464      0.672    15.5212 0.0000e+00
      0.481      0.030     7.1203     71.875     45.748  37.078597     5.4569      6.258   236.0229 7.5165e+01     3.2632      0.469      0.681    15.5213 0.0000e+00
      0.492      0.038     7.1239     71.995     45.748  37.078700     5.4673      6.259   235.9957 7.4513e+01     3.2797      0.482      0.699    15.5212 0.0000e+00
      0.504      0.048     7.1352     72.121     45.750  37.079843     5.5793      6.259   236.3627 7.4019e+01     3.3915      0.495      0.718    15.5213 0.0000e+00
      0.516      0.058     7.1548     72.236     45.765  37.092414     5.7618      6.259   237.0194 7.3568e+01     3.5223      0.505      0.733    15.5213 0.0000e+00
      0.530      0.068     7.1662     72.306     45.779  37.103781     5.8508      6.255   237.4823 7.2978e+01     3.5287      0.519      0.752    15.5212 0.0000e+00
      0.548      0.075     7.1775     72.339     45.762  37.090371     5.8491      6.252   237.7441 7.2157e+01     3.4689      0.535      0.776    15.5213 0.0000e+00
      0.570      0.079     7.1906     72.359     45.721  37.057190     5.8487      6.252   237.8619 7.0675e+01     3.4483      0.557      0.808    15.5214 0.0000e+00
      0.596      0.080     7.2040     72.324     45.676  37.019861     5.8295      6.253   237.8743 6.9139e+01     3.4506      0.586      0.850    15.5213 0.0000e+00
      0.621      0.077     7.2113     72.263     45.677  37.019757     5.7843      6.254   238.0657 6.8310e+01     3.4624      0.612      0.888    15.5213 0.0000e+00
      0.639      0.072     7.2107     72.236     45.723  37.055934     5.7513      6.254   238.4547 6.7802e+01     3.4549      0.628      0.911    15.5211 0.0000e+00
      0.654      0.066     7.2179     72.201     45.749  37.076538     5.7389      6.254   238.7918 6.7319e+01     3.4275      0.642      0.931    15.5212 0.0000e+00
      0.669      0.060     7.2128     72.170     45.751  37.078513     5.7671      6.256   239.0445 6.7034e+01     3.4045      0.656      0.953    15.5209 0.0000e+00
      0.683      0.058     7.2010     72.156     45.752  37.079813     5.8256      6.259   239.2731 6.6820e+01     3.3478      0.670      0.972    15.5201 0.0000e+00
      0.696      0.059     7.2047     72.126     45.767  37.092259     5.8552      6.260   239.3187 6.6442e+01     3.2879      0.682      0.989    15.5187 0.0000e+00
      0.710      0.060     7.1990     72.116     45.779  37.102080     5.8593      6.260   239.3383 6.5916e+01     3.2611      0.695      1.007    15.5183 0.0000e+00
      0.726      0.061     7.1935     72.164     45.741  37.071650     5.8828      6.261   239.5956 6.5337e+01     3.2976      0.711      1.031    15.5186 0.0000e+00
      0.743      0.060     7.1972     72.228     45.705  37.041611     5.9405      6.262   239.8483 6.4916e+01     3.4214      0.729      1.058    15.5190 0.0000e+00
      0.760      0.059     7.1904     72.253     45.723  37.056161     5.9825      6.263   239.9849 6.4499e+01     3.4947      0.746      1.081    15.5192 0.0000e+00
      0.776      0.056     7.1875     72.245     45.725  37.057201     5.9732      6.263   240.0426 6.3880e+01     3.4665      0.762      1.105    15.5193 0.0000e+00
      0.791      0.052     7.1947     72.227     45.721  37.054188     5.8952      6.263   239.9441 6.3440e+01     3.4216      0.778      1.128    15.5190 0.0000e+00
      0.801      0.050     7.2041     72.205     45.757  37.083187     5.7800      6.264   239.9126 6.3120e+01     3.3609      0.786      1.140    15.5186 0.0000e+00
      0.811      0.050     7.2054     72.203     45.767  37.090543     5.7293      6.265   240.0917 6.2711e+01     3.3484      0.796      1.154    15.5185 0.0000e+00
      0.821      0.052     7.2033     72.213     45.754  37.079675     5.7396      6.267   240.3022 6.2499e+01     3.4409      0.807      1.170    15.5183 0.0000e+00
      0.833      0.055     7.2027     72.201     45.753  37.078686     5.7463      6.270   240.5657 6.2202e+01     3.4884      0.815      1.183    15.5182 0.0000e+00
      0.849      0.060     7.1980     72.146     45.753  37.078582     5.7357      6.271   240.6962 6.1446e+01     3.4456      0.831      1.205    15.5182 0.0000e+00
      0.869      0.064     7.1989     72.074     45.753  37.078417     5.7279      6.272   240.5888 6.0596e+01     3.4351      0.853      1.237    15.5178 0.0000e+00
      0.887      0.068     7.2012     72.008     45.751  37.076701     5.7352      6.273   240.5586 5.9996e+01     3.4637      0.871      1.263    15.5171 0.0000e+00
      0.903      0.070     7.2015     71.942     45.727  37.057831     5.7407      6.274   240.6743 5.9527e+01     3.4837      0.885      1.284    15.5166 0.0000e+00
      0.920      0.070     7.1945     71.872     45.705  37.040629     5.7523      6.275   240.8699 5.8935e+01     3.4732      0.901      1.307    15.5164 0.0000e+00
      0.939      0.067     7.1858     71.806     45.728  37.059078     5.7763      6.276   241.1167 5.8114e+01     3.4729      0.920      1.334    15.5167 0.0000e+00
      0.959      0.065     7.1805     71.773     45.766  37.090529     5.7815      6.278   241.1633 5.7276e+01     3.4794      0.942      1.366    15.5170 0.0000e+00
      0.976      0.064     7.1731     71.788     45.782  37.103627     5.7815      6.280   241.0031 5.6667e+01     3.4502      0.960      1.391    15.5171 0.0000e+00
      0.990      0.065     7.1673     71.854     45.766  37.090529     5.7425      6.280   240.9864 5.6189e+01     3.4269      0.972      1.409    15.5173 0.0000e+00
      1.002      0.068     7.1580     71.951     45.728  37.059078     5.6351      6.279   241.1334 5.5642e+01     3.4025      0.982      1.424    15.5174 0.0000e+00
      1.016      0.073     7.1552     72.048     45.707  37.040630     5.5650      6.278   241.3176 5.4840e+01     3.3947      0.994      1.441    15.5177 0.0000e+00
      1.036      0.078     7.1560     72.140     45.730  37.057832     5.5603      6.278   241.6651 5.3760e+01     3.4350      1.015      1.472    15.5180 0.0000e+00
      1.061      0.083     7.1627     72.201     45.755  37.076701     5.5957      6.277   242.0652 5.2639e+01     3.5134      1.041      1.510    15.5179 0.0000e+00
      1.086      0.085     7.1757     72.255     45.759  37.078402     5.6601      6.277   242.1978 5.1625e+01     3.5575      1.066      1.546    15.5172 0.0000e+00
      1.109      0.083     7.1828     72.344     45.760  37.078402     5.6901      6.276   242.1493 5.0715e+01     3.4899      1.087      1.577    15.5159 0.0000e+00
      1.131      0.076     7.1960     72.444     45.759  37.076702     5.6835      6.276   242.0822 4.9857e+01     3.4482      1.108      1.607    15.5143 0.0000e+00
      1.152      0.067     7.2006     72.552     45.737  37.057832     5.7291      6.278   242.0745 4.9155e+01     3.5310      1.133      1.642    15.5126 0.0000e+00
      1.169      0.058     7.2024     72.652     45.717  37.040614     5.8252      6.281   242.2281 4.8739e+01     3.6028      1.149      1.666    15.5111 0.0000e+00
      1.179      0.050     7.2157     72.716     45.741  37.058894     5.8719      6.283   242.4765 4.8454e+01     3.5647      1.156      1.677    15.5097 0.0000e+00
      1.188      0.042     7.2241     72.766     45.778  37.088487     5.8614      6.285   242.5823 4.8182e+01     3.5140      1.165      1.691    15.5086 0.0000e+00
      1.197      0.037     7.2352     72.788     45.770  37.081146     5.7985      6.288   242.6472 4.7930e+01     3.4685      1.174      1.703    15.5076 0.0000e+00
      1.207      0.034     7.2488     72.752     45.711  37.033578     5.7016      6.291   242.8315 4.7681e+01     3.3557      1.183      1.716    15.5068 0.0000e+00
      1.216      0.034     7.2519     72.699     45.695  37.020991     5.6562      6.294   243.0033 4.7499e+01     3.2774      1.193      1.729    15.5058 0.0000e+00
      1.223      0.033     7.2581     72.679     45.737  37.055861     5.6490      6.296   243.1748 4.7399e+01     3.2739      1.200      1.739    15.5049 0.0000e+00
      1.231      0.033     7.2632     72.694     45.760  37.074466     5.6385      6.298   243.2716 4.7242e+01     3.2449      1.206      1.749    15.5041 0.0000e+00
      1.240      0.034     7.2567     72.733     45.736  37.055577     5.6804      6.300   243.3133 4.7026e+01     3.2342      1.216      1.764    15.5042 0.0000e+00
      1.249      0.037     7.2490     72.782     45.690  37.017844     5.7725      6.300   243.4207 4.6806e+01     3.2815      1.226      1.777    15.5049 0.0000e+00
      1.257      0.040     7.2476     72.814     45.668  36.998965     5.8111      6.300   243.5374 4.6517e+01     3.2701      1.233      1.787    15.5059 0.0000e+00
      1.266      0.044     7.2494     72.819     45.693  37.017676     5.7972      6.300   243.6919 4.6152e+01     3.2331      1.241      1.800    15.5069 0.0000e+00
      1.278      0.048     7.2531     72.782     45.740  37.053705     5.7790      6.300   243.8264 4.5728e+01     3.2771      1.253      1.816    15.5072 0.0000e+00
      1.292      0.051     7.2597     72.662     45.743  37.053861     5.7491      6.300   243.8735 4.5259e+01     3.3925      1.267      1.838    15.5069 0.0000e+00
      1.307      0.055     7.2631     72.475     45.701  37.019561     5.7446      6.300   243.9166 4.4816e+01     3.5013      1.283      1.861    15.5057 0.0000e+00
      1.322      0.056     7.2637     72.300     45.701  37.019717     5.7655      6.301   244.0040 4.4435e+01     3.4995      1.298      1.881    15.5032 0.0000e+00
      1.336      0.055     7.2631     72.160     45.745  37.055746     5.8522      6.302   244.1554 4.3998e+01     3.4390      1.310      1.899    15.5005 0.0000e+00
      1.351      0.052     7.2519     72.023     45.768  37.074447     6.0274      6.303   244.2854 4.3468e+01     3.4192      1.325      1.922    15.4984 0.0000e+00
      1.366      0.050     7.2277     71.863     45.744  37.055464     6.1360      6.304   244.2844 4.3003e+01     3.4309      1.341      1.944    15.4975 0.0000e+00
      1.378      0.048     7.2109     71.695     45.696  37.016586     6.1583      6.306   244.2290 4.2630e+01     3.4430      1.352      1.961    15.4978 0.0000e+00
      1.388      0.047     7.1981     71.593     45.659  36.985121     6.2302      6.308   244.2183 4.2273e+01     3.3953      1.361      1.973    15.4984 0.0000e+00
      1.398      0.047     7.1848     71.590     45.669  36.992294     6.3476      6.309   244.2410 4.1907e+01     3.2979      1.370      1.988    15.4991 0.0000e+00
      1.409      0.048     7.1699     71.660     45.729  37.039845     6.4043      6.312   244.4167 4.1501e+01     3.2567      1.382      2.005    15.4995 0.0000e+00
      1.422      0.050     7.1484     71.799     45.745  37.052415     6.4002      6.314   244.7082 4.0997e+01     3.3068      1.393      2.021    15.4995 0.0000e+00
      1.436      0.051     7.1371     71.988     45.703  37.017379     6.2729      6.315   244.7543 4.0447e+01     3.4258      1.407      2.041    15.4988 0.0000e+00
      1.451      0.051     7.1397     72.181     45.678  36.996954     6.0219      6.316   244.6298 3.9924e+01     3.4999      1.423      2.063    15.4973 0.0000e+00
      1.465      0.050     7.1458     72.333     45.678  36.995821     5.8790      6.317   244.6655 3.9423e+01     3.4511      1.437      2.083    15.4958 0.0000e+00
      1.479      0.049     7.1605     72.397     45.689  37.003677     5.8605      6.318   245.0145 3.9023e+01     3.4163      1.451      2.104    15.4947 0.0000e+00
      1.489      0.048     7.1819     72.359     45.720  37.028481     5.8307      6.318   245.4932 3.8708e+01     3.4203      1.461      2.119    15.4942 0.0000e+00
      1.499      0.047     7.2016     72.277     45.737  37.041904     5.7854      6.318   245.7216 3.8315e+01     3.3635      1.468      2.130    15.4936 0.0000e+00
      1.509      0.047     7.2201     72.210     45.733  37.039063     5.7614      6.318   245.7973 3.7813e+01     3.2760      1.479      2.145    15.4925 0.0000e+00
      1.523      0.047     7.2267     72.109     45.755  37.057580     5.7574      6.319   245.8066 3.7318e+01     3.2157      1.494      2.167    15.4916 0.0000e+00
      1.537      0.048     7.2215     71.981     45.776  37.075433     5.7703      6.321   245.7481 3.6928e+01     3.2502      1.509      2.189    15.4910 0.0000e+00
      1.549      0.048     7.2079     71.937     45.762  37.064559     5.8923      6.323   245.7777 3.6611e+01     3.3848      1.519      2.203    15.4906 0.0000e+00
      1.560      0.047     7.2064     71.986     45.747  37.053007     6.1008      6.324   245.9060 3.6267e+01     3.4773      1.528      2.217    15.4908 0.0000e+00
      1.573      0.046     7.1971     72.044     45.759  37.062676     6.2018      6.325   246.0958 3.5874e+01     3.4802      1.542      2.236    15.4917 0.0000e+00
      1.584      0.046     7.1758     72.059     45.749  37.054548     6.2070      6.326   246.2649 3.5529e+01     3.4538      1.554      2.254    15.4927 0.0000e+00
      1.594      0.047     7.1732     72.064     45.704  37.018192     6.3298      6.329   246.4019 3.5245e+01     3.4654      1.563      2.268    15.4938 0.0000e+00
      1.606      0.048     7.1807     72.082     45.687  37.003823     6.5718      6.331   246.3762 3.4916e+01     3.5523      1.574      2.283    15.4946 0.0000e+00
      1.619      0.049     7.1904     72.118     45.692  37.007728     6.7106      6.332   246.2119 3.4516e+01     3.6160      1.587      2.302    15.4947 0.0000e+00
      1.632      0.049     7.1880     72.171     45.685  37.001945     6.7179      6.333   246.2228 3.4121e+01     3.5874      1.600      2.321    15.4944 0.0000e+00
      1.645      0.049     7.1890     72.234     45.679  36.997359     6.6017      6.333   246.4219 3.3761e+01     3.5138      1.612      2.340    15.4939 0.0000e+00
      1.658      0.047     7.1902     72.319     45.701  37.015730     6.3965      6.334   246.7261 3.3398e+01     3.4768      1.626      2.359    15.4937 0.0000e+00
      1.672      0.045     7.1937     72.417     45.723  37.033712     6.2925      6.334   246.9755 3.3079e+01     3.5166      1.641      2.380    15.4936 0.0000e+00
      1.683      0.045     7.2003     72.527     45.713  37.024411     6.2843      6.333   246.7696 3.2870e+01     3.5514      1.652      2.396    15.4935 0.0000e+00
      1.691      0.046     7.2046     72.637     45.720  37.030181     6.3473      6.331   246.3021 3.2678e+01     3.5211      1.658      2.404    15.4936 0.0000e+00
      1.700      0.048     7.2147     72.715     45.732  37.040016     6.4878      6.329   246.3130 3.2372e+01     3.4922      1.665      2.415    15.4938 0.0000e+00
      1.714      0.050     7.2236     72.728     45.703  37.016418     6.5846      6.329   246.6431 3.1978e+01     3.5097      1.680      2.436    15.4935 0.0000e+00
      1.730      0.052     7.2354     72.678     45.681  36.998685     6.6026      6.331   246.8525 3.1611e+01     3.5277      1.697      2.461    15.4931 0.0000e+00
      1.745      0.054     7.2474     72.573     45.702  37.015966     6.4816      6.332   246.7799 3.1311e+01     3.5040      1.712      2.483    15.4931 0.0000e+00
      1.759      0.057     7.2571     72.425     45.726  37.034998     6.2371      6.332   246.4536 3.1041e+01     3.4626      1.725      2.501    15.4932 0.0000e+00
      1.772      0.059     7.2578     72.282     45.730  37.038431     6.0926      6.329   246.3484 3.0788e+01     3.4366      1.738      2.521    15.4935 0.0000e+00
      1.784      0.061     7.2516     72.122     45.754  37.057467     6.0826      6.327   246.4550 3.0526e+01     3.4634      1.749      2.537    15.4936 0.0000e+00
      1.799      0.063     7.2432     71.901     45.776  37.074801     6.0999      6.328   246.5379 3.0169e+01     3.5137      1.762      2.555    15.4932 0.0000e+00
      1.819      0.065     7.2236     71.688     45.756  37.057654     6.1185      6.328   246.5757 2.9764e+01     3.4977      1.784      2.588    15.4928 0.0000e+00
      1.839      0.065     7.2108     71.545     45.737  37.040505     6.1325      6.329   246.6541 2.9438e+01     3.4406      1.806      2.620    15.4927 0.0000e+00
      1.856      0.065     7.2000     71.472     45.762  37.057811     6.1360      6.329   246.7966 2.9177e+01     3.4386      1.821      2.640    15.4929 0.0000e+00
      1.871      0.064     7.1715     71.455     45.787  37.076536     6.1445      6.330   246.8365 2.8969e+01     3.5076      1.836      2.663    15.4927 0.0000e+00
      1.884      0.064     7.1492     71.489     45.788  37.076536     6.1931      6.332   246.7921 2.8793e+01     3.5240      1.848      2.681    15.4916 0.0000e+00
      1.898      0.064     7.1357     71.588     45.766  37.057811     6.2664      6.333   246.7766 2.8528e+01     3.4653      1.860      2.698    15.4895 0.0000e+00
      1.916      0.065     7.1292     71.738     45.746  37.040504     6.3059      6.333   247.0787 2.8191e+01     3.4474      1.878      2.724    15.4865 0.0000e+00
      1.935      0.067     7.1287     71.878     45.768  37.057640     6.3130      6.334   247.6063 2.7871e+01     3.4436      1.898      2.752    15.4843 0.0000e+00
      1.954      0.068     7.1309     71.972     45.791  37.074632     6.3193      6.335   247.8212 2.7591e+01     3.4536      1.917      2.781    15.4831 0.0000e+00
      1.970      0.067     7.1411     72.005     45.770  37.055586     6.3326      6.335   247.7843 2.7331e+01     3.5001      1.932      2.803    15.4822 0.0000e+00
      1.987      0.066     7.1590     71.956     45.725  37.017721     6.3324      6.336   247.6760 2.7036e+01     3.4937      1.947      2.823    15.4816 0.0000e+00
      2.005      0.063     7.1751     71.849     45.703  36.997531     6.3082      6.337   247.4576 2.6758e+01     3.4782      1.967      2.853    15.4806 0.0000e+00
      2.021      0.061     7.1832     71.728     45.711  37.001834     6.2819      6.338   247.6398 2.6537e+01     3.4845      1.983      2.876    15.4791 0.0000e+00
      2.035      0.059     7.1898     71.638     45.720  37.006288     6.2643      6.338   248.2437 2.6302e+01     3.4320      1.996      2.893    15.4771 0.0000e+00
      2.050      0.057     7.1833     71.628     45.701  36.987919     6.2610      6.339   248.5649 2.6080e+01     3.3216      2.011      2.916    15.4745 0.0000e+00
      2.064      0.054     7.1712     71.682     45.683  36.970102     6.2587      6.339   248.5983 2.5875e+01     3.2092      2.024      2.936    15.4727 0.0000e+00
      2.077      0.051     7.1590     71.771     45.700  36.981223     6.2121      6.339   248.5608 2.5628e+01     3.1997      2.036      2.953    15.4707 0.0000e+00
      2.091      0.048     7.1465     71.897     45.720  36.995473     6.1300      6.340   248.6279 2.5393e+01     3.2759      2.051      2.975    15.4677 0.0000e+00
      2.104      0.044     7.1479     72.025     45.747  37.015492     6.0899      6.341   248.8930 2.5233e+01     3.3104      2.064      2.993    15.4644 0.0000e+00
      2.114      0.041     7.1561     72.125     45.771  37.032902     6.1023      6.343   249.0993 2.5126e+01     3.2749      2.074      3.007    15.4605 0.0000e+00
      2.123      0.039     7.1631     72.169     45.751  37.015611     6.1132      6.344   249.1428 2.5025e+01     3.2226      2.083      3.022    15.4573 0.0000e+00
      2.132      0.038     7.1787     72.096     45.729  36.996784     6.1721      6.345   249.1613 2.4919e+01     3.2249      2.091      3.033    15.4551 0.0000e+00
      2.140      0.039     7.1931     71.932     45.728  36.995629     6.3058      6.347   249.2371 2.4827e+01     3.2681      2.098      3.043    15.4525 0.0000e+00
      2.149      0.042     7.2024     71.752     45.737  37.001652     6.3901      6.348   249.1983 2.4708e+01     3.3015      2.107      3.054    15.4501 0.0000e+00
      2.159      0.046     7.2125     71.595     45.746  37.006151     6.4085      6.349   249.1232 2.4499e+01     3.3206      2.115      3.069    15.4492 0.0000e+00
      2.172      0.051     7.2029     71.473     45.725  36.986562     6.4623      6.350   249.2748 2.4235e+01     3.3627      2.130      3.090    15.4490 0.0000e+00
      2.187      0.056     7.1824     71.371     45.688  36.955157     6.5496      6.351   249.4823 2.3971e+01     3.4351      2.145      3.112    15.4483 0.0000e+00
      2.202      0.059     7.1651     71.302     45.677  36.943716     6.6066      6.352   249.5668 2.3702e+01     3.5122      2.159      3.131    15.4467 0.0000e+00
      2.217      0.059     7.1481     71.290     45.720  36.975129     6.6191      6.353   249.3512 2.3419e+01     3.5777      2.174      3.153    15.4435 0.0000e+00
      2.234      0.057     7.1382     71.285     45.777  37.017698     6.5588      6.354   248.9403 2.3095e+01     3.5786      2.190      3.177    15.4408 0.0000e+00
      2.251      0.053     7.1281     71.230     45.777  37.014227     6.4433      6.356   248.8148 2.2802e+01     3.5226      2.208      3.205    15.4393 0.0000e+00
      2.266      0.048     7.1182     71.142     45.759  36.996606     6.3883      6.358   248.9518 2.2643e+01     3.4813      2.225      3.227    15.4368 0.0000e+00
      2.275      0.044     7.1214     71.066     45.761  36.995004     6.3925      6.360   249.2206 2.2550e+01     3.4898      2.232      3.237    15.4338 0.0000e+00
      2.282      0.041     7.1236     71.003     45.764  36.994859     6.3698      6.362   249.4827 2.2421e+01     3.4881      2.237      3.245    15.4294 0.0000e+00
      2.291      0.039     7.1182     70.942     45.768  36.994836     6.3214      6.363   249.2819 2.2262e+01     3.4267      2.246      3.257    15.4244 0.0000e+00
      2.301      0.038     7.1071     70.892     45.771  36.994722     6.2988      6.365   248.8579 2.2074e+01     3.3966      2.256      3.272    15.4214 0.0000e+00
      2.312      0.039     7.1004     70.838     45.771  36.993478     6.3210      6.365   248.8306 2.1862e+01     3.4658      2.268      3.289    15.4188 0.0000e+00
      2.323      0.040     7.0960     70.780     45.755  36.979799     6.3736      6.366   249.1239 2.1665e+01     3.5115      2.279      3.306    15.4152 0.0000e+00
      2.333      0.041     7.0885     70.733     45.727  36.956238     6.4183      6.367   249.4784 2.1480e+01     3.4027      2.288      3.319    15.4108 0.0000e+00
      2.341      0.042     7.0861     70.720     45.737  36.962427     6.4292      6.369   249.5898 2.1297e+01     3.2772      2.295      3.330    15.4081 0.0000e+00
      2.351      0.044     7.0796     70.700     45.774  36.991174     6.4308      6.370   249.4379 2.1093e+01     3.2243      2.305      3.344    15.4076 0.0000e+00
      2.362      0.046     7.0744     70.607     45.769  36.986541     6.4373      6.370   249.3627 2.0819e+01     3.1734      2.316      3.359    15.4073 0.0000e+00
      2.376      0.046     7.0680     70.511     45.749  36.969855     6.4833      6.371   249.3696 2.0509e+01     3.2427      2.329      3.378    15.4061 0.0000e+00
      2.391      0.045     7.0676     70.479     45.764  36.979788     6.5624      6.371   249.4338 2.0235e+01     3.4126      2.345      3.401    15.4043 0.0000e+00
      2.404      0.044     7.0724     70.476     45.768  36.979737     6.5943      6.372   249.5373 2.0021e+01     3.4515      2.358      3.421    15.4025 0.0000e+00
      2.413      0.044     7.0572     70.460     45.758  36.969227     6.6027      6.374   249.6738 1.9863e+01     3.4064      2.368      3.434    15.4021 0.0000e+00
      2.420      0.045     7.0444     70.420     45.773  36.979620     6.7295      6.374   249.8806 1.9669e+01     3.4132      2.372      3.441    15.4015 0.0000e+00
      2.429      0.048     7.0451     70.415     45.774  36.978485     6.9540      6.374   250.0590 1.9404e+01     3.4315      2.381      3.453    15.3991 0.0000e+00
      2.442      0.052     7.0457     70.487     45.748  36.955497     7.0623      6.375   250.1965 1.9134e+01     3.4225      2.394      3.472    15.3958 0.0000e+00
      2.458      0.056     7.0463     70.567     45.748  36.955487     7.0493      6.375   250.2522 1.8857e+01     3.4066      2.409      3.494    15.3929 0.0000e+00
      2.476      0.057     7.0396     70.581     45.778  36.978362     6.9625      6.375   250.3022 1.8576e+01     3.4097      2.428      3.522    15.3903 0.0000e+00
      2.493      0.057     7.0364     70.556     45.780  36.978258     6.8116      6.376   250.4564 1.8333e+01     3.4603      2.447      3.548    15.3880 0.0000e+00
      2.507      0.057     7.0474     70.532     45.755  36.954229     6.7320      6.377   250.5683 1.8125e+01     3.5057      2.460      3.567    15.3870 0.0000e+00
      2.518      0.058     7.0600     70.462     45.747  36.941643     6.7318      6.377   250.7080 1.7940e+01     3.4808      2.470      3.581    15.3866 0.0000e+00
      2.529      0.060     7.0591     70.325     45.770  36.952982     6.8512      6.376   250.9414 1.7718e+01     3.5013      2.480      3.596    15.3853 0.0000e+00
      2.544      0.065     7.0534     70.159     45.793  36.964407     7.0932      6.375   251.0673 1.7408e+01     3.6504      2.494      3.617    15.3834 0.0000e+00
      2.563      0.070     7.0563     70.004     45.785  36.952870     7.2359      6.373   251.1114 1.7066e+01     3.7804      2.512      3.643    15.3797 0.0000e+00
      2.584      0.074     7.0507     69.898     45.775  36.940388     7.2616      6.371   251.2170 1.6729e+01     3.8093      2.533      3.674    15.3728 0.0000e+00
      2.607      0.076     7.0357     69.819     45.778  36.940398     7.3960      6.370   251.3975 1.6398e+01     3.7612      2.556      3.707    15.3643 0.0000e+00
      2.628      0.076     7.0201     69.730     45.797  36.952985     7.6446      6.368   251.5725 1.6106e+01     3.6770      2.578      3.738    15.3562 0.0000e+00
      2.645      0.076     7.0024     69.668     45.815  36.965656     7.7876      6.367   251.7845 1.5863e+01     3.6789      2.595      3.764    15.3500 0.0000e+00
      2.661      0.074     6.9942     69.671     45.819  36.966704     7.8184      6.366   251.9817 1.5606e+01     3.7507      2.609      3.784    15.3457 0.0000e+00
      2.680      0.070     6.9893     69.692     45.820  36.965656     7.8259      6.366   251.9781 1.5293e+01     3.7593      2.627      3.810    15.3427 0.0000e+00
      2.701      0.064     6.9785     69.698     45.806  36.952976     7.8703      6.366   251.9132 1.4993e+01     3.7148      2.650      3.844    15.3406 0.0000e+00
      2.720      0.057     6.9697     69.733     45.791  36.940296     7.9804      6.369   251.8858 1.4764e+01     3.7247      2.670      3.872    15.3388 0.0000e+00
      2.735      0.052     6.9732     69.789     45.790  36.939246     8.0582      6.371   251.9044 1.4613e+01     3.7761      2.685      3.893    15.3368 0.0000e+00
      2.745      0.047     6.9786     69.788     45.792  36.940285     8.0783      6.372   252.0520 1.4527e+01     3.7902      2.693      3.907    15.3348 0.0000e+00
      2.751      0.047     6.9750     69.721     45.808  36.952862     8.0569      6.374   252.2076 1.4427e+01     3.7583      2.696      3.911    15.3330 0.0000e+00
      2.758      0.050     6.9789     69.649     45.823  36.964400     8.0082      6.375   252.2374 1.4277e+01     3.6979      2.702      3.920    15.3318 0.0000e+00
      2.770      0.057     6.9898     69.598     45.811  36.952878     7.9805      6.376   252.2399 1.4072e+01     3.6752      2.714      3.937    15.3315 0.0000e+00
      2.788      0.064     6.9895     69.531     45.796  36.940457     7.9717      6.378   252.3244 1.3803e+01     3.7229      2.732      3.963    15.3316 0.0000e+00
      2.809      0.069     6.9794     69.444     45.798  36.941124     7.8772      6.378   252.4846 1.3512e+01     3.6933      2.755      3.995    15.3312 0.0000e+00
      2.831      0.071     6.9711     69.362     45.823  36.960949     7.6945      6.379   252.6284 1.3255e+01     3.5563      2.778      4.029    15.3300 0.0000e+00
      2.851      0.069     6.9690     69.277     45.860  36.989791     7.5931      6.380   252.6862 1.3039e+01     3.4672      2.797      4.057    15.3288 0.0000e+00
      2.868      0.064     6.9626     69.188     45.840  36.972581     7.5843      6.381   252.7529 1.2850e+01     3.4354      2.814      4.081    15.3280 0.0000e+00
      2.882      0.060     6.9513     69.099     45.805  36.943224     7.6126      6.382   252.8321 1.2719e+01     3.5130      2.828      4.102    15.3273 0.0000e+00
      2.893      0.058     6.9455     69.038     45.820  36.952099     7.6697      6.381   252.8706 1.2611e+01     3.6893      2.836      4.114    15.3265 0.0000e+00
      2.906      0.056     6.9358     69.029     45.826  36.952983     7.6841      6.381   252.9593 1.2448e+01     3.7564      2.847      4.130    15.3256 0.0000e+00
      2.922      0.056     6.9276     69.053     45.833  36.953906     7.6779      6.383   253.2160 1.2248e+01     3.7098      2.864      4.154    15.3245 0.0000e+00
      2.939      0.056     6.9180     69.081     45.850  36.963250     7.7940      6.385   253.4802 1.2071e+01     3.7067      2.883      4.182    15.3229 0.0000e+00
      2.954      0.055     6.9100     69.105     45.825  36.939040     8.0060      6.386   253.4868 1.1918e+01     3.7532      2.898      4.204    15.3197 0.0000e+00
      2.968      0.051     6.9123     69.152     45.800  36.915003     8.1194      6.388   253.3812 1.1781e+01     3.7252      2.910      4.220    15.3147 0.0000e+00
      2.981      0.046     6.9156     69.219     45.819  36.926436     8.1249      6.388   253.3220 1.1651e+01     3.6749      2.923      4.240    15.3098 0.0000e+00
      2.993      0.043     6.9206     69.279     45.852  36.950360     8.1142      6.389   253.4586 1.1545e+01     3.6914      2.936      4.259    15.3052 0.0000e+00
      3.002      0.044     6.9210     69.306     45.855  36.950446     8.0063      6.390   253.8282 1.1492e+01     3.7200      2.945      4.272    15.3009 0.0000e+00
      3.007      0.047     6.9270     69.271     45.829  36.927476     7.8106      6.391   254.0913 1.1438e+01     3.7471      2.948      4.276    15.2965 0.0000e+00
      3.016      0.051     6.9358     69.167     45.830  36.926436     7.7123      6.392   254.1453 1.1306e+01     3.7457      2.954      4.285    15.2921 0.0000e+00
      3.032      0.053     6.9423     68.992     45.845  36.937879     7.6838      6.393   254.0507 1.1098e+01     3.7030      2.971      4.309    15.2888 0.0000e+00
      3.053      0.055     6.9481     68.755     45.846  36.938919     7.4399      6.395   253.8946 1.0893e+01     3.6754      2.994      4.344    15.2865 0.0000e+00
      3.072      0.056     6.9436     68.479     45.846  36.939013     7.0026      6.396   253.9781 1.0772e+01     3.6512      3.015      4.374    15.2846 0.0000e+00
      3.084      0.056     6.9343     68.191     45.846  36.939022     6.7578      6.396   254.2866 1.0724e+01     3.6150      3.026      4.389    15.2832 0.0000e+00
      3.093      0.051     6.9163     67.953     45.846  36.939023     6.7190      6.396   254.3542 1.0639e+01     3.5450      3.031      4.397    15.2826 0.0000e+00
      3.104      0.046     6.8911     67.800     45.847  36.939023     6.6004      6.396   254.1928 1.0479e+01     3.4548      3.042      4.413    15.2820 0.0000e+00
      3.119      0.043     6.8641     67.734     45.848  36.939024     6.3886      6.398   254.1423 1.0335e+01     3.4798      3.060      4.438    15.2824 0.0000e+00
      3.132      0.045     6.8312     67.761     45.849  36.939024     6.2723      6.399   254.0878 1.0270e+01     3.5744      3.074      4.459    15.2835 0.0000e+00
      3.139      0.049     6.8061     67.846     45.850  36.939025     6.2681      6.399   254.0506 1.0232e+01     3.5745      3.079      4.465    15.2831 0.0000e+00
      3.146      0.054     6.7923     67.930     45.851  36.939035     6.3706      6.400   254.1229 1.0138e+01     3.5154      3.082      4.470    15.2817 0.0000e+00
      3.160      0.058     6.7841     67.982     45.852  36.939149     6.5462      6.401   254.1870 9.9670e+00     3.4739      3.096      4.491    15.2805 0.0000e+00
      3.180      0.060     6.7888     68.012     45.854  36.940398     6.6362      6.402   254.3100 9.7857e+00     3.4828      3.119      4.523    15.2796 0.0000e+00
      3.200      0.061     6.8002     68.038     45.873  36.954138     6.6593      6.403   254.4913 9.6192e+00     3.5204      3.139      4.553    15.2790 0.0000e+00
      3.220      0.059     6.8093     68.041     45.904  36.978366     6.6919      6.404   254.4861 9.4675e+00     3.5180      3.159      4.582    15.2778 0.0000e+00
      3.235      0.055     6.8150     68.009     45.905  36.979511     6.7230      6.405   254.2471 9.3775e+00     3.4883      3.175      4.606    15.2768 0.0000e+00
      3.244      0.050     6.8159     67.970     45.890  36.967983     6.7272      6.405   254.1830 9.3165e+00     3.4356      3.182      4.616    15.2762 0.0000e+00
      3.252      0.045     6.8203     67.911     45.887  36.965893     6.7256      6.406   254.3994 9.2268e+00     3.4270      3.187      4.622    15.2753 0.0000e+00
      3.262      0.044     6.8220     67.851     45.873  36.954243     6.7376      6.407   254.6257 9.1231e+00     3.4865      3.198      4.638    15.2748 0.0000e+00
      3.275      0.045     6.8155     67.841     45.873  36.954024     6.8055      6.408   254.5971 9.0275e+00     3.5067      3.213      4.660    15.2750 0.0000e+00
      3.287      0.048     6.8139     67.846     45.885  36.963253     6.9394      6.409   254.3116 8.9259e+00     3.4994      3.223      4.675    15.2754 0.0000e+00
      3.300      0.050     6.8079     67.846     45.855  36.938921     7.0161      6.410   254.1844 8.8179e+00     3.5006      3.235      4.692    15.2762 0.0000e+00
      3.313      0.052     6.7966     67.851     45.825  36.913644     7.0166      6.409   254.3504 8.7231e+00     3.5213      3.250      4.713    15.2764 0.0000e+00
      3.326      0.055     6.8002     67.866     45.824  36.911451     6.9881      6.408   254.6836 8.6192e+00     3.5450      3.262      4.731    15.2757 0.0000e+00
      3.339      0.059     6.8007     67.901     45.827  36.912396     6.9293      6.408   254.9442 8.4967e+00     3.5148      3.275      4.749    15.2752 0.0000e+00
      3.354      0.061     6.7995     67.934     45.844  36.925068     6.8875      6.408   254.8346 8.3645e+00     3.4633      3.289      4.769    15.2747 0.0000e+00
      3.371      0.063     6.8015     67.949     45.861  36.937757     6.8744      6.407   254.5630 8.2119e+00     3.4339      3.305      4.795    15.2733 0.0000e+00
      3.390      0.064     6.8006     67.936     45.864  36.938911     6.7954      6.405   254.4987 8.0745e+00     3.4333      3.325      4.823    15.2718 0.0000e+00
      3.407      0.063     6.8074     67.892     45.864  36.939017     6.6483      6.405   254.6590 7.9755e+00     3.4895      3.341      4.846    15.2702 0.0000e+00
      3.423      0.059     6.8100     67.810     45.865  36.939038     6.5610      6.405   254.8670 7.8712e+00     3.5335      3.356      4.868    15.2687 0.0000e+00
      3.439      0.054     6.8135     67.715     45.865  36.939153     6.5299      6.405   255.0342 7.7600e+00     3.4866      3.374      4.893    15.2676 0.0000e+00
      3.453      0.049     6.8106     67.621     45.867  36.940411     6.3563      6.406   255.1318 7.6798e+00     3.4347      3.389      4.915    15.2668 0.0000e+00
      3.463      0.048     6.8081     67.494     45.885  36.954255     6.0428      6.406   255.1013 7.6414e+00     3.4525      3.398      4.929    15.2661 0.0000e+00
      3.470      0.049     6.7988     67.378     45.916  36.979627     5.8769      6.405   255.0954 7.6063e+00     3.4974      3.402      4.935    15.2658 0.0000e+00
      3.480      0.052     6.7864     67.310     45.934  36.993367     5.8652      6.403   255.0605 7.5105e+00     3.4993      3.409      4.945    15.2655 0.0000e+00
      3.495      0.054     6.7826     67.248     45.934  36.993471     5.8507      6.403   254.9369 7.3610e+00     3.4754      3.426      4.969    15.2653 0.0000e+00
      3.514      0.055     6.7653     67.189     45.919  36.980885     5.8355      6.403   255.1501 7.2158e+00     3.4810      3.446      4.999    15.2652 0.0000e+00
      3.533      0.054     6.7520     67.186     45.904  36.968101     5.8396      6.404   255.5729 7.0945e+00     3.4995      3.464      5.025    15.2648 0.0000e+00
      3.548      0.052     6.7484     67.220     45.901  36.965809     5.8588      6.405   255.7473 7.0093e+00     3.4932      3.482      5.051    15.2646 0.0000e+00
      3.558      0.051     6.7429     67.252     45.886  36.953169     5.8771      6.405   255.7104 6.9670e+00     3.4735      3.490      5.063    15.2643 0.0000e+00
      3.565      0.054     6.7329     67.280     45.872  36.942184     6.0105      6.405   255.6433 6.9282e+00     3.5345      3.495      5.069    15.2637 0.0000e+00
      3.574      0.059     6.7339     67.234     45.894  36.959901     6.2643      6.403   256.0534 6.8451e+00     3.6504      3.502      5.080    15.2633 0.0000e+00
      3.590      0.066     6.7413     67.107     45.916  36.977008     6.4076      6.400   256.8829 6.7184e+00     3.7137      3.517      5.102    15.2631 0.0000e+00
      3.611      0.075     6.7400     66.991     45.894  36.958653     6.4529      6.398   257.2413 6.5788e+00     3.7529      3.540      5.135    15.2627 0.0000e+00
      3.636      0.081     6.7493     66.912     45.857  36.928346     6.6628      6.398   257.1170 6.4345e+00     3.7489      3.565      5.171    15.2628 0.0000e+00
      3.660      0.085     6.7453     66.877     45.857  36.927845     7.0133      6.398   256.9292 6.2944e+00     3.6997      3.590      5.208    15.2626 0.0000e+00
      3.681      0.086     6.7255     66.896     45.889  36.952594     7.2040      6.399   256.7775 6.1720e+00     3.7038      3.611      5.238    15.2621 0.0000e+00
      3.701      0.085     6.7158     66.928     45.915  36.973756     7.2378      6.400   257.1756 6.0653e+00     3.7303      3.629      5.264    15.2618 0.0000e+00
      3.722      0.083     6.7067     66.936     45.940  36.993351     7.2221      6.400   258.1293 5.9670e+00     3.6447      3.650      5.294    15.2612 0.0000e+00
      3.743      0.083     6.7029     66.955     45.947  36.999142     7.1557      6.399   258.9308 5.8672e+00     3.5226      3.670      5.323    15.2603 0.0000e+00
      3.764      0.085     6.7063     66.978     45.924  36.980324     7.1172      6.396   259.4658 5.7621e+00     3.5180      3.692      5.354    15.2597 0.0000e+00
      3.786      0.088     6.7131     66.986     45.894  36.956192     7.1226      6.392   259.7806 5.6561e+00     3.5545      3.715      5.386    15.2593 0.0000e+00
      3.808      0.088     6.7101     67.031     45.901  36.961184     7.1046      6.392   259.9832 5.5404e+00     3.5542      3.733      5.414    15.2590 0.0000e+00
      3.831      0.086     6.7120     67.077     45.921  36.977228     7.0487      6.393   260.3675 5.4043e+00     3.5483      3.754      5.445    15.2587 0.0000e+00
      3.857      0.082     6.7189     67.076     45.899  36.959808     7.0049      6.395   260.8131 5.2765e+00     3.5177      3.783      5.486    15.2586 0.0000e+00
      3.881      0.077     6.7126     67.088     45.876  36.940928     6.9831      6.398   261.1547 5.1984e+00     3.4573      3.809      5.524    15.2586 0.0000e+00
      3.899      0.073     6.7208     67.143     45.874  36.939315     6.9598      6.400   261.3998 5.1449e+00     3.5013      3.825      5.547    15.2586 0.0000e+00
      3.913      0.069     6.7292     67.199     45.876  36.940304     6.9236      6.400   261.4542 5.0775e+00     3.6407      3.838      5.567    15.2586 0.0000e+00
      3.927      0.065     6.7241     67.255     45.891  36.952887     6.8944      6.400   261.1237 4.9847e+00     3.7413      3.850      5.583    15.2582 0.0000e+00
      3.942      0.062     6.7241     67.319     45.906  36.964537     6.8823      6.402   260.6740 4.8754e+00     3.7623      3.863      5.603    15.2578 0.0000e+00
      3.961      0.060     6.7332     67.369     45.894  36.954260     6.8187      6.405   260.6628 4.7816e+00     3.6898      3.884      5.634    15.2577 0.0000e+00
      3.978      0.059     6.7380     67.374     45.897  36.955535     6.6907      6.408   261.0753 4.7126e+00     3.6157      3.903      5.661    15.2576 0.0000e+00
      3.993      0.058     6.7425     67.282     45.929  36.979943     6.5919      6.410   261.7025 4.6677e+00     3.5485      3.917      5.680    15.2574 0.0000e+00
      4.005      0.056     6.7511     67.103     45.949  36.995557     6.5476      6.411   262.3958 4.6152e+00     3.4583      3.928      5.697    15.2572 0.0000e+00
      4.018      0.052     6.7556     66.902     45.979  37.017418     6.5296      6.412   262.6605 4.5375e+00     3.4139      3.939      5.713    15.2568 0.0000e+00
      4.032      0.051     6.7602     66.722     46.029  37.053900     6.5155      6.413   262.5800 4.4715e+00     3.4894      3.954      5.734    15.2560 0.0000e+00
      4.046      0.051     6.7504     66.607     46.037  37.055923     6.4937      6.415   263.1432 4.4240e+00     3.6531      3.968      5.756    15.2548 0.0000e+00
      4.057      0.052     6.7289     66.572     46.025  37.041869     6.4910      6.415   264.3945 4.3804e+00     3.7194      3.979      5.771    15.2530 0.0000e+00
      4.068      0.052     6.7091     66.586     46.070  37.074335     6.5083      6.414   265.6640 4.3374e+00     3.6762      3.989      5.786    15.2513 0.0000e+00
      4.082      0.049     6.6887     66.609     46.147  37.131189     6.6363      6.414   266.6182 4.2923e+00     3.5754      4.002      5.804    15.2477 0.0000e+00
      4.098      0.043     6.6773     66.602     46.188  37.158177     6.8888      6.415   267.0707 4.2497e+00     3.4572      4.017      5.827    15.2422 0.0000e+00
      4.113      0.035     6.6767     66.528     46.183  37.146813     7.0483      6.417   266.9184 4.2157e+00     3.4432      4.034      5.851    15.2373 0.0000e+00
      4.123      0.027     6.6791     66.365     46.157  37.120694     7.0419      6.419   265.8955 4.1945e+00     3.4746      4.047      5.869    15.2334 0.0000e+00
      4.126      0.022     6.6844     66.145     46.128  37.096179     6.6454      6.420   264.2529 4.1951e+00     3.4608      4.048      5.872    15.2291 0.0000e+00
      4.123      0.025     6.6852     65.907     46.135  37.104225     5.9325      6.419   262.8033 4.2051e+00     3.4818      4.042      5.863    15.2211 0.0000e+00
      4.121      0.035     6.6812     65.647     46.272  37.217988     5.5467      6.417   261.8771 4.1901e+00     3.5232      4.039      5.857    15.2114 0.0000e+00
      4.126      0.048     6.6640     65.388     46.576  37.456392     5.5100      6.416   261.2272 4.1321e+00     3.5158      4.042      5.861    15.2062 0.0000e+00
      4.142      0.060     6.6392     65.163     46.830  37.638862     5.4880      6.416   260.7102 4.0277e+00     3.4958      4.056      5.883    15.2051 0.0000e+00
      4.171      0.067     6.6168     64.948     46.880  37.647424     5.4313      6.417   260.3584 3.9029e+00     3.4518      4.089      5.930    15.2087 0.0000e+00
      4.202      0.068     6.5883     64.716     46.881  37.623329     5.3984      6.420   259.9847 3.8200e+00     3.4618      4.127      5.985    15.2158 0.0000e+00
      4.221      0.065     6.5605     64.536     47.030  37.728246     5.4065      6.422   259.7193 3.7886e+00     3.5491      4.144      6.013    15.2147 0.0000e+00
      4.228      0.062     6.5427     64.411     47.973  38.471756     5.4961      6.423   259.7318 3.7711e+00     3.6188      4.146      6.014    15.1873 0.0000e+00
      4.233      0.062     6.5309     64.254     51.203  41.028549     5.6574      6.423   259.6193 3.7527e+00     3.6557      4.150      6.019    15.1445 0.0000e+00
      4.243      0.066     6.5056     63.995     55.987  44.778163     5.7343      6.421   259.3050 3.7082e+00     3.6539      4.158      6.032    15.1179 0.0000e+00
      4.261      0.073     6.4885     63.572     58.285  46.485507     5.7345      6.421   259.1146 3.6222e+00     3.6994      4.174      6.054    15.1057 0.0000e+00
      4.288      0.078     6.4831     63.016     57.438  45.675803     5.7437      6.421   259.2967 3.5187e+00     3.7271      4.204      6.097    15.0993 0.0000e+00
      4.318      0.078     6.4692     62.407     57.125  45.335763     5.7782      6.421   259.6992 3.4262e+00     3.6476      4.238      6.146    15.0815 0.0000e+00
      4.343      0.074     6.4579     61.624     58.583  46.437108     5.8367      6.421   259.8518 3.3588e+00     3.5571      4.261      6.181    15.0110 0.0000e+00
      4.358      0.070     6.4322     60.216     60.249  47.691935     5.8680      6.421   259.7658 3.3233e+00     3.4534      4.276      6.202    14.8755 0.0000e+00
      4.366      0.066     6.3899     57.491     61.153  48.318458     5.8726      6.420   259.7780 3.3068e+00     3.4186      4.283      6.212    14.7349 0.0000e+00
      4.375      0.064     6.3407     52.859     61.334  48.361758     5.9340      6.419   259.9995 3.2657e+00     3.6146      4.287      6.217    14.6637 0.0000e+00
      4.392      0.064     6.2820     46.534     61.103  48.088371     6.0444      6.418   260.3777 3.1849e+00     3.8760      4.305      6.243    14.6387 0.0000e+00
      4.416      0.065     6.1713     39.545     60.738  47.742929     6.1004      6.417   260.9097 3.1090e+00     3.9489      4.332      6.282    14.5848 0.0000e+00
      4.437      0.066     5.9337     32.675     60.516  47.549914     6.0785      6.416   262.1304 3.0600e+00     3.9153      4.353      6.313    14.5056 0.0000e+00
      4.453      0.066     5.4682     26.160     60.569  47.595795     5.8548      6.416   264.6403 3.0216e+00     3.9486      4.368      6.335    14.4212 0.0000e+00
      4.467      0.065     4.7778     20.402     60.889  47.853263     5.4597      6.413   267.8534 2.9869e+00     4.0776      4.382      6.355    14.3344 0.0000e+00
      4.480      0.063     4.0371     16.012     61.491  48.313858     5.2557      6.407   271.2101 2.9427e+00     4.2114      4.394      6.373    14.2860 0.0000e+00
      4.494      0.061     3.3383     13.229     62.227  48.847467     5.2437      6.402   274.5963 2.8857e+00     4.2340      4.406      6.389    14.2781 0.0000e+00
      4.512      0.060     2.6560     11.909     62.810  49.225718     5.1479      6.399   277.2198 2.8336e+00     4.2825      4.424      6.416    14.2861 0.0000e+00
      4.532      0.058     2.0336     11.699     63.159  49.395088     4.9716      6.396   278.6671 2.7975e+00     4.4567      4.447      6.449    14.2978 0.0000e+00
      4.548      0.057     1.5800     12.190     63.427  49.498333     4.8845      6.392   279.5339 2.7705e+00     4.5981      4.462      6.472    14.2926 0.0000e+00
      4.560      0.057     1.3023     13.118     63.653  49.584991     4.9024      6.389   280.2143 2.7351e+00     4.7622      4.472      6.486    14.2557 0.0000e+00
      4.570      0.058     1.1811     14.259     63.787  49.617326     5.0888      6.386   280.5270 2.6950e+00     5.7235      4.481      6.499    14.1911 0.0000e+00
      4.583      0.061     1.1807     15.289     63.885  49.635240     5.4234      6.382   280.7334 2.6610e+00     7.4078      4.492      6.515    14.1010 0.0000e+00
      4.599      0.064     1.2404     15.983     63.998  49.674527     5.6100      6.378   281.0757 2.6111e+00     8.3544      4.508      6.538    14.0103 0.0000e+00
      4.619      0.067     1.3439     16.356     64.096  49.711311     5.6305      6.373   281.1377 2.5514e+00     8.4580      4.529      6.568    13.9414 0.0000e+00
      4.640      0.069     1.4774     16.477     64.118  49.698973     5.6463      6.368   280.6231 2.5102e+00     8.4899      4.551      6.602    13.8859 0.0000e+00
      4.659      0.069     1.5971     16.405     64.087  49.652303     5.8010      6.363   279.9297 2.4720e+00     9.1164      4.570      6.629    13.8412 0.0000e+00
      4.675      0.068     1.6646     16.198     64.121  49.654976     6.0942      6.360   279.5512 2.4339e+00    10.3273      4.586      6.651    13.8038 0.0000e+00
      4.689      0.068     1.7028     15.927     64.264  49.731256     6.2537      6.356   279.2294 2.4017e+00    10.9702      4.598      6.669    13.7730 0.0000e+00
      4.704      0.068     1.7144     15.710     64.429  49.812624     6.2400      6.352   278.8783 2.3686e+00    10.9121      4.612      6.689    13.7495 0.0000e+00
      4.722      0.069     1.7045     15.615     64.585  49.876785     6.0784      6.349   278.8343 2.3317e+00    10.2057      4.630      6.715    13.7345 0.0000e+00
      4.743      0.070     1.6833     15.615     64.827  49.998994     5.8056      6.346   279.1274 2.2808e+00     8.9872      4.651      6.746    13.7204 0.0000e+00
      4.763      0.071     1.6493     15.657     65.107  50.147244     5.6634      6.343   279.5827 2.2271e+00     8.3404      4.672      6.776    13.6931 0.0000e+00
      4.781      0.071     1.6255     15.729     65.265  50.208766     5.6496      6.340   279.9521 2.1908e+00     8.2268      4.690      6.802    13.6560 0.0000e+00
      4.797      0.070     1.6192     15.809     65.364  50.234812     5.7135      6.337   280.1516 2.1583e+00     7.8192      4.705      6.824    13.6129 0.0000e+00
      4.813      0.070     1.6237     15.827     65.469  50.271619     5.8618      6.334   280.2734 2.1158e+00     7.1693      4.719      6.844    13.5605 0.0000e+00
      4.830      0.071     1.6301     15.771     65.525  50.272775     5.9608      6.331   280.3919 2.0806e+00     6.8590      4.735      6.868    13.5055 0.0000e+00
      4.849      0.073     1.6387     15.680     65.560  50.248743     5.9945      6.326   280.4669 2.0614e+00     6.9031      4.755      6.897    13.4584 0.0000e+00
      4.870      0.073     1.6530     15.519     65.638  50.234968     6.0530      6.321   280.4909 2.0317e+00     7.2237      4.776      6.927    13.4215 0.0000e+00
      4.890      0.072     1.6569     15.224     65.771  50.233142     6.1360      6.318   280.6834 1.9748e+00     7.7632      4.795      6.955    13.3903 0.0000e+00
      4.910      0.071     1.6478     14.775     65.927  50.226538     6.1738      6.316   280.9868 1.9138e+00     8.0641      4.815      6.985    13.3603 0.0000e+00
      4.927      0.068     1.6425     14.191     66.081  50.218472     6.1603      6.312   281.4066 1.8648e+00     8.1627      4.833      7.010    13.3250 0.0000e+00
      4.942      0.066     1.6305     13.571     66.195  50.198967     5.9652      6.308   282.1451 1.8211e+00     8.4781      4.847      7.029    13.2730 0.0000e+00
      4.957      0.064     1.6023     13.083     66.277  50.181081     5.5872      6.306   282.8613 1.7730e+00     8.9387      4.861      7.049    13.1919 0.0000e+00
      4.974      0.062     1.5595     12.961     66.371  50.192613     5.3691      6.303   283.5265 1.7175e+00     9.1545      4.877      7.073    13.0890 0.0000e+00
      4.991      0.059     1.4973     13.491     66.456  50.211345     5.3417      6.301   284.3368 1.6690e+00     9.1404      4.895      7.100    12.9884 0.0000e+00
      5.007      0.057     1.4281     14.846     66.512  50.217017     5.3563      6.299   284.9154 1.6334e+00     9.0761      4.910      7.123    12.9070 0.0000e+00
      5.022      0.056     1.3708     16.930     66.524  50.197655     5.3953      6.297   285.1881 1.6039e+00     8.9921      4.925      7.144    12.8490 0.0000e+00
      5.034      0.057     1.3466     19.495     66.515  50.167698     5.4145      6.294   285.3972 1.5718e+00     8.9091      4.937      7.160    12.8063 0.0000e+00
      5.044      0.058     1.3950     22.277     66.549  50.172271     5.4127      6.291   285.5509 1.5325e+00     8.8586      4.944      7.171    12.7726 0.0000e+00
      5.057      0.061     1.5450     25.016     66.599  50.189435     5.4073      6.289   285.5834 1.4932e+00     8.8606      4.957      7.189    12.7455 0.0000e+00
      5.076      0.065     1.7773     27.455     66.616  50.184704     5.3747      6.288   285.6175 1.4464e+00     8.8988      4.976      7.219    12.7239 0.0000e+00
      5.096      0.068     2.0594     29.430     66.625  50.178546     5.3257      6.287   285.7058 1.4018e+00     8.9453      4.998      7.250    12.7074 0.0000e+00
      5.115      0.069     2.3642     30.869     66.637  50.178460     5.2973      6.285   285.7044 1.3745e+00     8.9442      5.017      7.277    12.6921 0.0000e+00
      5.133      0.069     2.6671     31.799     66.652  50.183657     5.2735      6.283   285.6864 1.3478e+00     8.9537      5.034      7.301    12.6763 0.0000e+00
      5.149      0.068     2.9321     32.375     66.650  50.177886     5.0879      6.282   285.7472 1.3144e+00     9.5046      5.050      7.324    12.6626 0.0000e+00
      5.165      0.067     3.1444     32.701     66.647  50.172175     4.7510      6.281   285.8370 1.2769e+00    10.6168      5.064      7.346    12.6535 0.0000e+00
      5.182      0.067     3.2991     32.820     66.661  50.178091     4.5786      6.281   285.9970 1.2438e+00    11.3003      5.081      7.370    12.6473 0.0000e+00
      5.201      0.068     3.3884     32.805     66.683  50.185917     4.5436      6.280   286.4785 1.2156e+00    11.4144      5.100      7.397    12.6428 0.0000e+00
      5.218      0.070     3.4463     32.709     66.723  50.203283     4.1776      6.278   287.0976 1.1780e+00    12.0649      5.117      7.421    12.6395 0.0000e+00
      5.236      0.073     3.4823     32.564     66.733  50.197559     3.5081      6.275   287.5463 1.1375e+00    13.3241      5.134      7.446    12.6373 0.0000e+00
      5.254      0.076     3.4896     32.428     66.725  50.180186     3.1404      6.273   287.7733 1.1014e+00    14.0343      5.152      7.473    12.6353 0.0000e+00
      5.272      0.079     3.4878     32.303     66.740  50.183708     3.0776      6.270   287.9496 1.0616e+00    14.1273      5.169      7.498    12.6290 0.0000e+00
      5.292      0.082     3.4781     32.165     66.739  50.176635     2.7996      6.267   288.4732 1.0266e+00    14.3467      5.189      7.526    12.6179 0.0000e+00
      5.315      0.085     3.4597     32.061     66.719  50.158155     2.3002      6.264   289.1137 9.9550e-01    14.7727      5.213      7.562    12.6069 0.0000e+00
      5.338      0.087     3.4461     32.016     66.709  50.150754     2.0172      6.261   289.4136 9.5196e-01    14.9752      5.236      7.594    12.5988 0.0000e+00
      5.361      0.088     3.4363     31.972     66.705  50.150649     1.9823      6.257   289.3455 9.0466e-01    14.9847      5.257      7.624    12.5929 0.0000e+00
      5.383      0.088     3.4184     31.932     66.710  50.156885     1.9701      6.255   289.4089 8.6932e-01    15.1252      5.280      7.658    12.5885 0.0000e+00
      5.405      0.085     3.4051     31.947     66.719  50.162657     1.9528      6.253   289.6641 8.4117e-01    15.3086      5.301      7.688    12.5853 0.0000e+00
      5.428      0.077     3.4056     31.987     66.714  50.156937     1.9482      6.252   289.7645 8.1843e-01    15.3574      5.322      7.720    12.5850 0.0000e+00
      5.452      0.066     3.4004     32.023     66.709  50.151220     1.9476      6.251   289.8482 7.9593e-01    15.3058      5.349      7.758    12.5884 0.0000e+00
      5.471      0.053     3.3911     32.076     66.717  50.157040     1.9362      6.251   289.8156 7.7017e-01    15.2653      5.369      7.787    12.5913 0.0000e+00
      5.482      0.041     3.3962     32.134     66.726  50.163801     1.8939      6.252   289.8000 7.5711e-01    15.3122      5.379      7.801    12.5902 0.0000e+00
      5.487      0.033     3.4025     32.188     66.732  50.169479     1.8284      6.252   290.1763 7.5778e-01    15.4284      5.382      7.805    12.5879 0.0000e+00
      5.488      0.032     3.4030     32.246     66.721  50.162184     1.7926      6.252   290.5790 7.4912e-01    15.5092      5.382      7.806    12.5862 0.0000e+00
      5.489      0.038     3.4111     32.285     66.691  50.139094     1.7688      6.252   290.7110 7.2886e-01    15.5367      5.381      7.805    12.5858 0.0000e+00
      5.495      0.048     3.4175     32.299     66.699  50.144291     1.6412      6.250   290.4830 7.1225e-01    15.6243      5.385      7.811    12.5862 0.0000e+00
      5.510      0.059     3.4215     32.315     66.724  50.161513     1.4404      6.249   290.1444 6.9295e-01    15.8170      5.400      7.833    12.5868 0.0000e+00
      5.535      0.069     3.4297     32.315     66.722  50.156833     1.3546      6.249   290.2305 6.6546e-01    15.9888      5.427      7.872    12.5882 0.0000e+00
      5.562      0.075     3.4345     32.274     66.720  50.151213     1.3611      6.249   290.5780 6.4026e-01    16.0954      5.456      7.914    12.5885 0.0000e+00
      5.582      0.078     3.4334     32.222     66.733  50.157052     1.3191      6.248   290.4745 6.2958e-01    16.2860      5.476      7.942    12.5873 0.0000e+00
      5.598      0.079     3.4362     32.187     66.746  50.163918     1.2293      6.247   289.8393 6.2311e-01    16.5859      5.489      7.961    12.5860 0.0000e+00
      5.613      0.079     3.4394     32.188     66.758  50.170731     1.1747      6.246   289.6093 6.0345e-01    16.7150      5.504      7.983    12.5838 0.0000e+00
      5.632      0.079     3.4319     32.207     66.768  50.175928     1.1754      6.245   289.9300 5.7415e-01    16.6850      5.522      8.008    12.5805 0.0000e+00
      5.655      0.081     3.4263     32.212     66.753  50.163248     1.1704      6.244   290.3613 5.4351e-01    16.7361      5.545      8.042    12.5773 0.0000e+00
      5.680      0.084     3.4219     32.238     66.731  50.144409     1.1484      6.243   290.5219 5.1825e-01    16.8549      5.570      8.079    12.5751 0.0000e+00
      5.702      0.087     3.4218     32.277     66.726  50.138636     1.1343      6.242   290.1519 5.0719e-01    16.9258      5.593      8.113    12.5738 0.0000e+00
      5.722      0.091     3.4284     32.280     66.752  50.156941     1.1159      6.240   289.8445 5.0926e-01    16.8762      5.613      8.141    12.5724 0.0000e+00
      5.742      0.093     3.4240     32.249     66.779  50.175242     1.0929      6.238   289.9891 5.0383e-01    16.9032      5.629      8.164    12.5707 0.0000e+00
      5.765      0.094     3.4281     32.183     66.773  50.169421     1.0809      6.237   290.2659 4.7533e-01    17.0826      5.650      8.196    12.5689 0.0000e+00
      5.794      0.094     3.4363     32.102     66.748  50.150057     1.0788      6.236   290.3524 4.4187e-01    17.1660      5.682      8.242    12.5673 0.0000e+00
      5.821      0.091     3.4343     32.063     66.724  50.131595     1.0751      6.235   290.2604 4.1971e-01    17.1256      5.711      8.283    12.5662 0.0000e+00
      5.846      0.086     3.4322     32.046     66.731  50.136688     1.0705      6.233   290.1855 3.9722e-01    17.1075      5.733      8.315    12.5652 0.0000e+00
      5.867      0.078     3.4254     31.996     66.746  50.148128     1.0900      6.231   290.2213 3.8261e-01    17.1513      5.755      8.346    12.5643 0.0000e+00
      5.886      0.070     3.4122     31.950     66.739  50.142923     1.1268      6.231   290.6071 3.7965e-01    17.2109      5.774      8.375    12.5637 0.0000e+00
      5.900      0.065     3.4093     31.937     66.732  50.137254     1.1409      6.231   291.1511 3.7182e-01    17.2476      5.787      8.393    12.5632 0.0000e+00
      5.911      0.067     3.4126     31.964     66.741  50.143087     1.1284      6.230   291.2908 3.5762e-01    17.2193      5.796      8.406    12.5631 0.0000e+00
      5.924      0.072     3.4028     32.022     66.751  50.149958     1.1167      6.228   291.1788 3.3991e-01    17.2096      5.809      8.425    12.5633 0.0000e+00
      5.941      0.080     3.3974     32.065     66.760  50.156828     1.1154      6.225   291.4311 3.2988e-01    17.3020      5.825      8.448    12.5633 0.0000e+00
      5.964      0.086     3.3968     32.114     66.769  50.162653     1.1205      6.224   292.1050 3.1854e-01    17.3800      5.845      8.477    12.5629 0.0000e+00
      5.993      0.091     3.3978     32.184     66.762  50.156891     1.1293      6.223   292.4434 2.9188e-01    17.4012      5.877      8.524    12.5625 0.0000e+00
      6.022      0.092     3.4091     32.189     66.755  50.150646     1.1138      6.222   292.2535 2.7365e-01    17.3194      5.909      8.571    12.5620 0.0000e+00
      6.046      0.090     3.4114     32.117     66.755  50.150646     1.0747      6.222   291.9600 2.6495e-01    17.1757      5.931      8.602    12.5618 0.0000e+00
      6.065      0.085     3.4133     32.057     66.763  50.156891     1.0556      6.221   292.1633 2.4500e-01    17.1334      5.947      8.626    12.5614 0.0000e+00
      6.085      0.080     3.4281     32.033     66.771  50.162664     1.0572      6.220   292.8191 2.2259e-01    17.1836      5.967      8.654    12.5610 0.0000e+00
      6.105      0.076     3.4292     32.023     66.763  50.156942     1.0695      6.218   293.0916 2.1094e-01    17.2361      5.988      8.684    12.5605 0.0000e+00
      6.123      0.073     3.4151     32.030     66.756  50.151207     1.0797      6.217   293.0486 2.0065e-01    17.2221      6.004      8.708    12.5603 0.0000e+00
      6.141      0.071     3.4088     32.046     66.764  50.156818     1.0721      6.215   293.0746 1.9303e-01    17.1849      6.021      8.734    12.5604 0.0000e+00
      6.161      0.070     3.4086     32.059     66.771  50.161280     1.0602      6.214   293.1467 1.8996e-01    17.1618      6.043      8.764    12.5603 0.0000e+00
      6.178      0.072     3.4058     32.081     66.746  50.141664     1.0691      6.214   293.2330 1.7758e-01    17.2159      6.061      8.791    12.5600 0.0000e+00
      6.193      0.075     3.4074     32.129     66.706  50.110125     1.1045      6.214   293.3435 1.6492e-01    17.3608      6.072      8.807    12.5598 0.0000e+00
      6.210      0.078     3.4102     32.181     66.690  50.097427     1.1225      6.213   293.4501 1.5972e-01    17.4104      6.086      8.827    12.5596 0.0000e+00
      6.232      0.083     3.4104     32.200     66.714  50.115122     1.1195      6.210   293.2323 1.5111e-01    17.3714      6.110      8.863    12.5590 0.0000e+00
      6.256      0.088     3.4119     32.193     66.739  50.133584     1.1267      6.208   292.8603 1.4004e-01    17.3674      6.136      8.900    12.5582 0.0000e+00
      6.280      0.093     3.4177     32.190     66.735  50.130162     1.1343      6.208   292.9968 1.3563e-01    17.3967      6.158      8.933    12.5574 0.0000e+00
      6.304      0.096     3.4265     32.185     66.745  50.137240     1.1371      6.206   293.4191 1.3164e-01    17.4531      6.181      8.965    12.5567 0.0000e+00
      6.329      0.096     3.4272     32.162     66.770  50.155664     1.1366      6.204   293.3201 1.2845e-01    17.4683      6.206      9.001    12.5564 0.0000e+00
      6.354      0.095     3.4246     32.137     66.779  50.162436     1.1274      6.202   292.8330 1.3083e-01    17.4088      6.231      9.037    12.5563 0.0000e+00
      6.379      0.095     3.4247     32.120     66.771  50.155624     1.1178      6.201   292.7770 1.3003e-01    17.4168      6.256      9.073    12.5561 0.0000e+00
      6.404      0.094     3.4261     32.104     66.746  50.136784     1.1123      6.201   293.1604 1.2599e-01    17.5661      6.281      9.110    12.5556 0.0000e+00
      6.427      0.090     3.4221     32.093     66.731  50.125136     1.1098      6.201   293.4242 1.2406e-01    17.7103      6.302      9.141    12.5552 0.0000e+00
      6.449      0.084     3.4188     32.096     66.754  50.141782     1.1217      6.200   293.1276 1.2389e-01    17.7265      6.323      9.170    12.5554 0.0000e+00
      6.472      0.076     3.4182     32.115     66.763  50.147554     1.1225      6.200   292.5860 1.2386e-01    17.6254      6.347      9.207    12.5555 0.0000e+00
      6.494      0.070     3.4157     32.155     66.743  50.131424     1.0941      6.200   292.5544 1.2381e-01    17.4780      6.370      9.239    12.5551 0.0000e+00
      6.509      0.066     3.4141     32.187     66.752  50.137244     1.0697      6.200   292.8312 1.2376e-01    17.4128      6.385      9.261    12.5545 0.0000e+00
      6.520      0.065     3.4151     32.174     66.775  50.154428     1.0609      6.199   292.8349 1.2378e-01    17.4179      6.394      9.274    12.5538 0.0000e+00
      6.531      0.067     3.4165     32.179     66.768  50.148704     1.0632      6.198   292.6849 1.2380e-01    17.4715      6.403      9.286    12.5530 0.0000e+00
      6.547      0.070     3.4204     32.217     66.744  50.131538     1.0719      6.199   292.6529 1.2380e-01    17.5820      6.418      9.309    12.5523 0.0000e+00
      6.569      0.075     3.4298     32.213     66.749  50.137367     1.0659      6.199   292.7064 1.2377e-01    17.6269      6.441      9.342    12.5520 0.0000e+00
      6.594      0.079     3.4214     32.148     66.771  50.155677     1.0489      6.198   292.9014 1.2375e-01    17.6047      6.468      9.379    12.5515 0.0000e+00
      6.616      0.083     3.4216     32.042     66.779  50.162438     1.0415      6.195   293.1176 1.2382e-01    17.5873      6.490      9.413    12.5513 0.0000e+00
      6.636      0.085     3.4316     31.944     66.769  50.155615     1.0440      6.192   293.1698 1.2394e-01    17.6209      6.508      9.439    12.5521 0.0000e+00
      6.655      0.087     3.4295     31.885     66.744  50.136670     1.0535      6.191   293.1013 1.2394e-01    17.7041      6.525      9.464    12.5535 0.0000e+00
      6.675      0.087     3.4232     31.845     66.727  50.123866     1.0567      6.190   292.9781 1.2385e-01    17.7050      6.544      9.491    12.5550 0.0000e+00
      6.700      0.088     3.4088     31.829     66.733  50.127802     1.0655      6.190   293.1432 1.2382e-01    17.6319      6.569      9.526    12.5558 0.0000e+00
      6.727      0.089     3.3965     31.878     66.725  50.120762     1.0935      6.189   293.4622 1.2382e-01    17.6055      6.598      9.570    12.5563 0.0000e+00
      6.750      0.091     3.3925     31.992     66.702  50.102238     1.1122      6.188   293.4800 1.2377e-01    17.6249      6.621      9.603    12.5566 0.0000e+00
      6.769      0.092     3.3883     32.126     66.693  50.094327     1.1168      6.187   293.4447 1.2373e-01    17.6622      6.637      9.627    12.5562 0.0000e+00
      6.790      0.091     3.3833     32.225     66.687  50.088602     1.0918      6.187   293.6374 1.2378e-01    17.6463      6.657      9.655    12.5560 0.0000e+00
      6.815      0.090     3.3894     32.276     66.697  50.096508     1.0341      6.187   293.9171 1.2383e-01    17.5007      6.682      9.692    12.5552 0.0000e+00
      6.842      0.089     3.4028     32.287     66.737  50.126418     0.9940      6.186   293.9869 1.2380e-01    17.3367      6.710      9.733    12.5540 0.0000e+00
      6.867      0.089     3.4206     32.257     66.746  50.132758     0.9895      6.185   293.8789 1.2376e-01    17.3377      6.736      9.769    12.5528 0.0000e+00
      6.888      0.088     3.4313     32.234     66.717  50.109669     1.0050      6.184   293.8160 1.2378e-01    17.4442      6.755      9.798    12.5525 0.0000e+00
      6.907      0.086     3.4349     32.228     66.707  50.101239     1.0314      6.183   293.9159 1.2380e-01    17.5642      6.773      9.824    12.5526 0.0000e+00
      6.927      0.085     3.4390     32.205     66.699  50.094323     1.0500      6.182   294.2257 1.2378e-01    17.6615      6.792      9.851    12.5523 0.0000e+00
      6.949      0.085     3.4313     32.185     66.694  50.089539     1.0473      6.181   294.4634 1.2380e-01    17.6306      6.814      9.883    12.5517 0.0000e+00
      6.973      0.084     3.4285     32.180     66.718  50.106894     1.0484      6.181   294.2952 1.2386e-01    17.6007      6.839      9.919    12.5509 0.0000e+00
      6.997      0.081     3.4317     32.175     66.728  50.113667     1.0466      6.181   293.9987 1.2389e-01    17.6758      6.862      9.952    12.5502 0.0000e+00
      7.018      0.078     3.4265     32.184     66.721  50.107940     1.0253      6.181   294.0627 1.2383e-01    17.7184      6.883      9.983    12.5496 0.0000e+00
      7.037      0.076     3.4239     32.215     66.713  50.101136     1.0077      6.181   294.2939 1.2378e-01    17.6715      6.902     10.010    12.5491 0.0000e+00
      7.053      0.075     3.4253     32.221     66.704  50.094900     1.0001      6.180   294.3858 1.2383e-01    17.6220      6.916     10.031    12.5483 0.0000e+00
      7.068      0.076     3.4240     32.192     66.705  50.096037     1.0164      6.178   294.3989 1.2388e-01    17.7005      6.930     10.052    12.5477 0.0000e+00
      7.087      0.078     3.4228     32.172     66.730  50.114877     1.0552      6.178   294.3660 1.2383e-01    17.8684      6.948     10.077    12.5474 0.0000e+00
      7.109      0.083     3.4301     32.168     66.753  50.132203     1.0778      6.177   294.3329 1.2374e-01    17.9448      6.971     10.111    12.5471 0.0000e+00
      7.132      0.088     3.4312     32.168     66.731  50.115042     1.0813      6.176   294.3429 1.2369e-01    17.9067      6.995     10.146    12.5473 0.0000e+00
      7.155      0.091     3.4250     32.163     66.708  50.097869     1.0894      6.176   294.4006 1.2372e-01    17.7487      7.016     10.176    12.5474 0.0000e+00
      7.180      0.091     3.4234     32.163     66.732  50.115052     1.1014      6.175   294.5144 1.2377e-01    17.5032      7.040     10.211    12.5473 0.0000e+00
      7.205      0.092     3.4233     32.177     66.755  50.132317     1.1102      6.175   294.6009 1.2377e-01    17.3982      7.067     10.249    12.5472 0.0000e+00
      7.228      0.093     3.4239     32.196     66.734  50.116126     1.1209      6.174   294.5849 1.2374e-01    17.4363      7.090     10.282    12.5470 0.0000e+00
      7.248      0.095     3.4228     32.211     66.725  50.109776     1.1222      6.173   294.5796 1.2371e-01    17.5533      7.107     10.308    12.5469 0.0000e+00
      7.271      0.095     3.4221     32.218     66.737  50.119031     1.1095      6.172   294.6225 1.2369e-01    17.7883      7.127     10.338    12.5466 0.0000e+00
      7.298      0.095     3.4243     32.219     66.714  50.101033     1.0995      6.172   294.6733 1.2373e-01    17.9551      7.157     10.379    12.5462 0.0000e+00
      7.326      0.095     3.4269     32.234     66.690  50.082657     1.0939      6.171   294.8500 1.2374e-01    17.9988      7.186     10.422    12.5468 0.0000e+00
      7.350      0.095     3.4279     32.249     66.697  50.087336     1.0989      6.169   295.0388 1.2374e-01    18.0094      7.209     10.456    12.5471 0.0000e+00
      7.372      0.094     3.4299     32.249     66.706  50.094101     1.1107      6.169   294.9759 1.2384e-01    17.9459      7.230     10.486    12.5467 0.0000e+00
      7.395      0.091     3.4277     32.253     66.715  50.100962     1.1199      6.169   294.8648 1.2389e-01    17.8804      7.252     10.518    12.5461 0.0000e+00
      7.418      0.089     3.4303     32.275     66.723  50.106797     1.1271      6.169   294.9853 1.2383e-01    17.8662      7.275     10.551    12.5457 0.0000e+00
      7.441      0.086     3.4338     32.293     66.716  50.101147     1.1147      6.169   295.1427 1.2379e-01    17.8428      7.297     10.583    12.5453 0.0000e+00
      7.464      0.083     3.4317     32.290     66.710  50.096151     1.0942      6.168   295.1329 1.2379e-01    17.8018      7.319     10.615    12.5451 0.0000e+00
      7.486      0.079     3.4318     32.301     66.728  50.109891     1.0794      6.167   295.1249 1.2379e-01    17.7131      7.342     10.649    12.5451 0.0000e+00
      7.506      0.077     3.4347     32.330     66.769  50.140277     1.0682      6.167   295.1326 1.2379e-01    17.6240      7.363     10.679    12.5451 0.0000e+00
      7.523      0.076     3.4394     32.350     66.778  50.146059     1.0671      6.167   295.0536 1.2379e-01    17.6129      7.378     10.701    12.5451 0.0000e+00
      7.539      0.076     3.4349     32.356     66.739  50.116304     1.0906      6.167   295.1161 1.2381e-01    17.6811      7.392     10.721    12.5448 0.0000e+00
      7.557      0.080     3.4370     32.361     66.715  50.097986     1.1455      6.167   295.2864 1.2381e-01    17.7991      7.410     10.748    12.5446 0.0000e+00
      7.578      0.086     3.4418     32.385     66.738  50.115066     1.1898      6.167   295.1332 1.2380e-01    17.8791      7.432     10.778    12.5443 0.0000e+00
      7.600      0.092     3.4433     32.410     66.761  50.132332     1.2014      6.166   294.8127 1.2380e-01    17.8969      7.452     10.809    12.5440 0.0000e+00
      7.625      0.098     3.4444     32.405     66.740  50.116254     1.1533      6.165   294.9388 1.2382e-01    17.7746      7.477     10.843    12.5438 0.0000e+00
      7.653      0.100     3.4427     32.380     66.734  50.111153     1.0488      6.164   295.2813 1.2385e-01    17.5279      7.505     10.886    12.5435 0.0000e+00
      7.682      0.100     3.4466     32.348     66.765  50.134148     0.9952      6.163   295.4268 1.2386e-01    17.4075      7.533     10.926    12.5434 0.0000e+00
      7.708      0.099     3.4515     32.302     66.774  50.140300     1.0129      6.162   295.1495 1.2382e-01    17.4457      7.560     10.964    12.5430 0.0000e+00
      7.733      0.096     3.4496     32.248     66.750  50.122037     1.0545      6.162   294.5094 1.2375e-01    17.5121      7.585     11.001    12.5425 0.0000e+00
      7.756      0.092     3.4459     32.201     66.726  50.103826     1.0982      6.162   294.2265 1.2375e-01    17.5614      7.606     11.031    12.5420 0.0000e+00
      7.777      0.091     3.4443     32.163     66.735  50.110601     1.1091      6.161   294.4818 1.2376e-01    17.5964      7.626     11.061    12.5415 0.0000e+00
      7.799      0.094     3.4380     32.113     66.775  50.140456     1.1023      6.160   294.5851 1.2377e-01    17.6291      7.648     11.092    12.5415 0.0000e+00
      7.822      0.099     3.4324     32.052     66.785  50.147313     1.0836      6.159   294.0991 1.2380e-01    17.6486      7.671     11.126    12.5416 0.0000e+00
      7.845      0.104     3.4265     32.007     66.762  50.130004     1.0406      6.158   293.6811 1.2382e-01    17.6615      7.693     11.157    12.5418 0.0000e+00
      7.872      0.106     3.4242     31.972     66.752  50.121669     1.0071      6.157   293.8334 1.2379e-01    17.6490      7.717     11.192    12.5418 0.0000e+00
      7.904      0.106     3.4189     31.946     66.737  50.110031     0.9949      6.156   294.1339 1.2376e-01    17.6000      7.751     11.241    12.5413 0.0000e+00
      7.938      0.106     3.4100     31.912     66.745  50.116277     0.9930      6.156   294.2168 1.2378e-01    17.5815      7.788     11.295    12.5409 0.0000e+00
      7.966      0.106     3.4071     31.872     66.769  50.133699     1.0005      6.156   294.0617 1.2385e-01    17.6301      7.814     11.334    12.5405 0.0000e+00
      7.986      0.105     3.4024     31.849     66.764  50.130182     1.0196      6.155   293.8076 1.2388e-01    17.6760      7.830     11.357    12.5403 0.0000e+00
      8.006      0.103     3.4007     31.846     66.774  50.137242     1.0238      6.154   293.7259 1.2380e-01    17.6580      7.849     11.383    12.5400 0.0000e+00
      8.034      0.102     3.3976     31.836     66.799  50.155571     1.0006      6.154   294.0191 1.2380e-01    17.6168      7.877     11.424    12.5399 0.0000e+00
      8.066      0.103     3.3912     31.808     66.808  50.161302     0.9723      6.154   294.4271 1.2390e-01    17.6556      7.910     11.474    12.5401 0.0000e+00
      8.096      0.103     3.3891     31.808     66.784  50.143040     0.9565      6.154   294.3574 1.2394e-01    17.7862      7.941     11.517    12.5400 0.0000e+00
      8.121      0.103     3.3898     31.881     66.761  50.125259     0.9591      6.154   293.9514 1.2394e-01    17.8980      7.965     11.552    12.5394 0.0000e+00
      8.143      0.098     3.3902     31.967     66.777  50.136796     0.9543      6.154   293.8196 1.2389e-01    17.8790      7.985     11.582    12.5391 0.0000e+00
      8.167      0.092     3.3850     31.986     66.802  50.155532     0.9651      6.154   294.1407 1.2379e-01    17.6598      8.007     11.614    12.5387 0.0000e+00
      8.192      0.086     3.3814     31.955     66.810  50.161304     1.0143      6.154   294.6497 1.2372e-01    17.3998      8.034     11.653    12.5383 0.0000e+00
      8.216      0.081     3.3928     31.930     66.786  50.143093     1.0500      6.154   294.8984 1.2379e-01    17.3311      8.060     11.690    12.5382 0.0000e+00
      8.236      0.078     3.4069     31.919     66.763  50.125833     1.0639      6.154   294.8246 1.2386e-01    17.4100      8.078     11.716    12.5380 0.0000e+00
      8.251      0.078     3.4068     31.879     66.785  50.143103     1.0741      6.154   294.9617 1.2379e-01    17.6706      8.092     11.736    12.5376 0.0000e+00
      8.266      0.079     3.4009     31.815     66.809  50.161412     1.0746      6.153   295.5228 1.2372e-01    18.0224      8.105     11.755    12.5374 0.0000e+00
      8.285      0.080     3.3975     31.795     66.801  50.156718     1.0690      6.152   295.8452 1.2378e-01    18.1459      8.123     11.781    12.5374 0.0000e+00
      8.310      0.083     3.3993     31.813     66.790  50.149838     1.0729      6.151   295.7618 1.2388e-01    18.1734      8.149     11.818    12.5374 0.0000e+00
      8.336      0.087     3.3959     31.844     66.779  50.141729     1.0806      6.150   295.8063 1.2389e-01    18.1835      8.176     11.858    12.5376 0.0000e+00
      8.359      0.094     3.3831     31.881     66.753  50.122166     1.0785      6.149   296.1247 1.2385e-01    18.0623      8.200     11.894    12.5381 0.0000e+00
      8.378      0.100     3.3833     31.911     66.729  50.103799     1.0721      6.148   296.3412 1.2384e-01    17.9388      8.217     11.918    12.5388 0.0000e+00
      8.398      0.103     3.3861     31.941     66.739  50.110137     1.0621      6.147   296.2731 1.2384e-01    17.8514      8.232     11.939    12.5397 0.0000e+00
      8.427      0.102     3.3887     31.971     66.772  50.135307     1.0492      6.146   296.1624 1.2380e-01    17.8244      8.259     11.980    12.5403 0.0000e+00
      8.463      0.098     3.3943     31.971     66.797  50.154137     1.0319      6.146   295.9494 1.2384e-01    17.8867      8.300     12.040    12.5401 0.0000e+00
      8.497      0.092     3.3965     31.952     66.788  50.147314     1.0197      6.147   295.6764 1.2390e-01    17.9207      8.337     12.094    12.5394 0.0000e+00
      8.519      0.086     3.3997     31.971     66.747  50.116308     1.0180      6.148   295.7860 1.2390e-01    17.8944      8.357     12.123    12.5390 0.0000e+00
      8.531      0.080     3.4043     32.008     66.721  50.096730     1.0033      6.148   296.0706 1.2388e-01    17.8757      8.366     12.134    12.5388 0.0000e+00
      8.542      0.075     3.4054     32.035     66.727  50.101093     0.9753      6.147   295.7616 1.2386e-01    17.8317      8.373     12.145    12.5386 0.0000e+00
      8.558      0.074     3.3977     32.068     66.733  50.105555     0.9545      6.147   295.0607 1.2381e-01    17.7042      8.389     12.168    12.5387 0.0000e+00
      8.581      0.077     3.4022     32.060     66.708  50.087178     0.9510      6.147   294.9095 1.2381e-01    17.6324      8.415     12.203    12.5388 0.0000e+00
      8.607      0.080     3.4094     32.031     66.684  50.069387     0.9582      6.146   295.3108 1.2386e-01    17.6467      8.442     12.243    12.5388 0.0000e+00
      8.631      0.081     3.4072     32.055     66.700  50.080932     0.9672      6.146   295.6109 1.2389e-01    17.5692      8.466     12.278    12.5389 0.0000e+00
      8.650      0.079     3.4164     32.077     66.725  50.099782     0.9757      6.145   295.3545 1.2384e-01    17.4124      8.484     12.305    12.5391 0.0000e+00
      8.666      0.073     3.4152     32.064     66.734  50.106804     0.9777      6.145   294.8782 1.2379e-01    17.3565      8.497     12.325    12.5391 0.0000e+00
      8.684      0.063     3.4041     32.079     66.728  50.102342     0.9913      6.145   294.8423 1.2381e-01    17.4400      8.515     12.350    12.5391 0.0000e+00
      8.704      0.054     3.4132     32.123     66.737  50.109326     1.0073      6.146   295.0919 1.2381e-01    17.5336      8.537     12.382    12.5391 0.0000e+00
      8.720      0.048     3.4175     32.153     66.762  50.127751     0.9880      6.146   295.1438 1.2375e-01    17.5997      8.555     12.408    12.5389 0.0000e+00
      8.728      0.047     3.4102     32.165     66.771  50.134626     0.9572      6.146   294.9525 1.2370e-01    17.6590      8.562     12.418    12.5386 0.0000e+00
      8.731      0.048     3.4136     32.177     66.764  50.128948     0.9430      6.146   294.8441 1.2375e-01    17.6705      8.562     12.416    12.5388 0.0000e+00
      8.737      0.052     3.4201     32.197     66.755  50.122608     0.9580      6.146   294.8663 1.2382e-01    17.7047      8.564     12.419    12.5391 0.0000e+00
      8.752      0.057     3.4234     32.227     66.753  50.121464     0.9973      6.145   294.9628 1.2387e-01    17.7983      8.579     12.444    12.5390 0.0000e+00
      8.775      0.067     3.4235     32.266     66.745  50.115114     1.0190      6.145   295.1504 1.2386e-01    17.8459      8.606     12.483    12.5388 0.0000e+00
      8.796      0.077     3.4243     32.293     66.739  50.109333     1.0128      6.145   295.2414 1.2384e-01    17.8373      8.629     12.515    12.5389 0.0000e+00
      8.814      0.083     3.4273     32.315     66.748  50.115063     0.9965      6.144   295.2021 1.2385e-01    17.7961      8.643     12.536    12.5390 0.0000e+00
      8.833      0.083     3.4292     32.336     66.756  50.120892     0.9974      6.142   295.1913 1.2385e-01    17.7236      8.659     12.560    12.5393 0.0000e+00
      8.857      0.080     3.4356     32.327     66.750  50.116312     1.0144      6.142   295.2834 1.2380e-01    17.6772      8.685     12.596    12.5392 0.0000e+00
      8.882      0.078     3.4378     32.295     66.759  50.123177     1.0190      6.143   295.4556 1.2374e-01    17.6802      8.713     12.636    12.5385 0.0000e+00
      8.903      0.076     3.4387     32.246     66.782  50.140399     1.0116      6.143   295.6385 1.2368e-01    17.6576      8.734     12.667    12.5375 0.0000e+00
      8.918      0.073     3.4443     32.178     66.774  50.134050     1.0165      6.143   295.6875 1.2367e-01    17.6090      8.747     12.685    12.5370 0.0000e+00
      8.933      0.069     3.4417     32.135     66.741  50.109911     1.0444      6.143   295.5320 1.2372e-01    17.6380      8.760     12.705    12.5370 0.0000e+00
      8.949      0.068     3.4377     32.127     66.731  50.102531     1.0664      6.142   295.4788 1.2379e-01    17.7015      8.775     12.728    12.5372 0.0000e+00
      8.967      0.069     3.4346     32.109     66.739  50.108314     1.0739      6.142   295.5613 1.2385e-01    17.6926      8.793     12.754    12.5372 0.0000e+00
      8.987      0.071     3.4237     32.079     66.750  50.116324     1.0854      6.142   295.4963 1.2385e-01    17.7018      8.814     12.782    12.5374 0.0000e+00
      9.005      0.073     3.4183     32.062     66.776  50.135884     1.0970      6.141   295.4688 1.2379e-01    17.7779      8.832     12.809    12.5375 0.0000e+00
      9.023      0.073     3.4213     32.045     66.801  50.154318     1.1067      6.141   295.5725 1.2376e-01    17.8274      8.847     12.833    12.5375 0.0000e+00
      9.042      0.073     3.4186     32.024     66.794  50.148716     1.1189      6.142   295.5445 1.2380e-01    17.8570      8.867     12.860    12.5374 0.0000e+00
      9.062      0.073     3.4133     32.014     66.773  50.131647     1.1198      6.142   295.3885 1.2385e-01    17.9302      8.887     12.890    12.5372 0.0000e+00
      9.080      0.074     3.4134     32.004     66.783  50.138428     1.1011      6.142   295.3219 1.2387e-01    17.9953      8.905     12.916    12.5370 0.0000e+00
      9.098      0.075     3.4117     31.984     66.823  50.167211     1.0753      6.142   295.2544 1.2383e-01    17.9606      8.921     12.939    12.5367 0.0000e+00
      9.117      0.075     3.4079     31.933     66.903  50.225670     1.0497      6.141   295.0034 1.2383e-01    17.9213      8.940     12.967    12.5365 0.0000e+00
      9.137      0.075     3.4083     31.864     67.055  50.337274     1.0420      6.141   294.6096 1.2385e-01    18.1006      8.960     12.996    12.5362 0.0000e+00
      9.156      0.074     3.4069     31.809     67.194  50.437143     1.0567      6.140   294.1933 1.2381e-01    18.4203      8.979     13.022    12.5355 0.0000e+00
      9.176      0.073     3.4063     31.744     67.259  50.480713     1.0607      6.139   294.0137 1.2377e-01    18.5413      8.999     13.051    12.5346 0.0000e+00
      9.195      0.071     3.4009     31.628     67.439  50.610081     1.0571      6.139   294.2443 1.2378e-01    18.4709      9.018     13.080    12.5335 0.0000e+00
      9.212      0.068     3.3903     31.423     68.114  51.112335     1.0467      6.138   294.4873 1.2377e-01    18.3889      9.034     13.103    12.5321 0.0000e+00
      9.227      0.064     3.3875     31.102     69.028  51.790906     1.0263      6.138   294.4568 1.2373e-01    18.3352      9.049     13.124    12.5286 0.0000e+00
      9.244      0.059     3.3820     30.671     69.685  52.274053     1.0273      6.138   294.3050 1.2371e-01    18.3352      9.065     13.147    12.5235 0.0000e+00
      9.261      0.054     3.3712     30.142     71.110  53.334437     1.0331      6.137   294.2010 1.2371e-01    18.3202      9.083     13.173    12.5198 0.0000e+00
      9.276      0.051     3.3513     29.524     74.049  55.530301     1.0215      6.136   294.2311 1.2372e-01    18.2550      9.098     13.196    12.5171 0.0000e+00
      9.285      0.049     3.3165     28.810     78.786  59.072191     1.0042      6.136   294.0662 1.2374e-01    18.1615      9.105     13.206    12.5119 0.0000e+00
      9.293      0.047     3.2710     27.977     89.892  67.384385     0.9992      6.136   293.6699 1.2378e-01    18.0787      9.111     13.215    12.5038 0.0000e+00
      9.305      0.047     3.2143     26.999    147.502 110.541420     1.0026      6.136   293.4844 1.2379e-01    18.0404      9.124     13.234    12.4976 0.0000e+00
      9.320      0.049     3.1491     25.774    269.524 201.947377     0.9951      6.136   293.4574 1.2382e-01    18.0049      9.141     13.257    12.4935 0.0000e+00
      9.333      0.051     3.0747     24.114    378.965 283.875002     0.9829      6.135   293.2577 1.2382e-01    17.9570      9.153     13.275    12.4871 0.0000e+00
      9.345      0.052     2.9868     21.939    425.985 318.981898     0.9894      6.134   292.8772 1.2378e-01    17.9396      9.163     13.290    12.4787 0.0000e+00
      9.359      0.051     2.8851     19.385    438.718 328.401030     1.0141      6.134   292.5562 1.2382e-01    17.9986      9.177     13.310    12.4709 0.0000e+00
      9.374      0.049     2.7640     16.714    441.754 330.587717     1.0238      6.134   292.3019 1.2385e-01    18.0219      9.193     13.333    12.4652 0.0000e+00
      9.387      0.049     2.5904     14.207    442.645 331.196222     1.0068      6.133   292.0389 1.2382e-01    17.8800      9.206     13.353    12.4547 0.0000e+00
      9.397      0.049     2.3529     12.107    443.286 331.638361     0.9915      6.133   291.9578 1.2380e-01    17.7171      9.215     13.365    12.4372 0.0000e+00
      9.407      0.049     2.0707     10.541    443.379 331.684769     0.9969      6.132   291.7515 1.2378e-01    17.6582      9.224     13.378    12.4229 0.0000e+00
      9.421      0.048     1.7758      9.527    443.320 331.628568     1.0053      6.131   291.1800 1.2377e-01    17.6117      9.239     13.400    12.4136 0.0000e+00
      9.435      0.046     1.4992      9.042    443.634 331.860091     1.0103      6.127   290.5535 1.2382e-01    17.6336      9.253     13.420    12.4073 0.0000e+00
      9.448      0.042     1.2698      8.977    444.213 332.295271     1.0149      6.113   289.5120 1.2385e-01    17.7862      9.265     13.438    12.4033 0.0000e+00
      9.460      0.036     1.1048      9.148    444.841 332.770118     1.0122      6.092   287.8786 1.2385e-01    17.9202      9.280     13.458    12.4008 0.0000e+00
      9.469      0.026     0.9952      9.413    445.611 333.352407     1.0020      6.074   286.4633 1.2384e-01    17.9206      9.287     13.469    12.3996 0.0000e+00
      9.475      0.015     0.9481      9.674    446.452 333.992063     0.9753      6.064   285.7356 1.2379e-01    17.7911      9.292     13.476    12.3991 0.0000e+00
      9.478      0.004     0.9500      9.874    447.222 334.580967     0.9474      6.061   285.3612 1.2376e-01    17.6527      9.296     13.482    12.3995 0.0000e+00
      9.477     -0.008     0.9722     10.017    447.937 335.128897     0.9477      6.063   284.8616 1.2379e-01    17.6129      9.295     13.482    12.4002 0.0000e+00
      9.472     -0.018     1.0044     10.106    448.539 335.594915     0.9532      6.067   284.1691 1.2381e-01    17.6180      9.289     13.473    12.4009 0.0000e+00
      9.464     -0.028     1.0349     10.138    449.014 335.965983     0.9312      6.072   283.6131 1.2379e-01    17.6465      9.282     13.462    12.4020 0.0000e+00
      9.455     -0.043     1.0548     10.147    449.394 336.267235     0.8972      6.078   283.2160 1.2375e-01    17.7170      9.274     13.450    12.4035 0.0000e+00
      9.446     -0.069     1.0699     10.151    449.728 336.532974     0.8758      6.087   283.0675 1.2375e-01    17.7191      9.262     13.433    12.4050 0.0000e+00
      9.436     -0.109     1.0806     10.119    450.147 336.860965     0.8643      6.096   283.4520 1.2379e-01    17.6385      9.255     13.424    12.4068 0.0000e+00
      9.418     -0.162     1.0819     10.049    450.683 337.270950     0.8661      6.105   283.9073 1.2387e-01    17.6648      9.243     13.406    12.4086 0.0000e+00
      9.379     -0.218     1.0809      9.956    451.155 337.626514     0.8721      6.115   284.0119 1.2392e-01    17.7983      9.208     13.356    12.4104 0.0000e+00
      9.311     -0.265     1.0848      9.871    451.404 337.811595     0.8702      6.122   284.0286 1.2390e-01    17.8522      9.143     13.261    12.4123 0.0000e+00
      9.215     -0.291     1.0804      9.823    451.780 338.092082     0.8777      6.124   284.2812 1.2383e-01    17.8722      9.041     13.112    12.4140 0.0000e+00
      9.109     -0.290     1.0720      9.775    452.938 338.957164     0.8875      6.123   284.5709 1.2378e-01    17.9028      8.927     12.948    12.4151 0.0000e+00
      9.014     -0.260     1.0623      9.720    454.716 340.285767     0.8889      6.120   284.6927 1.2380e-01    17.8811      8.830     12.807    12.4152 0.0000e+00
      8.947     -0.207     1.0491      9.688    456.300 341.469067     0.8942      6.118   284.8936 1.2383e-01    17.8821      8.763     12.710    12.4150 0.0000e+00
      8.908     -0.143     1.0485      9.673    457.432 342.315615     0.9014      6.116   284.9349 1.2382e-01    17.9154      8.728     12.659    12.4148 0.0000e+00
      8.893     -0.083     1.0430      9.654    458.241 342.921167     0.9344      6.116   283.9009 1.2384e-01    18.0107      8.716     12.641    12.4146 0.0000e+00
      8.893     -0.035     1.0344      9.613    458.770 343.315887     0.9853      6.116   281.5981 1.2389e-01    18.1807      8.720     12.648    12.4144 0.0000e+00
      8.897     -0.002     1.0328      9.567    459.081 343.545490     1.0093      6.116   279.2040 1.2389e-01    18.3313      8.728     12.657    12.4141 0.0000e+00
      8.901      0.016     1.0310      9.532    459.207 343.636055     1.0329      6.117   277.6681 1.2385e-01    19.1488      8.727     12.658    12.4140 0.0000e+00
      8.906      0.024     1.0312      9.504    459.303 343.702345     1.2286      6.117   276.7083 1.2381e-01    28.2011      8.732     12.664    12.4142 0.0000e+00
      8.915      0.024     1.0249      9.482    459.397 343.767271     1.5864      6.117   276.0299 1.2376e-01    44.8084      8.743     12.681    12.4140 0.0000e+00
      8.925      0.023     1.0194      9.457    459.160 343.583685     1.7881      6.118   275.7466 1.2371e-01    53.8978      8.753     12.696    12.4137 0.0000e+00
      8.932      0.021     1.0165      9.423    458.515 343.092930     1.8114      6.118   275.4344 1.2371e-01    55.2978      8.761     12.706    12.4133 0.0000e+00
      8.935      0.016     1.0127      9.390    457.782 342.535703     1.7520      6.118   274.9226 1.2378e-01    61.9068      8.763     12.710    12.4127 0.0000e+00
      8.936      0.009     1.0115      9.372    457.163 342.063597     1.6195      6.119   274.6353 1.2387e-01    73.8565      8.762     12.708    12.4120 0.0000e+00
      8.938      0.003     1.0088      9.360    456.774 341.764576     1.5488      6.119   274.4555 1.2391e-01    80.3940      8.765     12.713    12.4114 0.0000e+00
      8.941     -0.002     1.0051      9.329    456.857 341.818642     1.5552      6.119   274.2106 1.2382e-01    80.9321      8.769     12.718    12.4106 0.0000e+00
      8.939     -0.004     1.0001      9.284    457.466 342.266427     1.5722      6.119   274.0845 1.2372e-01    79.4741      8.768     12.716    12.4095 0.0000e+00
      8.934     -0.002     0.9989      9.241    458.273 342.863289     1.5874      6.121   274.0495 1.2372e-01    76.6342      8.762     12.709    12.4086 0.0000e+00
      8.929     -0.002     0.9996      9.191    458.953 343.367140     1.5886      6.121   273.8735 1.2374e-01    75.0502      8.755     12.698    12.4078 0.0000e+00
      8.928     -0.009     0.9954      9.125    459.431 343.720801     1.5867      6.122   273.5914 1.2376e-01    74.7037      8.751     12.693    12.4068 0.0000e+00
      8.934     -0.034     0.9897      9.048    459.698 343.918728     1.5822      6.123   273.4776 1.2385e-01    72.1713      8.760     12.705    12.4060 0.0000e+00
      8.940     -0.080     0.9858      8.988    459.748 343.956698     1.5578      6.125   273.6160 1.2390e-01    67.4543      8.771     12.720    12.4051 0.0000e+00
      8.935     -0.143     0.9807      8.946    459.701 343.922259     1.5332      6.128   273.8874 1.2385e-01    64.8111      8.770     12.720    12.4047 0.0000e+00
      8.902     -0.213     0.9744      8.907    459.659 343.888856     1.5187      6.131   274.0914 1.2380e-01    64.0218      8.749     12.689    12.4042 0.0000e+00
      8.826     -0.278     0.9636      8.883    459.559 343.810506     1.4576      6.133   274.0186 1.2377e-01    58.2867      8.671     12.575    12.4040 0.0000e+00
      8.716     -0.328     0.9576      8.872    459.394 343.683515     1.3437      6.135   273.7814 1.2377e-01    47.8691      8.545     12.393    12.4040 0.0000e+00
      8.602     -0.355     0.9548      8.866    459.258 343.577299     1.2903      6.136   273.7184 1.2377e-01    42.2153      8.431     12.227    12.4042 0.0000e+00
      8.500     -0.362     0.9484      8.836    459.150 343.492484     1.3108      6.137   273.7733 1.2378e-01    41.5074      8.333     12.086    12.4040 0.0000e+00
      8.411     -0.355     0.9475      8.791    458.985 343.366581     1.2915      6.139   273.8424 1.2378e-01    38.6951      8.241     11.952    12.4035 0.0000e+00
      8.337     -0.343     0.9451      8.763    458.785 343.214484     1.2239      6.142   274.0379 1.2373e-01    33.5241      8.173     11.854    12.4032 0.0000e+00
      8.265     -0.334     0.9470      8.738    458.595 343.070585     1.1849      6.143   274.4170 1.2373e-01    30.6010      8.114     11.768    12.4027 0.0000e+00
      8.178     -0.332     0.9436      8.721    458.390 342.914978     1.1773      6.145   274.8122 1.2376e-01    30.1322      8.024     11.637    12.4023 0.0000e+00
      8.083     -0.334     0.9352      8.705    458.172 342.750128     1.1393      6.147   274.9440 1.2377e-01    28.0616      7.922     11.489    12.4020 0.0000e+00
      7.993     -0.339     0.9358      8.681    458.004 342.623282     1.0671      6.147   274.9784 1.2381e-01    24.1820      7.838     11.368    12.4017 0.0000e+00
      7.908     -0.345     0.9309      8.664    457.894 342.540715     1.0286      6.148   275.1420 1.2381e-01    22.0291      7.756     11.248    12.4015 0.0000e+00
      7.825     -0.350     0.9299      8.632    457.784 342.460356     1.0236      6.149   275.3735 1.2376e-01    21.7754      7.672     11.127    12.4014 0.0000e+00
      7.742     -0.359     0.9297      8.582    457.647 342.360212     0.9979      6.150   275.5403 1.2373e-01    21.1147      7.596     11.017    12.4012 0.0000e+00
      7.652     -0.371     0.9242      8.544    457.385 342.167240     0.9593      6.152   275.6953 1.2371e-01    19.9167      7.508     10.889    12.4009 0.0000e+00
      7.551     -0.381     0.9252      8.509    456.978 341.866233     0.9395      6.152   275.9578 1.2373e-01    19.2457      7.406     10.741    12.4010 0.0000e+00
      7.446     -0.387     0.9218      8.463    456.557 341.554762     0.9331      6.152   276.2191 1.2378e-01    19.1503      7.304     10.593    12.4012 0.0000e+00
      7.340     -0.387     0.9141      8.447    456.125 341.235245     0.9328      6.152   276.4451 1.2380e-01    18.8995      7.196     10.438    12.4013 0.0000e+00
      7.238     -0.380     0.9107      8.451    455.587 340.836894     0.9358      6.152   276.4535 1.2383e-01    18.4678      7.095     10.291    12.4018 0.0000e+00
      7.143     -0.367     0.9096      8.428    455.008 340.409462     0.9446      6.152   276.3208 1.2386e-01    18.2692      7.005     10.160    12.4021 0.0000e+00
      7.053     -0.351     0.9004      8.389    454.533 340.060298     0.9638      6.152   276.5615 1.2383e-01    18.3090      6.914     10.028    12.4025 0.0000e+00
      6.967     -0.336     0.8993      8.349    454.137 339.770968     0.9849      6.150   277.0410 1.2379e-01    18.3339      6.831      9.908    12.4028 0.0000e+00
      6.884     -0.328     0.9041      8.302    453.747 339.487299     0.9995      6.147   277.3857 1.2375e-01    18.2964      6.751      9.791    12.4034 0.0000e+00
      6.804     -0.328     0.8983      8.245    453.356 339.206566     0.9991      6.146   277.6317 1.2372e-01    18.2323      6.670      9.675    12.4040 0.0000e+00
      6.728     -0.335     0.8952      8.194    452.987 338.952705     0.9975      6.147   277.7786 1.2374e-01    18.2078      6.599      9.571    12.4046 0.0000e+00
      6.649     -0.345     0.8900      8.149    452.646 338.736316     0.9796      6.147   277.6993 1.2380e-01    18.2389      6.526      9.466    12.4055 0.0000e+00
      6.558     -0.359     0.8867      8.109    452.297 338.522268     0.9414      6.148   277.4478 1.2415e-01    18.2670      6.437      9.336    12.4063 0.0000e+00
      6.457     -0.372     0.8785      8.102    451.941 338.296688     0.9175      6.150   277.3180 1.2809e-01    18.2752      6.330      9.180    12.4073 0.0000e+00
      6.357     -0.382     0.8731      8.095    451.599 338.069634     0.8993      6.151   277.4205 1.5394e-01    18.2694      6.233      9.040    12.4093 0.0000e+00
      6.257     -0.385     0.8700      8.065    451.262 337.837729     0.8958      6.151   277.8279 1.9935e-01    18.1968      6.140      8.904    12.4140 0.0000e+00
      6.154     -0.382     0.8614      8.043    450.950 337.617856     0.9169      6.152   278.3716 2.4201e-01    18.0797      6.033      8.750    12.4200 0.0000e+00
      6.055     -0.377     0.8643      8.047    450.655 337.407458     0.9301      6.152   278.4871 2.8629e-01    17.9807      5.936      8.610    12.4246 0.0000e+00
      5.963     -0.375     0.8645      8.036    450.315 337.161311     0.9302      6.152   278.2779 3.4469e-01    17.9569      5.848      8.481    12.4277 0.0000e+00
      5.874     -0.373     0.8590      7.985    449.949 336.895534     0.9348      6.152   278.3375 4.1680e-01    17.9970      5.760      8.355    12.4299 0.0000e+00
      5.783     -0.368     0.8553      7.930    449.599 336.640940     0.9442      6.154   278.6920 4.9587e-01    17.9869      5.675      8.232    12.4313 0.0000e+00
      5.683     -0.362     0.8585      7.895    449.268 336.401193     0.9518      6.155   278.6930 5.8307e-01    17.9370      5.575      8.085    12.4323 0.0000e+00
      5.583     -0.357     0.8590      7.871    448.969 336.186115     0.9521      6.154   278.2627 6.8131e-01    17.9070      5.471      7.935    12.4333 0.0000e+00
      5.493     -0.354     0.8508      7.840    448.670 335.972206     0.9320      6.154   278.2217 7.9083e-01    17.8633      5.384      7.808    12.4341 0.0000e+00
      5.410     -0.353     0.8440      7.806    448.355 335.746583     0.9000      6.155   278.6277 9.0554e-01    17.7828      5.304      7.692    12.4349 0.0000e+00
      5.329     -0.350     0.8405      7.766    448.035 335.518631     0.8815      6.155   278.7828 1.0396e+00    17.6862      5.227      7.582    12.4358 0.0000e+00
      5.242     -0.349     0.8398      7.726    447.697 335.276529     0.8829      6.154   278.7198 1.2199e+00    17.5828      5.145      7.463    12.4369 0.0000e+00
      5.146     -0.352     0.8352      7.699    447.325 335.008577     0.9338      6.153   278.6409 1.4181e+00    17.3871      5.047      7.320    12.4379 0.0000e+00
      5.050     -0.357     0.8321      7.662    446.932 334.725597     1.0220      6.152   278.4313 1.5934e+00    17.1307      4.947      7.175    12.4390 0.0000e+00
      4.960     -0.365     0.8283      7.623    446.523 334.430536     1.0673      6.152   278.2503 1.7734e+00    17.0105      4.864      7.055    12.4403 0.0000e+00
      4.875     -0.371     0.8217      7.608    446.128 334.145250     1.0737      6.153   278.2593 1.9907e+00    16.9240      4.784      6.939    12.4415 0.0000e+00
      4.783     -0.373     0.8215      7.590    445.807 333.916030     1.1985      6.153   278.4548 2.2456e+00    16.5300      4.694      6.808    12.4427 0.0000e+00
      4.683     -0.374     0.8170      7.567    445.531 333.719375     1.4454      6.152   278.7203 2.5319e+00    15.9687      4.595      6.664    12.4441 0.0000e+00
      4.578     -0.374     0.8097      7.547    445.231 333.505899     1.5868      6.151   279.0612 2.8184e+00    15.7396      4.488      6.509    12.4453 0.0000e+00
      4.478     -0.371     0.8117      7.517    444.894 333.266419     1.6341      6.150   279.0483 3.0855e+00    15.7080      4.387      6.363    12.4464 0.0000e+00
      4.387     -0.366     0.8090      7.469    444.538 333.012855     1.9761      6.150   278.2209 3.3513e+00    14.9712      4.301      6.239    12.4478 0.0000e+00
      4.298     -0.361     0.8054      7.411    444.181 332.757835     2.5920      6.150   277.4028 3.6278e+00    13.5945      4.215      6.114    12.4490 0.0000e+00
      4.213     -0.358     0.8048      7.366    443.822 332.500720     2.9221      6.151   277.0718 3.9207e+00    12.7944      4.131      5.991    12.4501 0.0000e+00
      4.126     -0.357     0.8013      7.336    443.432 332.221796     2.9707      6.153   276.7134 4.2769e+00    12.5735      4.052      5.877    12.4516 0.0000e+00
      4.030     -0.357     0.7965      7.304    442.895 331.831808     3.2971      6.153   275.3064 4.7012e+00    11.4701      3.953      5.733    12.4531 0.0000e+00
      3.932     -0.355     0.7886      7.274    441.861 331.068693     3.9053      6.147   272.6219 5.1308e+00     9.4622      3.852      5.587    12.4545 0.0000e+00
      3.840     -0.352     0.7840      7.250    439.404 329.239470     4.2395      6.138   270.8422 5.5455e+00     8.3477      3.766      5.463    12.4558 0.0000e+00
      3.750     -0.349     0.7818      7.237    434.808 325.807175     4.2834      6.135   270.7377 5.9380e+00     8.2086      3.674      5.330    12.4573 0.0000e+00
      3.667     -0.345     0.7781      7.242    428.518 321.106273     4.4115      6.137   270.5843 6.3488e+00     7.7803      3.594      5.213    12.4587 0.0000e+00
      3.586     -0.343     0.7742      7.243    420.354 315.001177     4.6391      6.139   269.9341 6.8776e+00     7.0289      3.522      5.108    12.4600 0.0000e+00
      3.498     -0.344     0.7724      7.222    409.825 307.122919     4.7720      6.142   269.4143 7.4901e+00     6.6390      3.432      4.979    12.4612 0.0000e+00
      3.407     -0.349     0.7694      7.204    398.160 298.392904     4.7945      6.146   268.7735 8.1073e+00     6.5837      3.339      4.843    12.4626 0.0000e+00
      3.317     -0.356     0.7713      7.185    387.120 290.127082     4.9366      6.152   267.8655 8.7693e+00     6.2240      3.254      4.719    12.4642 0.0000e+00
      3.227     -0.362     0.7735      7.151    376.160 281.918368     5.2165      6.160   267.6424 9.4799e+00     5.5358      3.165      4.591    12.4656 0.0000e+00
      3.136     -0.363     0.7682      7.122    363.838 272.688726     5.3740      6.165   267.3663 1.0251e+01     5.1285      3.076      4.461    12.4671 0.0000e+00
      3.041     -0.363     0.7669      7.094    352.295 264.053692     5.4179      6.168   266.1618 1.1159e+01     5.0907      2.986      4.330    12.4686 0.0000e+00
      2.942     -0.364     0.7671      7.064    340.134 254.983701     5.6139      6.173   265.6405 1.2106e+01     4.9075      2.883      4.180    12.4697 0.0000e+00
      2.849     -0.364     0.7601      6.988    314.159 235.577471     5.9291      6.179   266.2258 1.2989e+01     4.4845      2.789      4.045    12.4702 0.0000e+00
      2.762     -0.363     0.7594      6.832    261.496 196.152481     6.0825      6.184   266.5267 1.3969e+01     4.2121      2.713      3.936    12.4709 0.0000e+00
      2.672     -0.360     0.7553      6.696    182.191 136.751543     6.0874      6.189   266.2674 1.5114e+01     4.1765      2.623      3.804    12.4716 0.0000e+00
      2.577     -0.355     0.7530      6.646    104.511  78.635874     6.0799      6.193   266.3606 1.6316e+01     4.1905      2.525      3.662    12.4779 0.0000e+00
      2.482     -0.349     0.7502      6.671     63.971  48.505032     6.0594      6.198   266.7071 1.7569e+01     4.1770      2.434      3.530    12.4919 0.0000e+00
      2.390     -0.341     0.7251      6.776     53.961  41.375172     6.0465      6.200   266.4133 1.8785e+01     4.1839      2.342      3.397    12.5031 0.0000e+00
      2.304     -0.330     0.7083      6.960     51.530  39.922042     6.0578      6.200   265.6468 1.9938e+01     4.2394      2.259      3.276    12.5205 0.0000e+00
      2.223     -0.319     0.7044      7.310     50.412  39.376865     6.2203      6.200   265.3554 2.1113e+01     4.1984      2.180      3.162    12.6257 0.0000e+00
      2.147     -0.311     0.7001      8.160     49.758  39.099385     6.5208      6.204   265.3849 2.2282e+01     4.0299      2.103      3.050    12.9266 0.0000e+00
      2.073     -0.306     0.7059     10.094     49.075  38.725040     6.6783      6.211   264.7126 2.3494e+01     3.9109      2.034      2.951    13.3648 0.0000e+00
      1.998     -0.302     0.7174     13.789     48.432  38.341199     6.7013      6.220   263.6800 2.4842e+01     3.9205      1.960      2.844    13.7720 0.0000e+00
      1.918     -0.298     0.7367     19.664     48.433  38.456504     6.7159      6.226   262.8805 2.6257e+01     3.9419      1.880      2.727    14.0844 0.0000e+00
      1.839     -0.298     0.7973     27.346     49.030  39.040501     6.6387      6.232   261.9294 2.7675e+01     3.9294      1.802      2.614    14.3116 0.0000e+00
      1.762     -0.300     0.9668     35.852     49.500  39.500559     6.4754      6.237   261.1279 2.9077e+01     3.9404      1.726      2.503    14.4676 0.0000e+00
      1.690     -0.305     1.3180     44.361     49.370  39.449914     6.3725      6.241   260.7610 3.0418e+01     3.9385      1.655      2.401    14.5809 0.0000e+00
      1.620     -0.311     1.9238     52.268     48.994  39.189770     6.3596      6.246   260.5914 3.1837e+01     3.9409      1.593      2.310    14.6945 0.0000e+00
      1.542     -0.319     2.7449     59.084     48.880  39.147568     6.3369      6.252   260.6259 3.3483e+01     3.9344      1.516      2.199    14.8181 0.0000e+00
      1.454     -0.325     3.6226     64.537     48.950  39.257028     6.2726      6.258   260.5750 3.5190e+01     3.8599      1.424      2.065    14.9116 0.0000e+00
      1.364     -0.330     4.4976     68.416     49.040  39.371001     6.2223      6.261   260.0625 3.6820e+01     3.7575      1.337      1.938    14.9546 0.0000e+00
      1.276     -0.334     5.3138     70.718     49.100  39.446799     6.1951      6.263   259.2480 3.8459e+01     3.6877      1.250      1.814    14.9844 0.0000e+00
      1.191     -0.337     5.9985     71.926     49.036  39.411991     6.1273      6.266   258.6417 4.0060e+01     3.6654      1.165      1.690    15.0396 0.0000e+00
      1.111     -0.340     6.5477     72.527     48.914  39.330940     6.0179      6.270   258.5827 4.1552e+01     3.6246      1.088      1.578    15.1000 0.0000e+00
      1.031     -0.345     6.9397     72.722     48.910  39.355301     5.9554      6.269   258.3622 4.3303e+01     3.5697      1.015      1.472    15.1422 0.0000e+00
      0.942     -0.351     7.1404     72.679     48.997  39.452736     5.9365      6.264   257.6115 4.5612e+01     3.5480      0.928      1.346    15.1724 0.0000e+00
      0.844     -0.357     7.2391     72.462     49.027  39.493652     5.8489      6.261   257.0768 4.8150e+01     3.6355      0.826      1.199    15.1836 0.0000e+00
      0.748     -0.358     7.2992     72.113     49.063  39.532732     5.7112      6.261   256.4572 5.0733e+01     3.8422      0.732      1.061    15.1937 0.0000e+00
      0.655     -0.349     7.3015     71.821     49.221  39.671411     5.6534      6.259   255.6271 5.3473e+01     3.9636      0.644      0.934    15.2281 0.0000e+00
      0.563     -0.320     7.2927     71.719     49.412  39.837701     5.6581      6.254   255.2992 5.6151e+01     3.9765      0.549      0.798    15.2622 0.0000e+00
      0.474     -0.273     7.2695     71.713     49.548  39.956757     5.6511      6.251   255.4178 5.8459e+01     3.8606      0.463      0.671    15.2768 0.0000e+00
      0.395     -0.217     7.2243     71.667     49.710  40.095492     5.6353      6.255   255.5127 6.0546e+01     3.5870      0.380      0.551    15.2824 0.0000e+00
      0.340     -0.157     7.1859     71.582     49.888  40.245849     5.6258      6.261   255.4147 6.1452e+01     3.4698      0.318      0.461    15.2941 0.0000e+00
      0.320     -0.101     7.1791     71.502     49.968  40.315035     5.6276      6.266   255.2648 6.0625e+01     3.5369      0.306      0.444    15.3097 0.0000e+00
      0.320     -0.056     7.1851     71.453     50.021  40.360847     5.6311      6.270   255.1625 6.0013e+01     3.5787      0.316      0.457    15.3185 0.0000e+00
      0.325     -0.027     7.1757     71.416     50.165  40.482431     5.6432      6.272   254.8666 6.0482e+01     3.8034      0.320      0.464    15.3253 0.0000e+00
      0.326     -0.018     7.1659     71.325     49.415  39.881117     5.6657      6.274   254.4401 6.1119e+01     4.2731      0.319      0.463    15.3344 0.0000e+00
      0.325     -0.024     7.1551     71.165     47.524  38.357522     5.6792      6.278   254.1362 6.1669e+01     4.5776      0.321      0.465    15.3375 0.0000e+00
      0.319     -0.036     7.1509     70.973     46.357  37.418383     5.6896      6.283   253.9452 6.2199e+01     4.6496      0.319      0.462    15.3390 0.0000e+00
      0.304     -0.046     7.1494     70.774     46.187  37.283740     5.6826      6.290   253.6797 6.2612e+01     4.5967      0.299      0.434    15.3458 0.0000e+00
      0.285     -0.051     7.1407     70.603     46.125  37.237222     5.6450      6.296   253.1618 6.3383e+01     4.4516      0.277      0.402    15.3504 0.0000e+00
      0.268     -0.052     7.1213     70.482     46.117  37.236676     5.6175      6.300   252.6740 6.4530e+01     4.3636      0.262      0.380    15.3525 0.0000e+00
      0.253     -0.054     7.1018     70.382     46.159  37.277138     5.6088      6.299   252.2565 6.5267e+01     4.4894      0.246      0.357    15.3553 0.0000e+00
      0.243     -0.062     7.0808     70.320     46.238  37.345723     5.5312      6.297   251.8134 6.5796e+01     5.9041      0.235      0.341    15.3579 0.0000e+00
      0.238     -0.083     7.0598     70.299     46.343  37.431382     5.3784      6.298   251.8761 6.7110e+01     8.3858      0.233      0.338    15.3613 0.0000e+00
      0.228     -0.117     7.0515     70.282     46.413  37.487904     5.2846      6.303   256.1985 7.0415e+01     9.6955      0.230      0.334    15.3684 0.0000e+00
      0.203     -0.157     7.0370     70.251     46.377  37.458024     5.2704      6.310   264.0677 7.7092e+01     9.7498      0.208      0.300    15.3766 0.0000e+00
      0.153     -0.193     7.0302     70.219     46.286  37.387391     5.2983      6.315   267.9519 8.7844e+01     9.1788      0.156      0.226    15.3815 0.0000e+00
      0.084     -0.215     7.0302     70.199     46.209  37.331906     5.3482      6.315   268.0573 1.0119e+02     8.1540      0.085      0.125    15.3823 0.0000e+00
      0.004     -0.219     7.0288     70.162     46.152  37.294819     5.3652      6.316   268.0958 1.1756e+02     7.5734      0.002      0.003    15.3812 0.0000e+00
     -0.070     -0.212     7.0261     70.135     46.169  37.319719     5.3467      6.320   268.0729 1.3799e+02     7.3856     -0.078     -0.113    15.3793 0.0000e+00
     -0.120     -0.204     7.0200     70.168     46.229  37.379157     5.3158      6.325   268.2105 1.5684e+02     6.8053     -0.128     -0.185    15.3824 0.0000e+00
     -0.148     -0.201     7.0203     70.245     46.223  37.378946     5.2993      6.328   268.5550 1.7204e+02     5.9199     -0.148     -0.216    15.3908 0.0000e+00
     -0.171     -0.204     7.0137     70.376     46.144  37.317175     5.3062      6.327   268.7115 1.9598e+02     5.4930     -0.158     -0.229    15.3997 0.0000e+00
     -0.217     -0.210     7.0051     70.567     46.079  37.266848     5.2903      6.325   268.7257 2.3386e+02     5.4363     -0.198     -0.287    15.4127 0.0000e+00
     -0.293     -0.215     7.0097     70.732     46.086  37.278090     5.1734      6.325   268.8124 2.6667e+02     5.5068     -0.287     -0.415    15.4264 0.0000e+00
     -0.377     -0.210     7.0157     70.822     46.141  37.326203     4.0426      6.328   268.8130 2.7936e+02     7.3018     -0.378     -0.549    15.4312 0.0000e+00
     -0.444     -0.190     7.0261     70.870     46.159  37.340943     1.9720      6.334   268.5606 2.7906e+02    10.6753     -0.443     -0.643    15.4303 0.0000e+00
     -0.487     -0.157     7.0509     70.930     46.147  37.329390     0.8460      6.339   265.5884 2.7641e+02    12.5113     -0.485     -0.703    15.4332 0.0000e+00
     -0.512     -0.125     7.0680     71.030     46.130  37.313425     0.7236      6.339   250.7733 2.7500e+02    12.3873     -0.505     -0.733    15.4403 0.0000e+00
     -0.523     -0.105     7.0737     71.092     45.927  37.147918     0.5011      6.335   233.0310 2.7750e+02     9.5523     -0.516     -0.748    15.4448 0.0000e+00
     -0.530     -0.096     7.0780     70.976     43.837  35.455173     0.1282      6.330   230.5469 2.7985e+02     4.4679     -0.518     -0.751    15.4447 0.0000e+00
     -0.549     -0.091     7.0804     70.496     33.618  27.188714    -0.0656      6.324   232.6113 2.7328e+02     1.7417     -0.524     -0.761    15.4417 0.0000e+00
     -0.590     -0.087     7.0955     69.605     17.774  14.374223    -0.0771      6.319   231.8351 2.5645e+02     1.5252     -0.577     -0.837    15.4399 0.0000e+00
     -0.634     -0.080     7.1068     68.650      9.139   7.389343    -0.0947      6.316   231.7455 2.2875e+02     1.3719     -0.636     -0.921    15.4380 0.0000e+00
     -0.655     -0.067     7.1008     68.029      7.509   6.069543    -0.1280      6.314   229.1180 1.9096e+02     1.0840     -0.647     -0.939    15.4355 0.0000e+00
     -0.659     -0.048     7.0631     67.863      6.432   5.195968    -0.1380      6.314   226.4800 1.5335e+02     0.9476     -0.646     -0.937    15.4341 0.0000e+00
     -0.660     -0.037     6.9543     67.893      5.877   4.746447    -0.1326      6.314   226.0056 1.3011e+02     0.9533     -0.648     -0.939    15.4333 0.0000e+00
     -0.661 -9.990e-29     6.8460 -9.990e-29 -9.990e-29 -9.990e-29 -9.990e-29 -9.990e-29 -9.990e-29 1.2447e+02 -9.990e-29     -0.647     -0.939    15.4245 0.0000e+00
     -0.661 -9.990e-29     6.7802 -9.990e-29 -9.990e-29 -9.990e-29 -9.990e-29 -9.990e-29 -9.990e-29 1.2585e+02 -9.990e-29     -0.648     -0.941    15.4106 0.0000e+00
     -0.661 -9.990e-29     6.7763 -9.990e-29 -9.990e-29 -9.990e-29 -9.990e-29 -9.990e-29 -9.990e-29 1.2696e+02 -9.990e-29     -0.648     -0.940    15.3861 0.0000e+00
     -0.661 -9.990e-29     6.8052 -9.990e-29 -9.990e-29 -9.990e-29 -9.990e-29 -9.990e-29 -9.990e-29 1.2740e+02 -9.990e-29     -0.647     -0.939    15.3664 0.0000e+00
