* Sea-Bird SBE19plus  Data File:
* FileName = C:\DATA\102319_fcr50_0001.hex
* Software version 2.8.0.119 SB_Terminal.dll
* Temperature SN = 7809
* Conductivity SN = 7809
* System UpLoad Time = Oct 23 2019 09:54:47
* <ApplicationData>
* <Seaterm232>
* <SoftwareVersion>2.8.0.119</SoftwareVersion>
* <BuildDate>07-Nov-2018</BuildDate>
* </Seaterm232>
* </ApplicationData>
* cast   1 18 Oct 2019 13:05:43 samples 1 to 916, avg = 1, stop = mag switch
# nquan = 16
# nvalues = 679                         
# units = specified
# name 0 = depFM: Depth [fresh water, m]
# name 1 = dz/dtM: Descent Rate [m/s]
# name 2 = sbeox0ML/L: Oxygen, SBE 43 [ml/l]
# name 3 = sbeox0PS: Oxygen, SBE 43 [% saturation]
# name 4 = specc: Specific Conductance [uS/cm]
# name 5 = c0uS/cm: Conductivity [uS/cm]
# name 6 = flECO-AFL: Fluorescence, WET Labs ECO-AFL/FL [mg/m^3]
# name 7 = ph: pH
# name 8 = orp: Oxidation Reduction Potential [mV]
# name 9 = par/sat/log: PAR/Logarithmic, Satlantic
# name 10 = turbWETntu0: Turbidity, WET Labs ECO [NTU]
# name 11 = prdM: Pressure, Strain Gauge [db]
# name 12 = prdE: Pressure, Strain Gauge [psi]
# name 13 = tv290C: Temperature [ITS-90, deg C]
# name 14 = density00: Density [density, kg/m^3]
# name 15 = flag:  0.000e+00
# span 0 =     -0.686,      9.855       
# span 1 =     -0.010,      0.158       
# span 2 =    -0.9738,     6.9052       
# span 3 =    -12.000,     98.739       
# span 4 =      4.533,    328.613       
# span 5 =   3.683303, 225.503136       
# span 6 =    -0.1456,     6.2088       
# span 7 =      6.460,      8.895       
# span 8 = -1239.0200,   602.6158       
# span 9 = 1.2358e-01, 2.0322e+03       
# span 10 =    -0.2771,     8.0459      
# span 11 =     -0.674,      9.666      
# span 12 =     -0.977,     14.019      
# span 13 =     9.3027,    15.6327      
# span 14 =   999.0069,   999.9320      
# span 15 = 0.0000e+00, 0.0000e+00      
# interval = seconds: 0.25
# start_time = Oct 18 2019 13:05:43 [Instrument's time stamp, header]
# bad_flag = -9.990e-29
# <Sensors count="9" >
#   <sensor Channel="1" >
#     <!-- Count, Temperature -->
#     <TemperatureSensor SensorID="58" >
#       <SerialNumber>7809</SerialNumber>
#       <CalibrationDate>24-Mar-19</CalibrationDate>
#       <A0>1.21792325e-003</A0>
#       <A1>2.81669265e-004</A1>
#       <A2>-1.60333336e-006</A2>
#       <A3>1.98414625e-007</A3>
#       <Slope>1.00000000</Slope>
#       <Offset>0.0000</Offset>
#     </TemperatureSensor>
#   </sensor>
#   <sensor Channel="2" >
#     <!-- Frequency 0, Conductivity -->
#     <ConductivitySensor SensorID="3" >
#       <SerialNumber>7809</SerialNumber>
#       <CalibrationDate>24-Mar-19</CalibrationDate>
#       <UseG_J>1</UseG_J>
#       <!-- Cell const and series R are applicable only for wide range sensors. -->
#       <SeriesR>0.0000</SeriesR>
#       <CellConst>2000.0000</CellConst>
#       <ConductivityType>0</ConductivityType>
#       <Coefficients equation="0" >
#         <A>0.00000000e+000</A>
#         <B>0.00000000e+000</B>
#         <C>0.00000000e+000</C>
#         <D>0.00000000e+000</D>
#         <M>0.0</M>
#         <CPcor>-9.57000000e-008</CPcor>
#       </Coefficients>
#       <Coefficients equation="1" >
#         <G>-1.00589325e+000</G>
#         <H>1.26816302e-001</H>
#         <I>-1.51560448e-004</I>
#         <J>2.67137274e-005</J>
#         <CPcor>-9.57000000e-008</CPcor>
#         <CTcor>3.2500e-006</CTcor>
#         <!-- WBOTC not applicable unless ConductivityType = 1. -->
#         <WBOTC>0.00000000e+000</WBOTC>
#       </Coefficients>
#       <Slope>1.00000000</Slope>
#       <Offset>0.00000</Offset>
#     </ConductivitySensor>
#   </sensor>
#   <sensor Channel="3" >
#     <!-- Count, Pressure, Strain Gauge -->
#     <PressureSensor SensorID="46" >
#       <SerialNumber>7809</SerialNumber>
#       <CalibrationDate>11-Mar-19</CalibrationDate>
#       <PA0>4.56561833e-002</PA0>
#       <PA1>4.85095118e-004</PA1>
#       <PA2>-2.88327090e-012</PA2>
#       <PTEMPA0>-5.48784562e+001</PTEMPA0>
#       <PTEMPA1>5.53756816e+001</PTEMPA1>
#       <PTEMPA2>-5.86727098e-001</PTEMPA2>
#       <PTCA0>5.25246745e+005</PTCA0>
#       <PTCA1>1.22304214e+001</PTCA1>
#       <PTCA2>-3.56745036e-001</PTCA2>
#       <PTCB0>2.51668750e+001</PTCB0>
#       <PTCB1>3.75000000e-004</PTCB1>
#       <PTCB2>0.00000000e+000</PTCB2>
#       <Offset>0.000000</Offset>
#     </PressureSensor>
#   </sensor>
#   <sensor Channel="4" >
#     <!-- A/D voltage 0, Oxygen, SBE 43 -->
#     <OxygenSensor SensorID="38" >
#       <SerialNumber>0434</SerialNumber>
#       <CalibrationDate>13-Apr-19</CalibrationDate>
#       <Use2007Equation>1</Use2007Equation>
#       <CalibrationCoefficients equation="0" >
#         <!-- Coefficients for Owens-Millard equation. -->
#         <Boc>0.0000</Boc>
#         <Soc>0.0000e+000</Soc>
#         <offset>0.0000</offset>
#         <Pcor>0.00e+000</Pcor>
#         <Tcor>0.0000</Tcor>
#         <Tau>0.0</Tau>
#       </CalibrationCoefficients>
#       <CalibrationCoefficients equation="1" >
#         <!-- Coefficients for Sea-Bird equation - SBE calibration in 2007 and later. -->
#         <Soc>4.2007e-001</Soc>
#         <offset>-0.6109</offset>
#         <A>-4.3656e-003</A>
#         <B> 1.7017e-004</B>
#         <C>-2.5341e-006</C>
#         <D0> 2.5826e+000</D0>
#         <D1> 1.92634e-004</D1>
#         <D2>-4.64803e-002</D2>
#         <E> 3.6000e-002</E>
#         <Tau20> 1.1800</Tau20>
#         <H1>-3.3000e-002</H1>
#         <H2> 5.0000e+003</H2>
#         <H3> 1.4500e+003</H3>
#       </CalibrationCoefficients>
#     </OxygenSensor>
#   </sensor>
#   <sensor Channel="5" >
#     <!-- A/D voltage 1, PAR/Logarithmic, Satlantic -->
#     <PARLog_SatlanticSensor SensorID="76" >
#       <SerialNumber>1122</SerialNumber>
#       <CalibrationDate>08-May-2019</CalibrationDate>
#       <a0>9.7456e-001</a0>
#       <a1>8.1640e-001</a1>
#       <Im>1.3589e+000</Im>
#       <Multiplier>1.0000e+000</Multiplier>
#     </PARLog_SatlanticSensor>
#   </sensor>
#   <sensor Channel="6" >
#     <!-- A/D voltage 2, pH -->
#     <pH_Sensor SensorID="43" >
#       <SerialNumber>0363</SerialNumber>
#       <CalibrationDate>15-Apr-19</CalibrationDate>
#       <Slope>4.5952</Slope>
#       <Offset>2.5370</Offset>
#     </pH_Sensor>
#   </sensor>
#   <sensor Channel="7" >
#     <!-- A/D voltage 3, Oxidation Reduction Potential -->
#     <OxidationReductionPotentialSensor SensorID="41" >
#       <SerialNumber>0363</SerialNumber>
#       <CalibrationDate>15-Apr-19</CalibrationDate>
#       <B>2.499480</B>
#       <M>-0.496195</M>
#       <Offset>0.0</Offset>
#     </OxidationReductionPotentialSensor>
#   </sensor>
#   <sensor Channel="8" >
#     <!-- A/D voltage 4, Fluorometer, WET Labs ECO-AFL/FL -->
#     <FluoroWetlabECO_AFL_FL_Sensor SensorID="20" >
#       <SerialNumber>FLNTURT-2496</SerialNumber>
#       <CalibrationDate>08-May-2019</CalibrationDate>
#       <ScaleFactor>5.00000000e+001</ScaleFactor>
#       <!-- Dark output -->
#       <Vblank>0.0550</Vblank>
#     </FluoroWetlabECO_AFL_FL_Sensor>
#   </sensor>
#   <sensor Channel="9" >
#     <!-- A/D voltage 5, Turbidity Meter, WET Labs, ECO-NTU -->
#     <TurbidityMeter SensorID="67" >
#       <SerialNumber>FLNTURT-2496</SerialNumber>
#       <CalibrationDate>08-May-2019</CalibrationDate>
#       <ScaleFactor>189.000000</ScaleFactor>
#       <!-- Dark output -->
#       <DarkVoltage>0.071000</DarkVoltage>
#     </TurbidityMeter>
#   </sensor>
# </Sensors>
# datcnv_date = Oct 23 2019 09:58:34, 7.26.7.129 [datcnv_vars = 15]
# datcnv_in = C:\DATA\101819_bvr50.hex C:\DATA\SBE19plusV2_7809.xmlcon
# datcnv_skipover = 0
# datcnv_ox_hysteresis_correction = yes
# datcnv_ox_tau_correction = yes
# filter_date = Oct 23 2019 09:58:58, 7.26.7.129
# filter_in = C:\DATA\101819_bvr50.cnv
# filter_low_pass_tc_A = 0.030
# filter_low_pass_tc_B = 0.150
# filter_low_pass_A_vars = sbeox0ML/L prdM prdE tv290C density00
# filter_low_pass_B_vars = depFM dz/dtM sbeox0PS specc c0uS/cm flECO-AFL ph orp par/sat/log turbWETntu0
# alignctd_date = Oct 23 2019 09:59:23, 7.26.7.129
# alignctd_in = C:\DATA\101819_bvr50.cnv
# alignctd_adv = dz/dtM 1.000, sbeox0PS 1.000, specc 1.000, c0uS/cm 1.000, flECO-AFL 1.000, ph 1.000, orp 1.000, turbWETntu0 1.000                                                                                                   
# file_type = ascii
*END*
     -0.686      0.001     6.6812     95.974      4.533   3.683303    -0.1456      6.595 -1239.0200 1.8908e+03    -0.2771     -0.672     -0.974    15.6213   999.0085 0.0000e+00
     -0.685      0.005     6.6831     95.979      7.170   5.822117    -0.1346      6.650 -1221.7647 1.9052e+03    -0.2324     -0.673     -0.976    15.6237   999.0081 0.0000e+00
     -0.685      0.013     6.6821     95.996     12.455  10.103456    -0.1296      6.823 -1031.9562 1.9148e+03    -0.1904     -0.671     -0.974    15.6266   999.0078 0.0000e+00
     -0.685      0.023     6.6811     96.000     20.307  16.463157    -0.1015      7.090  -310.5384 1.9037e+03     0.2638     -0.674     -0.977    15.6301   999.0071 0.0000e+00
     -0.680      0.035     6.6804     95.977     26.806  21.724447    -0.0457      7.421   495.7783 1.8921e+03     1.1300     -0.669     -0.970    15.6327   999.0069 0.0000e+00
     -0.670      0.049     6.6833     95.975     30.719  24.889503    -0.0101      7.811   602.6158 1.9051e+03     1.5981     -0.659     -0.956    15.6106   999.0110 0.0000e+00
     -0.653      0.066     6.6918     95.994     32.797  26.567973     0.0159      8.144   422.5723 1.9274e+03     1.7289     -0.646     -0.938    15.5662   999.0192 0.0000e+00
     -0.630      0.082     6.6977     95.987     33.002  26.730257     0.1912      8.343   388.2170 1.9365e+03     2.7762     -0.613     -0.889    15.5332   999.0279 0.0000e+00
     -0.611      0.095     6.6958     95.983     32.524  26.344219     0.5056      8.455   378.5807 1.9311e+03     4.6914     -0.600     -0.871    15.5170   999.0324 0.0000e+00
     -0.588      0.100     6.6964     95.993     32.201  26.087647     0.6787      8.535   372.3110 1.9280e+03     5.7474     -0.582     -0.845    15.5091   999.0348 0.0000e+00
     -0.553      0.100     6.7024     95.973     31.978  25.911966     0.6805      8.615   366.3567 1.9311e+03     5.7120     -0.542     -0.785    15.4990   999.0375 0.0000e+00
     -0.517      0.096     6.7008     95.957     31.764  25.742652     0.5091      8.695   361.1374 1.9338e+03     4.2967     -0.505     -0.732    15.4902   999.0387 0.0000e+00
     -0.492      0.091     6.6990     95.977     31.617  25.626500     0.1938      8.766   357.1281 1.9266e+03     1.7441     -0.477     -0.692    15.4941   999.0380 0.0000e+00
     -0.477      0.083     6.7017     96.011     31.644  25.649507     0.0238      8.826   353.9311 1.7947e+03     0.3776     -0.469     -0.680    15.5044   999.0364 0.0000e+00
     -0.462      0.077     6.6969     96.056     31.788  25.767061     0.0396      8.862   351.5643 1.6167e+03     0.4250     -0.457     -0.664    15.5122   999.0351 0.0000e+00
     -0.443      0.077     6.6936     96.141     31.801  25.779046     0.4021      8.874   349.1606 1.6106e+03     2.3502     -0.430     -0.624    15.5182   999.0343 0.0000e+00
     -0.428      0.082     6.6958     96.285     31.819  25.794412     1.0787      8.881   345.7764 1.5062e+03     5.9250     -0.421     -0.610    15.5239   999.0334 0.0000e+00
     -0.409      0.089     6.6979     96.462     32.092  26.016289     1.4572      8.890   342.1360 1.1450e+03     7.8922     -0.408     -0.592    15.5252   999.0332 0.0000e+00
     -0.380      0.093     6.7001     96.657     32.292  26.177887     1.5019      8.895   338.9580 1.0323e+03     8.0459     -0.369     -0.536    15.5251   999.0335 0.0000e+00
     -0.350      0.093     6.7047     96.887     32.119  26.035374     1.5674      8.895   336.3469 1.3948e+03     7.7177     -0.343     -0.498    15.5274   999.0332 0.0000e+00
     -0.324      0.090     6.7158     97.140     31.774  25.752319     1.6772      8.889   334.2269 1.7638e+03     7.1033     -0.319     -0.461    15.5298   999.0329 0.0000e+00
     -0.300      0.083     6.7285     97.390     31.444  25.483423     1.7371      8.879   332.0811 1.7852e+03     6.7788     -0.291     -0.421    15.5306   999.0331 0.0000e+00
     -0.282      0.078     6.7410     97.621     31.166  25.258304     1.7446      8.864   329.9325 1.5114e+03     6.7428     -0.276     -0.400    15.5314   999.0331 0.0000e+00
     -0.267      0.081     6.7580     97.802     30.998  25.123911     1.7428      8.844   328.2101 1.0839e+03     6.7331     -0.261     -0.379    15.5283   999.0336 0.0000e+00
     -0.254      0.091     6.7780     97.948     30.921  25.063808     1.7762      8.821   327.0013 7.0069e+02     6.7935     -0.248     -0.361    15.5199   999.0348 0.0000e+00
     -0.238      0.103     6.7951     98.127     30.886  25.039114     1.8440      8.796   326.5016 5.2795e+02     6.9154     -0.239     -0.348    15.5170   999.0353 0.0000e+00
     -0.209      0.113     6.8131     98.419     30.853  25.015654     1.8687      8.771   326.2983 5.9345e+02     6.9947     -0.211     -0.306    15.5184   999.0351 0.0000e+00
     -0.165      0.117     6.8248     98.739     30.794  24.970473     1.8590      8.746   325.7481 8.0066e+02     6.9987     -0.162     -0.235    15.5199   999.0350 0.0000e+00
     -0.120      0.113     6.8322     98.577     30.751  24.936903     1.9000      8.726   324.9259 7.8649e+02     6.8980     -0.113     -0.163    15.5253   999.0344 0.0000e+00
     -0.089      0.102     6.8420     97.308     30.739  24.926940     1.9909      8.712   324.0994 5.4946e+02     6.7600     -0.082     -0.119    15.5323   999.0334 0.0000e+00
     -0.069      0.083     6.8594     94.726     30.723  24.913448     2.0486      8.704   323.2409 7.7343e+02     6.7400     -0.065     -0.096    15.5375   999.0328 0.0000e+00
     -0.056      0.063     6.8964     91.068     30.708  24.900646     2.0597      8.697   322.5480 1.4060e+03     6.7543     -0.053     -0.078    15.5408   999.0322 0.0000e+00
     -0.046      0.045     6.9052     86.776     30.706  24.899028     2.0821      8.690   321.9167 1.5301e+03     6.8015     -0.044     -0.064    15.5424   999.0319 0.0000e+00
     -0.038      0.033     6.8200     82.275     30.700  24.893888     2.1283      8.685   321.0280 1.3526e+03     6.9180     -0.036     -0.053    15.5424   999.0320 0.0000e+00
     -0.031      0.025     6.6333     77.964     30.710  24.901931     2.1591      8.682   320.1480 1.3472e+03     6.9830     -0.030     -0.045    15.5417   999.0321 0.0000e+00
     -0.025      0.019     6.3658     74.266     30.748  24.932843     2.1680      8.678   319.5367 1.2036e+03     6.9974     -0.024     -0.034    15.5410   999.0322 0.0000e+00
     -0.020      0.011     6.0561     71.433     30.770  24.950449     2.1757      8.669   319.0577 1.0366e+03     6.9282     -0.019     -0.027    15.5407   999.0323 0.0000e+00
     -0.017      0.004     5.7346     69.452     30.738  24.924498     2.1734      8.660   318.5716 9.0494e+02     6.8022     -0.016     -0.023    15.5406   999.0323 0.0000e+00
     -0.017     -0.001     5.4208     68.163     30.674  24.872825     2.1664      8.652   318.0475 8.3300e+02     6.7521     -0.015     -0.022    15.5406   999.0323 0.0000e+00
     -0.020     -0.004     5.1566     67.326     30.625  24.833168     2.1697      8.646   317.1091 9.0540e+02     6.7479     -0.019     -0.028    15.5406   999.0323 0.0000e+00
     -0.025     -0.005     4.9608     66.718     30.615  24.825629     2.1696      8.643   315.7437 1.0004e+03     6.7513     -0.025     -0.037    15.5405   999.0323 0.0000e+00
     -0.028     -0.004     4.8263     66.270     30.638  24.845112     2.1736      8.641   314.6161 1.2644e+03     6.7282     -0.028     -0.041    15.5403   999.0323 0.0000e+00
     -0.029     -0.003     4.7427     65.981     30.678  24.878424     2.1836      8.641   313.8861 1.5207e+03     6.6971     -0.029     -0.042    15.5398   999.0324 0.0000e+00
     -0.027     -0.003     4.6912     65.816     30.718  24.911224     2.1780      8.638   313.1979 1.5629e+03     6.7030     -0.026     -0.039    15.5397   999.0324 0.0000e+00
     -0.025     -0.004     4.6497     65.792     30.733  24.924507     2.1668      8.634   312.4047 1.6306e+03     6.7019     -0.023     -0.035    15.5403   999.0323 0.0000e+00
     -0.024     -0.005     4.6166     65.966     30.717  24.912153     2.1696      8.630   311.7809 1.6296e+03     6.7168     -0.023     -0.033    15.5415   999.0322 0.0000e+00
     -0.027     -0.007     4.5993     66.341     30.687  24.888728     2.1771      8.624   311.2483 1.3642e+03     6.7519     -0.026     -0.037    15.5433   999.0320 0.0000e+00
     -0.032     -0.007     4.5864     66.878     30.695  24.895031     2.1793      8.615   310.6105 9.2628e+02     6.7651     -0.031     -0.045    15.5451   999.0316 0.0000e+00
     -0.037     -0.006     4.5823     67.507     30.731  24.924916     2.1785      8.608   310.0920 8.4254e+02     6.7457     -0.037     -0.054    15.5465   999.0313 0.0000e+00
     -0.039     -0.004     4.5949     68.128     30.741  24.932886     2.1762      8.603   309.6256 1.1230e+03     6.7136     -0.040     -0.058    15.5474   999.0312 0.0000e+00
     -0.037     -0.001     4.6218     68.660     30.735  24.927957     2.1772      8.596   309.1876 1.2872e+03     6.7051     -0.036     -0.052    15.5481   999.0311 0.0000e+00
     -0.033     -0.000     4.6608     69.040     30.736  24.928751     2.1737      8.589   309.0120 1.3803e+03     6.7411     -0.031     -0.046    15.5486   999.0310 0.0000e+00
     -0.032     -0.001     4.7074     69.205     30.753  24.942488     2.1687      8.582   308.8789 1.3328e+03     6.7886     -0.032     -0.045    15.5492   999.0310 0.0000e+00
     -0.033     -0.002     4.7528     69.151     30.784  24.967174     2.1688      8.573   308.3520 1.0761e+03     6.7873     -0.033     -0.047    15.5494   999.0309 0.0000e+00
     -0.034     -0.005     4.7905     68.874     30.791  24.973475     2.1664      8.565   307.5455 1.0469e+03     6.7583     -0.033     -0.048    15.5493   999.0309 0.0000e+00
     -0.037     -0.007     4.8203     68.421     30.769  24.955239     2.1655      8.561   306.8724 1.1877e+03     6.7332     -0.036     -0.052    15.5490   999.0309 0.0000e+00
     -0.041     -0.007     4.8302     67.928     30.746  24.937004     2.1665      8.557   306.3219 9.1180e+02     6.7134     -0.040     -0.059    15.5488   999.0310 0.0000e+00
     -0.042     -0.007     4.8271     67.471     30.754  24.943306     2.1527      8.551   305.7071 6.9235e+02     6.7479     -0.042     -0.060    15.5488   999.0310 0.0000e+00
     -0.043     -0.007     4.8084     67.079     30.785  24.968001     2.1278      8.544   305.2895 8.1038e+02     6.8561     -0.041     -0.059    15.5488   999.0310 0.0000e+00
     -0.045     -0.007     4.7702     66.771     30.802  24.981831     2.1171      8.535   305.1445 7.5854e+02     6.9399     -0.044     -0.064    15.5489   999.0309 0.0000e+00
     -0.047     -0.006     4.7359     66.541     30.804  24.983656     2.1195      8.525   304.8150 5.7398e+02     6.9415     -0.046     -0.067    15.5490   999.0309 0.0000e+00
     -0.048     -0.003     4.7028     66.379     30.812  24.990061     2.1387      8.517   304.3165 6.8648e+02     6.8755     -0.046     -0.067    15.5492   999.0309 0.0000e+00
     -0.050      0.000     4.6751     66.261     30.819  24.995837     2.1673      8.509   303.6771 1.1454e+03     6.7975     -0.050     -0.072    15.5489   999.0309 0.0000e+00
     -0.051      0.004     4.6541     66.162     30.813  24.990062     2.1708      8.503   302.8495 1.2330e+03     6.7521     -0.051     -0.075    15.5488   999.0309 0.0000e+00
     -0.049      0.006     4.6377     66.037     30.805  24.983668     2.1635      8.500   302.3111 8.7330e+02     6.7199     -0.049     -0.071    15.5487   999.0309 0.0000e+00
     -0.045      0.007     4.6279     65.860     30.802  24.981966     2.1655      8.498   301.9853 7.2672e+02     6.7359     -0.044     -0.063    15.5485   999.0310 0.0000e+00
     -0.040      0.007     4.6192     65.647     30.787  24.969488     2.1685      8.496   301.5785 8.4867e+02     6.8143     -0.038     -0.057    15.5485   999.0310 0.0000e+00
     -0.037      0.005     4.6144     65.409     30.776  24.959666     2.1745      8.492   301.3501 1.0001e+03     6.9134     -0.035     -0.051    15.5484   999.0311 0.0000e+00
     -0.037      0.002     4.6063     65.144     30.814  24.990084     2.1777      8.488   301.2020 1.2045e+03     6.9843     -0.035     -0.051    15.5484   999.0311 0.0000e+00
     -0.038     -0.001     4.5932     64.892     30.851  25.020081     2.1721      8.484   300.9061 1.2488e+03     7.0160     -0.037     -0.054    15.5483   999.0311 0.0000e+00
     -0.041     -0.003     4.5779     64.688     30.832  25.005173     2.1681      8.479   300.6976 1.3738e+03     6.9687     -0.040     -0.059    15.5482   999.0311 0.0000e+00
     -0.042     -0.004     4.5618     64.488     30.826  25.000140     2.1633      8.473   300.4024 1.9442e+03     6.8383     -0.042     -0.061    15.5476   999.0311 0.0000e+00
     -0.042     -0.004     4.5428     64.290     30.854  25.022670     2.1573      8.468   299.8319 2.0322e+03     6.7509     -0.041     -0.060    15.5472   999.0312 0.0000e+00
     -0.043     -0.003     4.5222     64.101     30.856  25.023825     2.1656      8.463   299.3928 1.5788e+03     6.7641     -0.041     -0.060    15.5470   999.0313 0.0000e+00
     -0.045     -0.001     4.5116     63.881     30.844  25.014107     2.1770      8.460   299.1371 1.3409e+03     6.8674     -0.044     -0.065    15.5468   999.0313 0.0000e+00
     -0.045     -0.001     4.4969     63.652     30.867  25.032045     2.1737      8.455   298.8910 1.1292e+03     6.9836     -0.045     -0.065    15.5468   999.0313 0.0000e+00
     -0.044     -0.001     4.4814     63.426     30.890  25.050395     2.1692      8.446   298.5682 9.1335e+02     7.0219     -0.043     -0.063    15.5467   999.0313 0.0000e+00
     -0.044     -0.000     4.4721     63.198     30.884  25.045667     2.1739      8.437   297.9877 1.1679e+03     7.0025     -0.042     -0.062    15.5462   999.0314 0.0000e+00
     -0.044      0.000     4.4539     62.989     30.874  25.038327     2.1619      8.431   297.3780 1.3544e+03     6.9133     -0.043     -0.062    15.5456   999.0315 0.0000e+00
     -0.044      0.000     4.4385     62.792     30.858  25.025083     2.1279      8.426   297.0471 9.1081e+02     6.7622     -0.044     -0.064    15.5449   999.0316 0.0000e+00
     -0.043     -0.001     4.4235     62.594     30.842  25.012405     2.1089      8.421   296.8257 6.2015e+02     6.6827     -0.043     -0.062    15.5445   999.0317 0.0000e+00
     -0.043     -0.003     4.4059     62.408     30.842  25.011915     2.1147      8.415   296.5950 7.4509e+02     6.7070     -0.041     -0.060    15.5445   999.0317 0.0000e+00
     -0.043     -0.005     4.3922     62.240     30.851  25.019150     2.1279      8.408   296.3223 8.7141e+02     6.7285     -0.042     -0.061    15.5447   999.0316 0.0000e+00
     -0.045     -0.005     4.3790     62.070     30.872  25.036450     2.1299      8.402   295.9382 9.8584e+02     6.7129     -0.043     -0.063    15.5449   999.0316 0.0000e+00
     -0.049     -0.004     4.3647     61.890     30.865  25.030778     2.1215      8.397   295.6506 1.1450e+03     6.7142     -0.047     -0.068    15.5449   999.0316 0.0000e+00
     -0.053     -0.003     4.3511     61.696     30.844  25.014003     2.1130      8.392   295.6842 1.1045e+03     6.7441     -0.053     -0.077    15.5449   999.0316 0.0000e+00
     -0.053     -0.001     4.3406     61.478     30.856  25.023940     2.1057      8.385   295.7420 1.0641e+03     6.7467     -0.054     -0.078    15.5451   999.0315 0.0000e+00
     -0.050      0.002     4.3285     61.247     30.855  25.024053     2.1206      8.379   295.4023 1.4511e+03     6.7123     -0.048     -0.069    15.5451   999.0316 0.0000e+00
     -0.048      0.006     4.3159     61.002     30.845  25.015364     2.1537      8.375   294.9323 1.7252e+03     6.6888     -0.046     -0.066    15.5450   999.0316 0.0000e+00
     -0.048      0.007     4.3033     60.723     30.882  25.045762     2.1679      8.374   294.6198 1.4610e+03     6.6930     -0.048     -0.069    15.5454   999.0315 0.0000e+00
     -0.046      0.005     4.2871     60.412     30.917  25.074408     2.1706      8.371   294.3766 1.3146e+03     6.7301     -0.047     -0.067    15.5457   999.0315 0.0000e+00
     -0.042      0.002     4.2708     60.081     30.880  25.044524     2.1781      8.366   294.2292 1.2923e+03     6.7776     -0.041     -0.060    15.5460   999.0314 0.0000e+00
     -0.040      0.000     4.2550     59.738     30.827  25.001629     2.1802      8.359   294.0427 1.1085e+03     6.7755     -0.037     -0.054    15.5464   999.0314 0.0000e+00
     -0.041     -0.001     4.2349     59.398     30.825  24.999833     2.1791      8.354   293.7560 1.2722e+03     6.7379     -0.039     -0.057    15.5465   999.0314 0.0000e+00
     -0.044     -0.002     4.2130     59.072     30.853  25.022806     2.1813      8.348   293.5157 1.6510e+03     6.7153     -0.044     -0.063    15.5470   999.0313 0.0000e+00
     -0.047     -0.004     4.1897     58.733     30.856  25.025641     2.1810      8.343   293.2885 1.7186e+03     6.6985     -0.047     -0.067    15.5474   999.0312 0.0000e+00
     -0.048     -0.004     4.1656     58.349     30.866  25.034114     2.1763      8.338   292.9025 1.4294e+03     6.6989     -0.047     -0.069    15.5476   999.0311 0.0000e+00
     -0.047     -0.004     4.1411     57.954     30.900  25.061816     2.1677      8.336   292.3759 1.0287e+03     6.7202     -0.046     -0.067    15.5479   999.0311 0.0000e+00
     -0.046     -0.006     4.1190     57.594     30.877  25.043396     2.1548      8.335   292.1691 7.4837e+02     6.7277     -0.045     -0.065    15.5484   999.0311 0.0000e+00
     -0.046     -0.009     4.0972     57.260     30.825  25.001707     2.1419      8.331   292.3818 5.7541e+02     6.7566     -0.045     -0.065    15.5487   999.0310 0.0000e+00
     -0.048     -0.010     4.0689     56.939     30.825  25.001824     2.1243      8.324   292.6243 6.1252e+02     6.8069     -0.046     -0.066    15.5489   999.0309 0.0000e+00
     -0.053     -0.008     4.0396     56.635     30.878  25.044814     2.1063      8.315   292.6053 9.3137e+02     6.7786     -0.051     -0.075    15.5492   999.0309 0.0000e+00
     -0.061     -0.003     4.0151     56.351     30.918  25.077430     2.1058      8.307   292.1532 1.1235e+03     6.7094     -0.061     -0.089    15.5496   999.0308 0.0000e+00
     -0.066      0.006     3.9926     56.088     30.920  25.078992     2.1451      8.299   291.3737 1.2302e+03     6.6916     -0.069     -0.098    15.5501   999.0307 0.0000e+00
     -0.063      0.016     3.9694     55.838     30.901  25.063692     2.1994      8.289   290.5799 1.5239e+03     6.6938     -0.066     -0.095    15.5503   999.0306 0.0000e+00
     -0.053      0.025     3.9486     55.586     30.846  25.019322     2.2163      8.279   290.0407 1.5685e+03     6.7038     -0.053     -0.077    15.5502   999.0307 0.0000e+00
     -0.039      0.033     3.9285     55.344     30.806  24.986583     2.2198      8.272   289.7580 1.6464e+03     6.7143     -0.038     -0.055    15.5505   999.0308 0.0000e+00
     -0.028      0.038     3.9101     55.133     30.804  24.985035     2.2328      8.266   289.5719 1.8416e+03     6.6891     -0.027     -0.040    15.5507   999.0308 0.0000e+00
     -0.020      0.042     3.8937     54.959     30.823  25.000606     2.2518      8.255   289.4252 1.4010e+03     6.6615     -0.020     -0.029    15.5509   999.0308 0.0000e+00
     -0.012      0.047     3.8755     54.837     30.882  25.047977     2.2766      8.238   289.3606 9.3173e+02     6.6755     -0.011     -0.017    15.5513   999.0307 0.0000e+00
     -0.004      0.053     3.8578     54.794     30.963  25.113730     2.2806      8.223   289.2205 9.4270e+02     6.6938     -0.005     -0.007    15.5515   999.0307 0.0000e+00
      0.008      0.059     3.8434     54.831     31.022  25.161237     2.2831      8.214   288.8503 1.0270e+03     6.6863      0.005      0.008    15.5513   999.0308 0.0000e+00
      0.028      0.065     3.8308     54.902     31.044  25.178322     2.3253      8.209   288.4121 1.2432e+03     6.6835      0.027      0.039    15.5508   999.0310 0.0000e+00
      0.051      0.067     3.8217     54.998     31.062  25.193429     2.3832      8.204   287.9651 1.3268e+03     6.6930      0.051      0.074    15.5506   999.0312 0.0000e+00
      0.072      0.064     3.8175     55.076     31.092  25.217019     2.4106      8.199   287.6622 9.2131e+02     6.7032      0.070      0.102    15.5510   999.0312 0.0000e+00
      0.089      0.056     3.8231     55.041     31.083  25.209794     2.4138      8.194   287.5890 4.7696e+02     6.7410      0.089      0.129    15.5503   999.0315 0.0000e+00
      0.102      0.044     3.8275     54.916     30.955  25.106064     2.4129      8.192   287.5109 2.8009e+02     6.7898      0.103      0.148    15.5490   999.0317 0.0000e+00
      0.110      0.032     3.8337     54.740     30.719  24.914399     2.4085      8.188   287.5779 1.9240e+02     6.8013      0.109      0.158    15.5487   999.0318 0.0000e+00
      0.115      0.023     3.8454     54.605     30.495  24.732069     2.4044      8.182   287.8828 1.6881e+02     6.7814      0.114      0.165    15.5483   999.0319 0.0000e+00
      0.118      0.018     3.8392     54.882     30.353  24.614326     2.4062      8.177   288.0137 1.7246e+02     6.7458      0.117      0.169    15.5481   999.0319 0.0000e+00
      0.119      0.020     3.8303     56.023     30.302  24.569191     2.4308      8.173   287.8707 2.6288e+02     6.7314      0.117      0.169    15.5478   999.0319 0.0000e+00
      0.120      0.030     3.8185     58.208     30.302  24.566970     2.4761      8.168   287.6166 3.4531e+02     6.7386      0.116      0.168    15.5486   999.0317 0.0000e+00
      0.125      0.043     3.7984     61.277     30.329  24.587460     2.4951      8.162   287.2639 2.3301e+02     6.7020      0.119      0.174    15.5481   999.0318 0.0000e+00
      0.136      0.055     3.8040     64.842     30.378  24.626631     2.4859      8.155   286.9616 1.1006e+02     6.6489      0.130      0.189    15.5427   999.0325 0.0000e+00
      0.156      0.063     3.8801     68.464     30.419  24.659970     2.5385      8.145   286.7150 7.8802e+01     6.6544      0.149      0.216    15.5374   999.0335 0.0000e+00
      0.183      0.066     4.0375     71.761     30.435  24.673377     2.6548      8.136   286.4340 6.0364e+01     6.7022      0.182      0.264    15.5338   999.0342 0.0000e+00
      0.208      0.062     4.2619     74.381     30.420  24.661856     2.7218      8.130   286.3166 5.1547e+01     6.7357      0.209      0.303    15.5310   999.0348 0.0000e+00
      0.223      0.055     4.5229     76.125     30.402  24.647549     2.7238      8.125   286.3286 4.6674e+01     6.7319      0.221      0.321    15.5297   999.0351 0.0000e+00
      0.231      0.045     4.7829     77.013     30.377  24.627261     2.7134      8.119   286.3200 4.5086e+01     6.7215      0.228      0.331    15.5296   999.0351 0.0000e+00
      0.235      0.038     5.0233     77.205     30.352  24.606867     2.7097      8.113   286.2992 4.4530e+01     6.7407      0.229      0.332    15.5302   999.0351 0.0000e+00
      0.240      0.035     5.2110     76.941     30.332  24.591275     2.7130      8.105   286.2490 4.5097e+01     6.7672      0.233      0.338    15.5316   999.0348 0.0000e+00
      0.250      0.038     5.3312     76.456     30.301  24.565610     2.7189      8.096   286.3154 4.6533e+01     6.7802      0.246      0.356    15.5326   999.0347 0.0000e+00
      0.262      0.043     5.3890     75.889     30.284  24.550285     2.7290      8.087   286.4998 4.8264e+01     6.7668      0.257      0.372    15.5327   999.0348 0.0000e+00
      0.273      0.047     5.3965     75.322     30.264  24.532864     2.7487      8.078   286.6714 4.8929e+01     6.7367      0.268      0.387    15.5327   999.0348 0.0000e+00
      0.287      0.051     5.3711     74.826     30.281  24.545278     2.7749      8.072   286.8414 4.7175e+01     6.7438      0.281      0.407    15.5325   999.0349 0.0000e+00
      0.302      0.052     5.3346     74.403     30.317  24.573518     2.7853      8.067   286.8346 4.4597e+01     6.7541      0.296      0.429    15.5317   999.0350 0.0000e+00
      0.316      0.052     5.2941     74.027     30.298  24.557123     2.7790      8.062   286.6756 4.1980e+01     6.7303      0.310      0.449    15.5303   999.0354 0.0000e+00
      0.328      0.049     5.2518     73.706     30.273  24.537352     2.7594      8.058   286.7252 3.9517e+01     6.7181      0.321      0.467    15.5284   999.0357 0.0000e+00
      0.342      0.044     5.2181     73.449     30.258  24.524778     2.7306      8.054   286.9187 3.7032e+01     6.7048      0.335      0.486    15.5259   999.0362 0.0000e+00
      0.355      0.036     5.1902     73.246     30.267  24.531963     2.7174      8.049   286.9501 3.4696e+01     6.7003      0.350      0.508    15.5241   999.0365 0.0000e+00
      0.365      0.028     5.1631     73.078     30.302  24.560793     2.7204      8.043   286.9334 3.3091e+01     6.7294      0.361      0.524    15.5232   999.0367 0.0000e+00
      0.370      0.020     5.1404     72.926     30.294  24.556168     2.7500      8.038   287.0603 3.1546e+01     6.7950      0.364      0.528    15.5222   999.0369 0.0000e+00
      0.371      0.013     5.1232     72.795     30.273  24.539489     2.8057      8.032   287.1075 3.0566e+01     6.9035      0.364      0.527    15.5212   999.0370 0.0000e+00
      0.372      0.007     5.1093     72.705     30.284  24.549434     2.8388      8.027   287.0745 2.9916e+01     6.9590      0.363      0.527    15.5213   999.0370 0.0000e+00
      0.373      0.004     5.0985     72.658     30.283  24.549549     2.8383      8.022   287.0915 2.8609e+01     6.9416      0.365      0.530    15.5232   999.0367 0.0000e+00
      0.374      0.003     5.0867     72.620     30.273  24.540872     2.8519      8.018   286.8825 2.7700e+01     6.9230      0.367      0.532    15.5257   999.0363 0.0000e+00
      0.374      0.002     5.0773     72.580     30.311  24.571397     2.8908      8.014   286.5259 2.6918e+01     6.9307      0.367      0.532    15.5279   999.0360 0.0000e+00
      0.375      0.002     5.0701     72.546     30.348  24.601446     2.9104      8.011   286.3942 2.5596e+01     6.9684      0.367      0.533    15.5290   999.0358 0.0000e+00
      0.375      0.002     5.0684     72.508     30.331  24.587005     2.8975      8.007   286.4951 2.4536e+01     6.9865      0.368      0.534    15.5295   999.0358 0.0000e+00
      0.375      0.002     5.0662     72.479     30.331  24.587099     2.8824      8.004   286.5403 2.3438e+01     6.9526      0.368      0.534    15.5294   999.0357 0.0000e+00
      0.375      0.003     5.0622     72.466     30.350  24.602584     2.8836      7.999   286.3385 2.2333e+01     6.8865      0.368      0.533    15.5286   999.0358 0.0000e+00
      0.376      0.005     5.0614     72.455     30.327  24.583922     2.8861      7.994   286.2066 2.1397e+01     6.8103      0.368      0.533    15.5282   999.0360 0.0000e+00
      0.377      0.011     5.0575     72.453     30.287  24.551766     2.8782      7.989   286.3223 2.0591e+01     6.7513      0.369      0.536    15.5282   999.0360 0.0000e+00
      0.379      0.020     5.0555     72.478     30.263  24.530966     2.8745      7.981   286.2750 2.0204e+01     6.7313      0.372      0.539    15.5281   999.0360 0.0000e+00
      0.381      0.029     5.0554     72.517     30.256  24.522747     2.8848      7.970   286.0647 1.9759e+01     6.7321      0.373      0.541    15.5284   999.0360 0.0000e+00
      0.388      0.036     5.0541     72.551     30.251  24.515822     2.8991      7.960   285.9303 1.9585e+01     6.7279      0.376      0.545    15.5288   999.0359 0.0000e+00
      0.403      0.038     5.0530     72.565     30.247  24.510664     2.9084      7.952   285.7687 1.9852e+01     6.7466      0.394      0.570    15.5288   999.0360 0.0000e+00
      0.423      0.038     5.0559     72.570     30.263  24.523823     2.9104      7.946   285.5728 1.9805e+01     6.7612      0.420      0.608    15.5279   999.0362 0.0000e+00
      0.436      0.035     5.0593     72.579     30.293  24.548043     2.9496      7.941   285.3683 1.9555e+01     6.7417      0.431      0.625    15.5232   999.0371 0.0000e+00
      0.440      0.029     5.0630     72.573     30.293  24.549763     3.0356      7.935   285.2750 1.9210e+01     6.7393      0.431      0.624    15.5163   999.0381 0.0000e+00
      0.442      0.021     5.0641     72.539     30.286  24.544624     3.0830      7.929   285.2197 1.8745e+01     6.7315      0.433      0.627    15.5131   999.0386 0.0000e+00
      0.445      0.015     5.0633     72.495     30.291  24.549352     3.0892      7.924   284.9581 1.8357e+01     6.7132      0.438      0.635    15.5129   999.0387 0.0000e+00
      0.449      0.012     5.0652     72.464     30.284  24.543490     3.1015      7.920   284.6930 1.8038e+01     6.7155      0.441      0.640    15.5138   999.0386 0.0000e+00
      0.452      0.011     5.0646     72.444     30.276  24.537182     3.1195      7.917   284.5093 1.7813e+01     6.7263      0.443      0.643    15.5159   999.0382 0.0000e+00
      0.454      0.011     5.0616     72.407     30.276  24.536519     3.1333      7.914   284.2859 1.7581e+01     6.7453      0.445      0.646    15.5181   999.0379 0.0000e+00
      0.457      0.013     5.0579     72.347     30.275  24.535469     3.1387      7.909   284.0566 1.7343e+01     6.7479      0.449      0.651    15.5194   999.0377 0.0000e+00
      0.459      0.018     5.0552     72.306     30.261  24.524493     3.1319      7.902   283.8016 1.7372e+01     6.7254      0.451      0.654    15.5193   999.0377 0.0000e+00
      0.461      0.024     5.0553     72.294     30.269  24.530679     3.1036      7.893   283.4405 1.7434e+01     6.7691      0.451      0.654    15.5189   999.0378 0.0000e+00
      0.466      0.032     5.0530     72.292     30.289  24.546826     3.0828      7.883   283.1313 1.7344e+01     6.9153      0.454      0.657    15.5190   999.0378 0.0000e+00
      0.477      0.040     5.0469     72.306     30.269  24.529411     3.0884      7.870   283.0749 1.7510e+01     7.0179      0.467      0.677    15.5188   999.0379 0.0000e+00
      0.492      0.045     5.0441     72.336     30.246  24.510425     3.0925      7.855   283.1024 1.7803e+01     7.0262      0.483      0.702    15.5185   999.0380 0.0000e+00
      0.506      0.046     5.0444     72.365     30.245  24.507579     3.1325      7.844   282.9478 1.7888e+01     7.0164      0.494      0.718    15.5181   999.0381 0.0000e+00
      0.521      0.045     5.0438     72.387     30.231  24.494997     3.2180      7.840   282.6687 1.8038e+01     6.9975      0.511      0.741    15.5174   999.0383 0.0000e+00
      0.534      0.045     5.0444     72.382     30.219  24.485165     3.2669      7.836   282.4810 1.8236e+01     6.9612      0.527      0.765    15.5165   999.0385 0.0000e+00
      0.540      0.045     5.0480     72.358     30.257  24.515570     3.2727      7.828   282.3990 1.8224e+01     6.9379      0.531      0.770    15.5143   999.0389 0.0000e+00
      0.545      0.045     5.0497     72.349     30.294  24.545453     3.2714      7.820   282.3653 1.8370e+01     6.9449      0.531      0.771    15.5113   999.0394 0.0000e+00
      0.557      0.045     5.0525     72.364     30.274  24.529297     3.2679      7.815   282.3311 1.8626e+01     6.9484      0.545      0.789    15.5094   999.0397 0.0000e+00
      0.575      0.044     5.0523     72.391     30.250  24.510528     3.2654      7.809   282.2440 1.8726e+01     6.9479      0.566      0.821    15.5091   999.0398 0.0000e+00
      0.590      0.043     5.0487     72.406     30.248  24.508836     3.2669      7.804   282.0875 1.8903e+01     6.9716      0.580      0.841    15.5091   999.0399 0.0000e+00
      0.600      0.040     5.0486     72.414     30.248  24.508837     3.2694      7.801   281.9874 1.8958e+01     6.9401      0.589      0.854    15.5088   999.0401 0.0000e+00
      0.609      0.035     5.0494     72.430     30.250  24.510539     3.2687      7.799   282.0654 1.9004e+01     6.8284      0.599      0.868    15.5092   999.0400 0.0000e+00
      0.615      0.030     5.0526     72.445     30.273  24.529411     3.2673      7.796   282.0850 1.9259e+01     6.7674      0.604      0.877    15.5098   999.0399 0.0000e+00
      0.620      0.027     5.0533     72.454     30.294  24.546712     3.2696      7.791   281.9658 1.9351e+01     6.7599      0.607      0.880    15.5096   999.0399 0.0000e+00
      0.626      0.026     5.0529     72.451     30.274  24.529411     3.2446      7.787   281.9139 1.9343e+01     6.7384      0.612      0.889    15.5094   999.0400 0.0000e+00
      0.634      0.025     5.0549     72.439     30.251  24.510538     3.1818      7.785   281.8883 1.9448e+01     6.7029      0.622      0.903    15.5099   999.0400 0.0000e+00
      0.642      0.025     5.0555     72.421     30.250  24.508828     3.1518      7.784   281.8281 1.9458e+01     6.6919      0.630      0.913    15.5103   999.0400 0.0000e+00
      0.648      0.026     5.0567     72.392     30.251  24.508724     3.1594      7.784   281.7890 1.9372e+01     6.7371      0.636      0.923    15.5098   999.0401 0.0000e+00
      0.653      0.026     5.0565     72.377     30.252  24.509281     3.1614      7.783   281.7596 1.9422e+01     6.7902      0.641      0.930    15.5089   999.0402 0.0000e+00
      0.658      0.025     5.0552     72.386     30.261  24.515571     3.1938      7.781   281.6447 1.9452e+01     6.8424      0.644      0.934    15.5083   999.0403 0.0000e+00
      0.665      0.025     5.0550     72.397     30.268  24.521338     3.2553      7.779   281.4319 1.9508e+01     6.9095      0.651      0.945    15.5070   999.0406 0.0000e+00
      0.674      0.025     5.0521     72.402     30.262  24.515570     3.2809      7.776   281.3377 1.9744e+01     6.9462      0.662      0.960    15.5047   999.0410 0.0000e+00
      0.681      0.024     5.0506     72.404     30.255  24.509270     3.2789      7.773   281.3653 1.9869e+01     6.9588      0.670      0.970    15.5034   999.0412 0.0000e+00
      0.686      0.021     5.0523     72.384     30.255  24.508595     3.3008      7.768   281.2501 2.0069e+01     6.9299      0.672      0.974    15.5030   999.0413 0.0000e+00
      0.691      0.018     5.0533     72.328     30.253  24.507413     3.3459      7.764   280.9771 2.0482e+01     6.8264      0.676      0.980    15.5029   999.0413 0.0000e+00
      0.696      0.016     5.0533     72.253     30.237  24.494983     3.3823      7.761   280.7320 2.0712e+01     6.7563      0.684      0.991    15.5026   999.0414 0.0000e+00
      0.700      0.016     5.0541     72.178     30.225  24.485164     3.3942      7.758   280.5234 2.1054e+01     6.7700      0.687      0.997    15.5009   999.0417 0.0000e+00
      0.700      0.019     5.0537     72.115     30.263  24.515571     3.3510      7.756   280.3474 2.1567e+01     6.7960      0.687      0.996    15.5001   999.0418 0.0000e+00
      0.702      0.025     5.0490     72.066     30.300  24.545454     3.2665      7.756   280.2392 2.1710e+01     6.7754      0.687      0.996    15.5007   999.0417 0.0000e+00
      0.707      0.035     5.0432     72.031     30.280  24.529297     3.2139      7.754   280.1614 2.1941e+01     6.7181      0.693      1.005    15.5012   999.0417 0.0000e+00
      0.716      0.046     5.0376     72.029     30.260  24.510518     3.2091      7.751   280.1809 2.2300e+01     6.7253      0.702      1.018    15.5017   999.0416 0.0000e+00
      0.730      0.057     5.0330     72.070     30.262  24.508712     3.2609      7.746   280.3030 2.2172e+01     6.8300      0.713      1.036    15.5016   999.0417 0.0000e+00
      0.750      0.065     5.0299     72.134     30.263  24.507456     3.3372      7.739   280.3483 2.2140e+01     6.9351      0.734      1.065    15.5022   999.0417 0.0000e+00
      0.772      0.068     5.0269     72.197     30.249  24.495318     3.3683      7.729   280.2119 2.2252e+01     6.9473      0.758      1.099    15.5010   999.0420 0.0000e+00
      0.793      0.066     5.0266     72.241     30.242  24.488826     3.3678      7.720   280.0301 2.2083e+01     6.9116      0.778      1.129    15.4954   999.0430 0.0000e+00
      0.811      0.061     5.0313     72.265     30.247  24.492401     3.3748      7.713   279.9567 2.2091e+01     6.9299      0.796      1.155    15.4900   999.0439 0.0000e+00
      0.825      0.054     5.0362     72.273     30.226  24.475101     3.3923      7.706   279.9269 2.2417e+01     6.9717      0.812      1.177    15.4869   999.0445 0.0000e+00
      0.835      0.045     5.0418     72.269     30.220  24.469964     3.3974      7.699   279.7564 2.2625e+01     6.9587      0.819      1.188    15.4849   999.0448 0.0000e+00
      0.844      0.035     5.0446     72.268     30.250  24.493720     3.3934      7.695   279.5294 2.2816e+01     6.9363      0.826      1.197    15.4837   999.0450 0.0000e+00
      0.855      0.027     5.0461     72.269     30.268  24.508600     3.3958      7.695   279.4196 2.3310e+01     6.9299      0.839      1.217    15.4827   999.0453 0.0000e+00
      0.863      0.023     5.0473     72.274     30.285  24.522998     3.3915      7.695   279.3756 2.3530e+01     6.8493      0.849      1.232    15.4822   999.0454 0.0000e+00
      0.865      0.024     5.0459     72.270     30.306  24.540936     3.3848      7.695   279.3402 2.3660e+01     6.7480      0.851      1.233    15.4823   999.0454 0.0000e+00
      0.863      0.028     5.0465     72.244     30.299  24.535170     3.3923      7.691   279.2504 2.4094e+01     6.7213      0.845      1.226    15.4820   999.0454 0.0000e+00
      0.865      0.035     5.0462     72.208     30.277  24.516717     3.3963      7.686   279.0639 2.4247e+01     6.7232      0.844      1.225    15.4821   999.0454 0.0000e+00
      0.876      0.043     5.0465     72.174     30.269  24.508139     3.3901      7.682   278.9778 2.4336e+01     6.7708      0.857      1.243    15.4835   999.0452 0.0000e+00
      0.895      0.053     5.0469     72.136     30.254  24.494885     3.3948      7.679   279.0707 2.4601e+01     6.8704      0.880      1.275    15.4854   999.0450 0.0000e+00
      0.914      0.060     5.0443     72.087     30.242  24.483343     3.4016      7.675   279.1542 2.4574e+01     6.9442      0.898      1.302    15.4854   999.0451 0.0000e+00
      0.931      0.065     5.0416     72.035     30.259  24.495443     3.4024      7.673   279.0418 2.4484e+01     6.9754      0.912      1.322    15.4833   999.0455 0.0000e+00
      0.947      0.069     5.0400     72.020     30.284  24.514316     3.4305      7.668   278.8293 2.4647e+01     6.9855      0.928      1.346    15.4817   999.0458 0.0000e+00
      0.962      0.072     5.0375     72.054     30.293  24.521226     3.4900      7.654   278.8220 2.4591e+01     7.0000      0.945      1.369    15.4794   999.0463 0.0000e+00
      0.978      0.074     5.0348     72.087     30.286  24.515553     3.5234      7.629   278.8677 2.4325e+01     7.0197      0.959      1.390    15.4754   999.0469 0.0000e+00
      0.998      0.073     5.0301     72.087     30.279  24.509158     3.5225      7.605   278.7794 2.4288e+01     6.9951      0.975      1.416    15.4716   999.0476 0.0000e+00
      1.022      0.068     5.0282     72.069     30.277  24.507343     3.5053      7.592   278.6147 2.4285e+01     6.8981      1.001      1.452    15.4697   999.0480 0.0000e+00
      1.047      0.058     5.0331     72.042     30.259  24.493607     3.4715      7.587   278.4248 2.4094e+01     6.7971      1.032      1.495    15.4703   999.0481 0.0000e+00
      1.064      0.047     5.0359     72.011     30.229  24.469943     3.4513      7.587   278.3764 2.4194e+01     6.7574      1.048      1.520    15.4708   999.0481 0.0000e+00
      1.069      0.036     5.0353     71.983     30.235  24.474977     3.4518      7.591   278.3738 2.4536e+01     6.7454      1.050      1.523    15.4690   999.0484 0.0000e+00
      1.069      0.029     5.0341     71.963     30.255  24.491028     3.4599      7.597   278.3076 2.4659e+01     6.7511      1.049      1.522    15.4682   999.0485 0.0000e+00
      1.069      0.027     5.0320     71.949     30.234  24.473717     3.4634      7.602   278.3510 2.4827e+01     6.7939      1.047      1.519    15.4693   999.0483 0.0000e+00
      1.074      0.031     5.0293     71.952     30.213  24.455968     3.4508      7.606   278.4683 2.5008e+01     6.8044      1.050      1.523    15.4707   999.0481 0.0000e+00
      1.084      0.040     5.0273     71.982     30.228  24.466734     3.4462      7.607   278.4348 2.5017e+01     6.7461      1.061      1.540    15.4710   999.0481 0.0000e+00
      1.099      0.049     5.0262     72.022     30.243  24.477022     3.4593      7.608   278.2888 2.4937e+01     6.7118      1.078      1.563    15.4703   999.0483 0.0000e+00
      1.116      0.055     5.0249     72.058     30.215  24.453473     3.5057      7.608   278.2524 2.5062e+01     6.7836      1.094      1.587    15.4697   999.0485 0.0000e+00
      1.132      0.058     5.0247     72.060     30.194  24.435752     3.5906      7.608   278.2535 2.5320e+01     6.8935      1.111      1.612    15.4687   999.0487 0.0000e+00
      1.146      0.059     5.0280     72.019     30.217  24.453063     3.6367      7.607   278.1298 2.5306e+01     6.9253      1.125      1.631    15.4663   999.0491 0.0000e+00
      1.160      0.058     5.0309     71.974     30.242  24.472469     3.6298      7.602   278.0468 2.5344e+01     6.9053      1.137      1.650    15.4640   999.0496 0.0000e+00
      1.175      0.055     5.0344     71.934     30.252  24.480086     3.6111      7.597   278.1108 2.5418e+01     6.8486      1.151      1.671    15.4627   999.0498 0.0000e+00
      1.191      0.050     5.0358     71.874     30.253  24.481720     3.5923      7.593   278.1292 2.5355e+01     6.7644      1.167      1.693    15.4610   999.0501 0.0000e+00
      1.206      0.046     5.0309     71.806     30.267  24.492224     3.5847      7.589   278.0975 2.5362e+01     6.7384      1.185      1.718    15.4588   999.0506 0.0000e+00
      1.217      0.043     5.0280     71.753     30.252  24.480219     3.5807      7.588   278.0720 2.5669e+01     6.7319      1.196      1.735    15.4576   999.0508 0.0000e+00
      1.223      0.043     5.0266     71.721     30.232  24.463443     3.6033      7.588   277.9068 2.5919e+01     6.7513      1.199      1.738    15.4571   999.0509 0.0000e+00
      1.230      0.044     5.0218     71.725     30.252  24.479686     3.6586      7.584   277.7345 2.5793e+01     6.8746      1.205      1.748    15.4566   999.0510 0.0000e+00
      1.239      0.047     5.0160     71.773     30.260  24.486301     3.6948      7.579   277.7095 2.5833e+01     7.0106      1.214      1.761    15.4564   999.0511 0.0000e+00
      1.253      0.051     5.0129     71.831     30.253  24.479992     3.7018      7.576   277.6898 2.5774e+01     7.0516      1.226      1.779    15.4562   999.0512 0.0000e+00
      1.272      0.056     5.0100     71.878     30.237  24.466841     3.7437      7.575   277.6687 2.5484e+01     7.0106      1.248      1.810    15.4561   999.0513 0.0000e+00
      1.289      0.059     5.0095     71.914     30.222  24.454163     3.8291      7.571   277.6267 2.5427e+01     6.9740      1.265      1.835    15.4560   999.0514 0.0000e+00
      1.303      0.060     5.0146     71.929     30.222  24.453579     3.8761      7.565   277.5257 2.5309e+01     6.9689      1.278      1.853    15.4553   999.0516 0.0000e+00
      1.316      0.060     5.0191     71.928     30.233  24.459774     3.8873      7.559   277.4802 2.5091e+01     6.9490      1.290      1.871    15.4548   999.0517 0.0000e+00
      1.331      0.061     5.0222     71.928     30.243  24.465636     3.9560      7.554   277.5072 2.4978e+01     6.9302      1.305      1.892    15.4545   999.0518 0.0000e+00
      1.347      0.065     5.0252     71.902     30.242  24.461013     4.0648      7.547   277.5078 2.4853e+01     6.9375      1.323      1.918    15.4549   999.0519 0.0000e+00
      1.362      0.068     5.0264     71.845     30.252  24.467304     4.1113      7.534   277.4008 2.4757e+01     6.9716      1.335      1.936    15.4541   999.0521 0.0000e+00
      1.379      0.069     5.0254     71.799     30.267  24.478266     4.1102      7.515   277.2465 2.4617e+01     7.0158      1.349      1.957    15.4497   999.0528 0.0000e+00
      1.401      0.067     5.0273     71.784     30.253  24.466686     4.1121      7.500   277.1911 2.4251e+01     7.0123      1.373      1.992    15.4443   999.0537 0.0000e+00
      1.423      0.064     5.0268     71.790     30.237  24.454151     4.1336      7.495   277.2462 2.4031e+01     6.9630      1.399      2.029    15.4386   999.0547 0.0000e+00
      1.439      0.061     5.0212     71.800     30.236  24.453579     4.1707      7.493   277.3108 2.4163e+01     6.9440      1.415      2.052    15.4347   999.0554 0.0000e+00
      1.449      0.056     5.0178     71.821     30.242  24.459766     4.1879      7.486   277.2838 2.4112e+01     6.9776      1.420      2.061    15.4339   999.0556 0.0000e+00
      1.459      0.050     5.0170     71.856     30.247  24.465523     4.1863      7.476   277.1787 2.3855e+01     6.9766      1.429      2.072    15.4333   999.0557 0.0000e+00
      1.473      0.046     5.0185     71.896     30.239  24.459754     4.1771      7.472   277.1588 2.3770e+01     6.9322      1.445      2.095    15.4333   999.0558 0.0000e+00
      1.488      0.047     5.0182     71.933     30.231  24.453463     4.1726      7.473   277.2152 2.3766e+01     6.9327      1.462      2.121    15.4346   999.0557 0.0000e+00
      1.498      0.052     5.0195     71.949     30.231  24.452897     4.1841      7.473   277.2580 2.3699e+01     6.9819      1.470      2.133    15.4369   999.0553 0.0000e+00
      1.505      0.059     5.0223     71.937     30.231  24.452897     4.2021      7.473   277.1609 2.3673e+01     7.0039      1.474      2.137    15.4389   999.0550 0.0000e+00
      1.517      0.066     5.0246     71.908     30.232  24.453466     4.3646      7.472   276.9009 2.3507e+01     6.9691      1.485      2.153    15.4403   999.0549 0.0000e+00
      1.538      0.071     5.0281     71.882     30.239  24.459776     4.6832      7.471   276.7820 2.3044e+01     6.9540      1.506      2.185    15.4409   999.0549 0.0000e+00
      1.563      0.075     5.0294     71.861     30.246  24.465751     4.8728      7.471   276.8412 2.2603e+01     6.9855      1.533      2.224    15.4400   999.0551 0.0000e+00
      1.588      0.076     5.0282     71.845     30.241  24.462281     4.8969      7.471   276.9279 2.2273e+01     6.9888      1.559      2.262    15.4396   999.0553 0.0000e+00
      1.608      0.072     5.0255     71.838     30.264  24.481259     4.8625      7.471   276.9700 2.1984e+01     6.9278      1.578      2.289    15.4401   999.0553 0.0000e+00
      1.624      0.064     5.0235     71.835     30.292  24.504904     4.8041      7.472   276.9206 2.1740e+01     6.9044      1.593      2.311    15.4407   999.0553 0.0000e+00
      1.638      0.055     5.0224     71.836     30.279  24.494428     4.7797      7.472   276.8471 2.1517e+01     6.9677      1.607      2.331    15.4415   999.0552 0.0000e+00
      1.650      0.048     5.0204     71.845     30.263  24.481468     4.7670      7.469   276.8552 2.1387e+01     6.9725      1.618      2.347    15.4421   999.0552 0.0000e+00
      1.660      0.042     5.0205     71.858     30.255  24.475072     4.7287      7.464   276.9327 2.1248e+01     6.8966      1.628      2.360    15.4427   999.0552 0.0000e+00
      1.670      0.037     5.0202     71.878     30.261  24.480527     4.6797      7.460   276.9236 2.1087e+01     6.9023      1.637      2.375    15.4432   999.0552 0.0000e+00
      1.680      0.035     5.0197     71.910     30.266  24.483988     4.6524      7.458   276.8306 2.1005e+01     6.9755      1.648      2.391    15.4437   999.0551 0.0000e+00
      1.688      0.036     5.0210     71.950     30.228  24.453486     4.6500      7.457   276.6690 2.0950e+01     6.9950      1.657      2.402    15.4446   999.0550 0.0000e+00
      1.693      0.041     5.0212     71.990     30.197  24.428907     4.6591      7.452   276.6044 2.0909e+01     6.9748      1.659      2.407    15.4454   999.0549 0.0000e+00
      1.700      0.048     5.0227     72.019     30.211  24.440545     4.7286      7.439   276.7381 2.0781e+01     6.9607      1.664      2.414    15.4453   999.0549 0.0000e+00
      1.712      0.054     5.0249     72.033     30.245  24.467326     4.8562      7.422   276.6503 2.0501e+01     6.9554      1.677      2.433    15.4447   999.0551 0.0000e+00
      1.731      0.059     5.0283     72.036     30.285  24.498971     4.9363      7.409   276.4028 2.0191e+01     6.9762      1.695      2.459    15.4448   999.0551 0.0000e+00
      1.753      0.062     5.0309     72.039     30.295  24.505985     4.9521      7.405   276.3282 1.9890e+01     7.0161      1.719      2.493    15.4457   999.0551 0.0000e+00
      1.773      0.062     5.0332     72.044     30.275  24.488694     4.9609      7.408   276.3506 1.9639e+01     7.0112      1.742      2.527    15.4466   999.0551 0.0000e+00
      1.786      0.061     5.0341     72.044     30.265  24.480212     4.9814      7.412   276.4142 1.9547e+01     6.9831      1.752      2.542    15.4456   999.0553 0.0000e+00
      1.797      0.060     5.0341     72.001     30.250  24.466863     5.0002      7.416   276.4951 1.9412e+01     6.9709      1.761      2.554    15.4436   999.0557 0.0000e+00
      1.809      0.061     5.0348     71.909     30.235  24.454167     5.0145      7.418   276.5541 1.9101e+01     6.9615      1.773      2.572    15.4425   999.0559 0.0000e+00
      1.823      0.066     5.0347     71.812     30.235  24.453581     5.1289      7.414   276.5265 1.8847e+01     6.9680      1.787      2.592    15.4409   999.0562 0.0000e+00
      1.841      0.074     5.0365     71.727     30.244  24.459767     5.3350      7.405   276.5045 1.8564e+01     6.9515      1.804      2.617    15.4392   999.0566 0.0000e+00
      1.862      0.080     5.0343     71.649     30.253  24.465523     5.4434      7.397   276.6328 1.8111e+01     6.9253      1.825      2.646    15.4381   999.0568 0.0000e+00
      1.886      0.082     5.0258     71.597     30.247  24.459746     5.4676      7.389   276.7870 1.7663e+01     6.9460      1.848      2.680    15.4375   999.0570 0.0000e+00
      1.911      0.079     5.0189     71.587     30.240  24.453351     5.4975      7.382   276.8205 1.7243e+01     6.9072      1.875      2.720    15.4358   999.0574 0.0000e+00
      1.935      0.072     5.0140     71.622     30.239  24.451640     5.5180      7.377   276.6935 1.6843e+01     6.7845      1.901      2.756    15.4331   999.0579 0.0000e+00
      1.953      0.065     5.0076     71.683     30.224  24.439058     5.5253      7.377   276.5423 1.6599e+01     6.7405      1.916      2.779    15.4312   999.0583 0.0000e+00
      1.965      0.060     5.0042     71.746     30.211  24.428092     5.5341      7.378   276.5410 1.6458e+01     6.7681      1.928      2.796    15.4295   999.0586 0.0000e+00
      1.974      0.058     5.0032     71.809     30.234  24.445917     5.5456      7.378   276.5050 1.6242e+01     6.8241      1.935      2.806    15.4281   999.0588 0.0000e+00
      1.984      0.061     5.0063     71.855     30.257  24.464266     5.5434      7.378   276.3664 1.5989e+01     6.8923      1.942      2.817    15.4275   999.0590 0.0000e+00
      2.000      0.069     5.0116     71.863     30.252  24.459643     5.5330      7.375   276.4129 1.5689e+01     6.9046      1.960      2.843    15.4268   999.0592 0.0000e+00
      2.020      0.081     5.0156     71.847     30.244  24.453456     5.5335      7.368   276.5516 1.5305e+01     6.9403      1.981      2.873    15.4255   999.0595 0.0000e+00
      2.042      0.093     5.0208     71.811     30.243  24.452898     5.5403      7.359   276.4954 1.4918e+01     6.9961      2.001      2.903    15.4237   999.0598 0.0000e+00
      2.067      0.102     5.0253     71.760     30.244  24.452899     5.5629      7.352   276.4213 1.4456e+01     6.9895      2.024      2.936    15.4229   999.0601 0.0000e+00
      2.097      0.105     5.0247     71.709     30.245  24.453467     5.6075      7.346   276.5153 1.3910e+01     6.9590      2.055      2.980    15.4232   999.0602 0.0000e+00
      2.130      0.101     5.0236     71.657     30.254  24.459757     5.6290      7.340   276.6003 1.3435e+01     6.9544      2.090      3.031    15.4240   999.0602 0.0000e+00
      2.161      0.092     5.0214     71.605     30.262  24.465514     5.6406      7.334   276.5886 1.3072e+01     6.9665      2.122      3.077    15.4239   999.0604 0.0000e+00
      2.185      0.078     5.0167     71.555     30.256  24.459643     5.7306      7.330   276.5454 1.2804e+01     6.9741      2.145      3.110    15.4223   999.0608 0.0000e+00
      2.201      0.065     5.0142     71.519     30.246  24.452198     5.8763      7.331   276.4223 1.2652e+01     6.9490      2.160      3.133    15.4209   999.0610 0.0000e+00
      2.212      0.056     5.0103     71.519     30.229  24.438941     5.9454      7.335   276.3052 1.2576e+01     6.8910      2.171      3.148    15.4194   999.0613 0.0000e+00
      2.218      0.055     5.0068     71.530     30.212  24.426216     5.9422      7.335   276.3338 1.2490e+01     6.8956      2.175      3.155    15.4183   999.0615 0.0000e+00
      2.225      0.058     5.0034     71.525     30.210  24.425214     5.8899      7.331   276.3378 1.2335e+01     7.0048      2.179      3.161    15.4183   999.0615 0.0000e+00
      2.238      0.062     4.9995     71.547     30.212  24.426834     5.7805      7.326   276.3538 1.2062e+01     7.0971      2.191      3.178    15.4183   999.0616 0.0000e+00
      2.262      0.066     5.0000     71.615     30.236  24.445802     5.7124      7.326   276.3544 1.1659e+01     7.0943      2.215      3.214    15.4190   999.0616 0.0000e+00
      2.290      0.071     5.0028     71.714     30.259  24.464245     5.6986      7.328   276.2594 1.1311e+01     7.1026      2.249      3.262    15.4210   999.0614 0.0000e+00
      2.310      0.076     4.9996     71.826     30.254  24.459517     5.6401      7.330   276.3237 1.1153e+01     7.0990      2.270      3.292    15.4223   999.0613 0.0000e+00
      2.321      0.080     5.0010     71.926     30.246  24.452074     5.5336      7.331   276.3574 1.1023e+01     7.0176      2.275      3.299    15.4219   999.0614 0.0000e+00
      2.334      0.082     5.0067     72.011     30.230  24.437687     5.4699      7.330   276.2370 1.0752e+01     6.9385      2.284      3.313    15.4213   999.0615 0.0000e+00
      2.357      0.084     5.0134     72.086     30.200  24.412438     5.4592      7.327   276.2442 1.0368e+01     6.8951      2.308      3.348    15.4210   999.0617 0.0000e+00
      2.386      0.089     5.0228     72.126     30.187  24.400527     5.4642      7.321   276.3584 9.9814e+00     6.8866      2.341      3.395    15.4200   999.0620 0.0000e+00
      2.413      0.093     5.0297     72.120     30.212  24.420544     5.5045      7.308   276.4131 9.6704e+00     6.9019      2.368      3.436    15.4175   999.0625 0.0000e+00
      2.436      0.089     5.0353     72.100     30.266  24.464153     5.5736      7.292   276.3901 9.4075e+00     6.9161      2.388      3.464    15.4150   999.0630 0.0000e+00
      2.460      0.078     5.0418     72.079     30.291  24.483740     5.6060      7.281   276.2519 9.1273e+00     6.9274      2.412      3.498    15.4139   999.0633 0.0000e+00
      2.484      0.067     5.0457     72.030     30.270  24.467068     5.5935      7.280   276.0326 8.9073e+00     6.9727      2.439      3.537    15.4131   999.0635 0.0000e+00
      2.500      0.059     5.0435     71.935     30.252  24.452878     5.5439      7.285   275.9762 8.8327e+00     7.0696      2.456      3.563    15.4116   999.0638 0.0000e+00
      2.506      0.054     5.0420     71.814     30.234  24.439048     5.4657      7.291   276.0854 8.8069e+00     7.1495      2.458      3.566    15.4105   999.0641 0.0000e+00
      2.511      0.052     5.0415     71.701     30.218  24.426721     5.4107      7.296   276.1480 8.7109e+00     7.1522      2.460      3.568    15.4107   999.0641 0.0000e+00
      2.522      0.055     5.0387     71.625     30.223  24.430706     5.3984      7.301   276.2179 8.5329e+00     7.1345      2.471      3.584    15.4113   999.0640 0.0000e+00
      2.539      0.062     5.0313     71.591     30.215  24.423795     5.4826      7.304   276.3282 8.3187e+00     7.0990      2.490      3.612    15.4120   999.0640 0.0000e+00
      2.559      0.068     5.0218     71.596     30.194  24.406590     5.6310      7.306   276.3627 8.1032e+00     7.0190      2.510      3.640    15.4133   999.0639 0.0000e+00
      2.580      0.071     5.0129     71.632     30.202  24.412985     5.7011      7.307   276.2914 7.8827e+00     6.9532      2.531      3.669    15.4138   999.0639 0.0000e+00
      2.602      0.071     5.0078     71.694     30.233  24.437687     5.7061      7.308   276.1544 7.6964e+00     6.9261      2.553      3.702    15.4131   999.0641 0.0000e+00
      2.620      0.070     5.0056     71.770     30.251  24.451517     5.6914      7.309   276.0827 7.5733e+00     6.9210      2.572      3.729    15.4125   999.0643 0.0000e+00
      2.635      0.071     5.0059     71.835     30.254  24.453333     5.6542      7.306   276.1132 7.4613e+00     6.9254      2.584      3.748    15.4128   999.0643 0.0000e+00
      2.648      0.071     5.0089     71.877     30.262  24.459633     5.6368      7.298   276.0925 7.3339e+00     6.9462      2.595      3.765    15.4125   999.0644 0.0000e+00
      2.664      0.071     5.0130     71.876     30.268  24.464256     5.6544      7.288   276.0045 7.1399e+00     6.9749      2.610      3.786    15.4116   999.0646 0.0000e+00
      2.687      0.070     5.0198     71.827     30.245  24.445794     5.7197      7.279   275.9091 6.8821e+00     6.9776      2.633      3.819    15.4108   999.0648 0.0000e+00
      2.712      0.068     5.0241     71.770     30.222  24.426711     5.8103      7.275   275.8858 6.6772e+00     6.9461      2.661      3.860    15.4101   999.0651 0.0000e+00
      2.733      0.065     5.0280     71.734     30.218  24.423837     5.8483      7.276   275.9809 6.5592e+00     6.9221      2.684      3.893    15.4093   999.0653 0.0000e+00
      2.744      0.062     5.0286     71.730     30.203  24.411045     5.8410      7.277   276.0269 6.4875e+00     6.9165      2.693      3.905    15.4087   999.0654 0.0000e+00
      2.752      0.059     5.0231     71.742     30.188  24.398916     5.8265      7.278   276.0110 6.4057e+00     6.8789      2.698      3.912    15.4090   999.0654 0.0000e+00
      2.764      0.057     5.0189     71.752     30.195  24.404063     5.7943      7.277   276.0480 6.2745e+00     6.8924      2.709      3.929    15.4092   999.0654 0.0000e+00
      2.781      0.057     5.0157     71.756     30.202  24.409830     5.7556      7.274   276.0430 6.1086e+00     7.0469      2.726      3.954    15.4092   999.0655 0.0000e+00
      2.800      0.056     5.0163     71.765     30.196  24.405208     5.7394      7.272   275.8646 5.9558e+00     7.1745      2.746      3.983    15.4083   999.0657 0.0000e+00
      2.818      0.056     5.0178     71.794     30.203  24.411622     5.7373      7.272   275.6978 5.8468e+00     7.1899      2.765      4.011    15.4077   999.0659 0.0000e+00
      2.832      0.056     5.0184     71.815     30.217  24.423952     5.7562      7.274   275.6609 5.7839e+00     7.1340      2.780      4.032    15.4075   999.0660 0.0000e+00
      2.841      0.057     5.0188     71.814     30.221  24.427402     5.8027      7.276   275.6773 5.7433e+00     7.0231      2.787      4.041    15.4075   999.0660 0.0000e+00
      2.850      0.059     5.0179     71.808     30.253  24.453344     5.8317      7.276   275.7236 5.6512e+00     6.9638      2.791      4.048    15.4086   999.0659 0.0000e+00
      2.865      0.063     5.0215     71.808     30.290  24.483865     5.8307      7.274   275.7050 5.5152e+00     6.9739      2.808      4.072    15.4094   999.0658 0.0000e+00
      2.886      0.067     5.0233     71.817     30.283  24.479252     5.8507      7.272   275.6240 5.3900e+00     6.9816      2.830      4.105    15.4098   999.0659 0.0000e+00
      2.907      0.071     5.0221     71.808     30.259  24.461008     5.9092      7.272   275.6043 5.2482e+00     6.9911      2.851      4.135    15.4101   999.0659 0.0000e+00
      2.927      0.073     5.0221     71.778     30.247  24.453582     5.9476      7.271   275.6392 5.1174e+00     6.9911      2.873      4.167    15.4099   999.0661 0.0000e+00
      2.945      0.075     5.0212     71.767     30.243  24.452912     5.9509      7.268   275.7013 5.0344e+00     6.9484      2.891      4.193    15.4109   999.0661 0.0000e+00
      2.960      0.080     5.0226     71.772     30.239  24.452902     5.9412      7.263   275.8394 4.9399e+00     6.9337      2.902      4.209    15.4138   999.0656 0.0000e+00
      2.976      0.086     5.0225     71.767     30.238  24.453468     5.9164      7.255   275.9314 4.8097e+00     6.9781      2.916      4.229    15.4160   999.0654 0.0000e+00
      2.997      0.091     5.0178     71.766     30.245  24.459758     5.8931      7.249   275.8677 4.6303e+00     7.0253      2.937      4.259    15.4186   999.0650 0.0000e+00
      3.026      0.096     5.0168     71.778     30.251  24.465515     5.8939      7.245   275.7576 4.3978e+00     7.0458      2.966      4.301    15.4231   999.0644 0.0000e+00
      3.059      0.099     5.0185     71.795     30.243  24.459645     5.9000      7.241   275.7194 4.1968e+00     6.9961      3.001      4.353    15.4283   999.0638 0.0000e+00
      3.088      0.099     5.0163     71.828     30.233  24.452210     5.8890      7.238   275.6643 4.0738e+00     6.9492      3.031      4.396    15.4309   999.0635 0.0000e+00
      3.110      0.095     5.0163     71.884     30.217  24.439060     5.8824      7.236   275.6070 3.9688e+00     6.9707      3.051      4.425    15.4311   999.0636 0.0000e+00
      3.130      0.086     5.0175     71.951     30.204  24.427527     5.8889      7.234   275.6285 3.8499e+00     6.9610      3.069      4.451    15.4333   999.0633 0.0000e+00
      3.152      0.076     5.0178     72.021     30.219  24.439629     5.8902      7.233   275.6664 3.7410e+00     6.9304      3.091      4.483    15.4349   999.0632 0.0000e+00
      3.174      0.067     5.0200     72.095     30.242  24.458511     5.8720      7.234   275.7210 3.6464e+00     6.9939      3.114      4.517    15.4354   999.0633 0.0000e+00
      3.192      0.061     5.0242     72.155     30.251  24.465526     5.8509      7.234   275.6869 3.5783e+00     7.1055      3.133      4.544    15.4359   999.0632 0.0000e+00
      3.204      0.057     5.0293     72.198     30.245  24.461007     5.8432      7.234   275.5975 3.5404e+00     7.1651      3.143      4.559    15.4346   999.0635 0.0000e+00
      3.213      0.056     5.0339     72.233     30.252  24.467307     5.8317      7.234   275.5861 3.5005e+00     7.1902      3.151      4.570    15.4336   999.0637 0.0000e+00
      3.222      0.056     5.0399     72.257     30.265  24.478270     5.7720      7.233   275.5492 3.4411e+00     7.0812      3.159      4.581    15.4338   999.0637 0.0000e+00
      3.236      0.058     5.0441     72.277     30.250  24.466690     5.6678      7.232   275.4961 3.3641e+00     6.8633      3.171      4.599    15.4342   999.0637 0.0000e+00
      3.255      0.059     5.0464     72.297     30.234  24.454155     5.6124      7.229   275.4598 3.2761e+00     6.7522      3.192      4.630    15.4346   999.0637 0.0000e+00
      3.276      0.058     5.0495     72.302     30.234  24.453583     5.6040      7.225   275.3697 3.1889e+00     6.7212      3.215      4.662    15.4352   999.0637 0.0000e+00
      3.293      0.054     5.0504     72.274     30.242  24.459770     5.5489      7.224   275.2665 3.1150e+00     6.7498      3.231      4.686    15.4363   999.0636 0.0000e+00
      3.306      0.051     5.0516     72.225     30.249  24.465527     5.4575      7.224   275.1580 3.0708e+00     6.8688      3.244      4.705    15.4368   999.0636 0.0000e+00
      3.314      0.051     5.0535     72.164     30.242  24.459759     5.4098      7.224   275.0912 3.0546e+00     6.9802      3.251      4.716    15.4368   999.0636 0.0000e+00
      3.319      0.056     5.0546     72.076     30.235  24.453468     5.4062      7.223   275.1463 3.0385e+00     7.0160      3.254      4.719    15.4369   999.0636 0.0000e+00
      3.328      0.065     5.0523     72.001     30.236  24.452900     5.3972      7.220   275.1353 2.9840e+00     7.0063      3.260      4.728    15.4367   999.0637 0.0000e+00
      3.347      0.074     5.0477     71.953     30.237  24.452891     5.3780      7.218   275.0447 2.8681e+00     6.9935      3.277      4.754    15.4363   999.0639 0.0000e+00
      3.376      0.080     5.0457     71.909     30.240  24.453355     5.3735      7.216   275.0839 2.7329e+00     6.9921      3.310      4.801    15.4363   999.0640 0.0000e+00
      3.405      0.080     5.0368     71.892     30.249  24.458502     5.3780      7.213   275.0930 2.6339e+00     6.9898      3.343      4.849    15.4362   999.0642 0.0000e+00
      3.428      0.075     5.0315     71.905     30.242  24.451687     5.3886      7.211   274.9830 2.5597e+00     6.9654      3.364      4.878    15.4346   999.0645 0.0000e+00
      3.445      0.067     5.0306     71.914     30.222  24.434386     5.4146      7.212   274.9579 2.5041e+00     6.9600      3.379      4.901    15.4319   999.0649 0.0000e+00
      3.458      0.061     5.0255     71.894     30.230  24.439620     5.4322      7.212   274.9624 2.4783e+00     6.9575      3.393      4.922    15.4292   999.0655 0.0000e+00
      3.466      0.058     5.0255     71.859     30.246  24.451530     5.4366      7.211   274.8653 2.4506e+00     6.9354      3.399      4.929    15.4247   999.0662 0.0000e+00
      3.476      0.060     5.0274     71.822     30.248  24.451520     5.4416      7.209   274.7301 2.4052e+00     6.9544      3.405      4.938    15.4215   999.0667 0.0000e+00
      3.492      0.063     5.0294     71.778     30.235  24.439505     5.5018      7.207   274.6177 2.3491e+00     7.0229      3.424      4.966    15.4209   999.0669 0.0000e+00
      3.514      0.064     5.0271     71.744     30.230  24.433128     5.6275      7.204   274.6252 2.2841e+00     7.1084      3.446      4.998    15.4196   999.0672 0.0000e+00
      3.535      0.062     5.0244     71.723     30.237  24.437838     5.7045      7.202   274.6480 2.2218e+00     7.1690      3.467      5.029    15.4180   999.0676 0.0000e+00
      3.554      0.056     5.0230     71.697     30.231  24.433014     5.7039      7.201   274.5490 2.1699e+00     7.1989      3.487      5.058    15.4155   999.0681 0.0000e+00
      3.568      0.046     5.0191     71.674     30.236  24.438248     5.6287      7.201   274.4616 2.1365e+00     7.1744      3.501      5.078    15.4111   999.0688 0.0000e+00
      3.576      0.037     5.0174     71.678     30.234  24.437681     5.4982      7.201   274.4521 2.1176e+00     7.0694      3.509      5.089    15.4073   999.0694 0.0000e+00
      3.580      0.032     5.0165     71.704     30.219  24.426156     5.4265      7.201   274.4332 2.1053e+00     6.9784      3.511      5.093    15.4063   999.0696 0.0000e+00
      3.584      0.031     5.0149     71.739     30.218  24.425778     5.4121      7.200   274.4043 2.0937e+00     6.9588      3.514      5.096    15.4070   999.0695 0.0000e+00
      3.589      0.035     5.0115     71.780     30.227  24.433118     5.3670      7.199   274.4477 2.0674e+00     6.9640      3.519      5.104    15.4082   999.0694 0.0000e+00
      3.598      0.041     5.0124     71.816     30.251  24.451460     5.2885      7.199   274.5268 2.0354e+00     6.9416      3.526      5.115    15.4097   999.0692 0.0000e+00
      3.612      0.046     5.0144     71.846     30.258  24.457236     5.2435      7.197   274.5878 2.0025e+00     6.9180      3.542      5.136    15.4115   999.0689 0.0000e+00
      3.629      0.048     5.0163     71.869     30.237  24.439516     5.2480      7.195   274.4971 1.9670e+00     6.9408      3.560      5.163    15.4126   999.0688 0.0000e+00
      3.644      0.048     5.0204     71.877     30.222  24.427519     5.2737      7.195   274.3760 1.9423e+00     6.9551      3.575      5.185    15.4117   999.0691 0.0000e+00
      3.657      0.046     5.0223     71.869     30.236  24.439062     5.3027      7.194   274.4143 1.9108e+00     6.9269      3.587      5.203    15.4106   999.0693 0.0000e+00
      3.667      0.044     5.0248     71.849     30.251  24.452202     5.3203      7.194   274.4444 1.8704e+00     6.9275      3.597      5.217    15.4106   999.0693 0.0000e+00
      3.674      0.044     5.0265     71.809     30.260  24.459532     5.3308      7.193   274.3951 1.8450e+00     6.9634      3.604      5.226    15.4104   999.0694 0.0000e+00
      3.683      0.048     5.0273     71.764     30.266  24.464249     5.4125      7.191   274.3350 1.8155e+00     6.9679      3.611      5.237    15.4105   999.0694 0.0000e+00
      3.694      0.054     5.0258     71.749     30.244  24.445795     5.5624      7.189   274.3197 1.7795e+00     6.9489      3.621      5.253    15.4108   999.0694 0.0000e+00
      3.709      0.059     5.0254     71.777     30.221  24.426714     5.6434      7.187   274.2956 1.7421e+00     6.9293      3.635      5.273    15.4116   999.0694 0.0000e+00
      3.728      0.064     5.0222     71.837     30.218  24.423840     5.6554      7.185   274.2158 1.6886e+00     6.9270      3.655      5.300    15.4123   999.0693 0.0000e+00
      3.749      0.067     5.0172     71.899     30.203  24.411047     5.6461      7.183   274.1295 1.6375e+00     6.9548      3.678      5.334    15.4117   999.0695 0.0000e+00
      3.768      0.069     5.0170     71.952     30.191  24.398908     5.5225      7.181   274.0260 1.6000e+00     6.9701      3.697      5.361    15.4106   999.0698 0.0000e+00
      3.783      0.070     5.0184     71.987     30.201  24.403941     5.3052      7.179   273.9978 1.5734e+00     6.9487      3.710      5.380    15.4096   999.0700 0.0000e+00
      3.797      0.072     5.0244     71.989     30.210  24.408460     5.1863      7.177   274.0458 1.5485e+00     6.9254      3.723      5.400    15.4090   999.0702 0.0000e+00
      3.814      0.074     5.0286     71.969     30.190  24.390101     5.1770      7.176   274.0043 1.5082e+00     6.9498      3.740      5.424    15.4085   999.0703 0.0000e+00
      3.834      0.077     5.0329     71.949     30.170  24.372276     5.2275      7.174   273.9267 1.4641e+00     7.0471      3.759      5.452    15.4049   999.0709 0.0000e+00
      3.857      0.082     5.0367     71.943     30.185  24.383243     5.3118      7.171   273.8817 1.4246e+00     7.1523      3.782      5.486    15.3981   999.0720 0.0000e+00
      3.881      0.089     5.0370     71.968     30.201  24.395825     5.3463      7.168   273.9761 1.3860e+00     7.1724      3.808      5.522    15.3936   999.0730 0.0000e+00
      3.902      0.096     5.0350     72.033     30.204  24.397537     5.3587      7.163   274.1217 1.3500e+00     7.1585      3.827      5.551    15.3913   999.0734 0.0000e+00
      3.922      0.102     5.0338     72.114     30.210  24.403941     5.4882      7.160   274.0069 1.3040e+00     7.1481      3.843      5.574    15.3881   999.0739 0.0000e+00
      3.948      0.105     5.0335     72.191     30.215  24.409820     5.7068      7.160   273.7939 1.2425e+00     7.0796      3.868      5.611    15.3854   999.0745 0.0000e+00
      3.982      0.105     5.0342     72.258     30.207  24.405189     5.8168      7.158   273.6964 1.1755e+00     6.9857      3.906      5.665    15.3845   999.0748 0.0000e+00
      4.015      0.104     5.0404     72.312     30.214  24.411376     5.8293      7.155   273.6889 1.1145e+00     6.9303      3.941      5.717    15.3841   999.0750 0.0000e+00
      4.041      0.100     5.0461     72.338     30.225  24.421194     5.7976      7.153   273.7887 1.0736e+00     6.9353      3.965      5.751    15.3859   999.0748 0.0000e+00
      4.063      0.094     5.0510     72.330     30.195  24.397031     5.7111      7.152   273.8706 1.0441e+00     6.9804      3.984      5.779    15.3902   999.0743 0.0000e+00
      4.084      0.087     5.0556     72.316     30.166  24.372961     5.6501      7.148   273.8189 1.0163e+00     6.9836      4.006      5.810    15.3930   999.0740 0.0000e+00
      4.105      0.081     5.0593     72.302     30.180  24.383913     5.6415      7.144   273.6798 9.8758e-01     6.9417      4.026      5.839    15.3940   999.0739 0.0000e+00
      4.125      0.073     5.0622     72.286     30.204  24.402580     5.5549      7.139   273.4794 9.5732e-01     6.9324      4.044      5.866    15.3949   999.0739 0.0000e+00
      4.146      0.063     5.0595     72.295     30.212  24.408347     5.3662      7.135   273.2884 9.3178e-01     6.9688      4.066      5.897    15.3954   999.0739 0.0000e+00
      4.166      0.053     5.0589     72.336     30.189  24.390205     5.2577      7.135   273.2636 9.0938e-01     6.9890      4.088      5.928    15.3949   999.0740 0.0000e+00
      4.179      0.046     5.0590     72.396     30.169  24.373533     5.2404      7.138   273.3515 9.0093e-01     6.9804      4.102      5.948    15.3943   999.0742 0.0000e+00
      4.184      0.044     5.0559     72.449     30.199  24.397083     5.2354      7.140   273.3187 9.0721e-01     6.9961      4.104      5.953    15.3934   999.0744 0.0000e+00
      4.185      0.047     5.0573     72.476     30.229  24.421199     5.2753      7.140   273.2121 9.0360e-01     7.0151      4.102      5.950    15.3926   999.0745 0.0000e+00
      4.192      0.052     5.0600     72.491     30.217  24.411376     5.3416      7.138   273.1805 8.7517e-01     6.9806      4.106      5.956    15.3920   999.0746 0.0000e+00
      4.208      0.061     5.0651     72.478     30.210  24.405179     5.3696      7.136   273.1947 8.4007e-01     6.9395      4.125      5.983    15.3916   999.0747 0.0000e+00
      4.232      0.072     5.0700     72.421     30.216  24.409708     5.3623      7.134   273.2122 8.1268e-01     6.9439      4.151      6.020    15.3915   999.0749 0.0000e+00
      4.256      0.081     5.0704     72.331     30.208  24.402694     5.3220      7.130   273.2193 7.7964e-01     6.9683      4.174      6.054    15.3907   999.0751 0.0000e+00
      4.277      0.085     5.0727     72.237     30.185  24.383813     5.2645      7.125   273.2808 7.4819e-01     7.0044      4.194      6.084    15.3894   999.0754 0.0000e+00
      4.298      0.082     5.0722     72.147     30.170  24.371720     5.2387      7.123   273.3536 7.2975e-01     7.0200      4.214      6.111    15.3883   999.0757 0.0000e+00
      4.321      0.076     5.0683     72.064     30.185  24.383358     5.2352      7.123   273.3252 7.1766e-01     6.9931      4.238      6.146    15.3875   999.0759 0.0000e+00
      4.343      0.069     5.0607     71.986     30.203  24.397650     5.2132      7.122   273.1960 7.1077e-01     6.9743      4.261      6.180    15.3872   999.0761 0.0000e+00
      4.359      0.060     5.0542     71.901     30.228  24.417658     5.1647      7.121   272.9951 7.0007e-01     6.9886      4.275      6.201    15.3868   999.0762 0.0000e+00
      4.372      0.053     5.0484     71.834     30.249  24.434959     5.1332      7.123   272.9621 6.7438e-01     7.0022      4.288      6.219    15.3867   999.0762 0.0000e+00
      4.384      0.051     5.0415     71.804     30.226  24.416524     5.1274      7.124   273.1401 6.5241e-01     6.9752      4.301      6.238    15.3863   999.0764 0.0000e+00
      4.391      0.053     5.0382     71.803     30.186  24.385070     5.1128      7.124   273.2554 6.5025e-01     6.9576      4.307      6.246    15.3857   999.0765 0.0000e+00
      4.399      0.056     5.0301     71.826     30.170  24.371825     5.0862      7.124   273.1513 6.5294e-01     6.9865      4.310      6.250    15.3860   999.0765 0.0000e+00
      4.414      0.057     5.0252     71.864     30.185  24.383255     5.0663      7.124   272.9989 6.3620e-01     6.9965      4.325      6.272    15.3867   999.0765 0.0000e+00
      4.438      0.057     5.0236     71.909     30.202  24.396404     5.0542      7.125   272.9621 6.0744e-01     6.9802      4.353      6.313    15.3875   999.0764 0.0000e+00
      4.460      0.056     5.0234     71.947     30.212  24.403941     5.0441      7.125   272.8791 5.9402e-01     6.9862      4.379      6.350    15.3877   999.0765 0.0000e+00
      4.472      0.053     5.0253     71.968     30.221  24.410947     5.0214      7.125   272.8546 5.9010e-01     7.0352      4.389      6.365    15.3870   999.0767 0.0000e+00
      4.478      0.048     5.0283     71.986     30.229  24.417669     4.9796      7.126   272.9250 5.8113e-01     7.1143      4.390      6.367    15.3857   999.0769 0.0000e+00
      4.486      0.044     5.0317     72.023     30.234  24.421779     4.9464      7.126   272.8701 5.7176e-01     7.1564      4.397      6.378    15.3849   999.0770 0.0000e+00
      4.496      0.042     5.0348     72.077     30.204  24.397199     4.9399      7.126   272.7929 5.6300e-01     7.1502      4.408      6.394    15.3847   999.0771 0.0000e+00
      4.510      0.044     5.0360     72.139     30.175  24.374227     4.9791      7.127   272.7659 5.5392e-01     7.1054      4.422      6.413    15.3844   999.0772 0.0000e+00
      4.524      0.046     5.0365     72.197     30.205  24.397766     5.0388      7.127   272.8016 5.5097e-01     7.0088      4.437      6.435    15.3839   999.0774 0.0000e+00
      4.536      0.046     5.0395     72.232     30.243  24.428069     5.0637      7.127   272.8810 5.4666e-01     6.9642      4.450      6.454    15.3839   999.0775 0.0000e+00
      4.546      0.046     5.0431     72.247     30.238  24.423437     5.0640      7.127   272.8653 5.3325e-01     6.9923      4.459      6.467    15.3846   999.0774 0.0000e+00
      4.556      0.044     5.0479     72.261     30.216  24.405190     5.0853      7.127   272.7829 5.1834e-01     6.9887      4.467      6.480    15.3840   999.0775 0.0000e+00
      4.568      0.039     5.0526     72.248     30.207  24.397755     5.1388      7.126   272.6595 5.0780e-01     6.9862      4.479      6.496    15.3828   999.0778 0.0000e+00
      4.581      0.035     5.0556     72.198     30.206  24.396980     5.1820      7.124   272.5773 5.0530e-01     6.9944      4.493      6.517    15.3820   999.0780 0.0000e+00
      4.592      0.033     5.0549     72.138     30.205  24.395818     5.1915      7.124   272.5635 5.0052e-01     6.9573      4.505      6.535    15.3812   999.0781 0.0000e+00
      4.597      0.036     5.0578     72.068     30.190  24.383698     5.2027      7.124   272.5793 4.8957e-01     6.9304      4.510      6.541    15.3808   999.0782 0.0000e+00
      4.599      0.046     5.0573     72.003     30.182  24.377311     5.2302      7.122   272.6824 4.8709e-01     6.9317      4.509      6.540    15.3805   999.0783 0.0000e+00
      4.604      0.061     5.0520     71.962     30.187  24.382029     5.2466      7.117   272.7776 4.7840e-01     6.9397      4.513      6.545    15.3806   999.0783 0.0000e+00
      4.618      0.080     5.0489     71.937     30.182  24.377311     5.2619      7.112   272.8686 4.5093e-01     6.9623      4.524      6.562    15.3808   999.0783 0.0000e+00
      4.644      0.099     5.0430     71.910     30.191  24.383698     5.3809      7.108   273.0087 4.2224e-01     7.0087      4.550      6.599    15.3809   999.0784 0.0000e+00
      4.680      0.114     5.0378     71.877     30.207  24.395816     5.5930      7.105   273.0961 3.9773e-01     7.1063      4.588      6.655    15.3811   999.0785 0.0000e+00
      4.719      0.120     5.0354     71.848     30.210  24.396960     5.7107      7.104   273.0650 3.7721e-01     7.1919      4.629      6.714    15.3811   999.0787 0.0000e+00
      4.756      0.115     5.0340     71.819     30.211  24.397528     5.7207      7.101   272.8902 3.6628e-01     7.1924      4.665      6.766    15.3803   999.0790 0.0000e+00
      4.787      0.102     5.0331     71.781     30.217  24.402675     5.7142      7.099   272.7038 3.5026e-01     7.1449      4.697      6.812    15.3785   999.0795 0.0000e+00
      4.811      0.086     5.0297     71.743     30.208  24.395756     5.6833      7.099   272.7894 3.3044e-01     7.0759      4.720      6.845    15.3771   999.0798 0.0000e+00
      4.827      0.075     5.0283     71.719     30.185  24.377312     5.6333      7.099   272.8931 3.3361e-01     7.0137      4.735      6.868    15.3761   999.0800 0.0000e+00
      4.838      0.070     5.0270     71.726     30.175  24.369972     5.6047      7.099   272.7534 3.3901e-01     7.0164      4.747      6.885    15.3758   999.0801 0.0000e+00
      4.848      0.072     5.0232     71.748     30.176  24.370448     5.5970      7.097   272.7348 3.2320e-01     7.0430      4.751      6.891    15.3761   999.0801 0.0000e+00
      4.863      0.080     5.0210     71.745     30.192  24.383069     5.5916      7.094   272.8395 3.0594e-01     7.0732      4.763      6.907    15.3765   999.0801 0.0000e+00
      4.888      0.094     5.0181     71.738     30.208  24.395699     5.5919      7.091   272.9015 2.9136e-01     7.1519      4.793      6.952    15.3771   999.0801 0.0000e+00
      4.916      0.111     5.0189     71.759     30.209  24.396279     5.6004      7.088   272.9685 2.7059e-01     7.2405      4.823      6.995    15.3777   999.0802 0.0000e+00
      4.945      0.126     5.0225     71.798     30.202  24.390092     5.6079      7.086   273.0467 2.5123e-01     7.2590      4.846      7.028    15.3774   999.0803 0.0000e+00
      4.979      0.136     5.0212     71.824     30.196  24.384326     5.6133      7.084   273.0728 2.3401e-01     7.2455      4.879      7.077    15.3767   999.0806 0.0000e+00
      5.020      0.139     5.0196     71.820     30.203  24.389990     5.6311      7.084   272.9401 2.0682e-01     7.3074      4.922      7.138    15.3760   999.0809 0.0000e+00
      5.061      0.137     5.0218     71.814     30.210  24.395139     5.6582      7.084   272.8188 1.8107e-01     7.3839      4.965      7.200    15.3750   999.0813 0.0000e+00
      5.099      0.132     5.0253     71.829     30.195  24.383134     5.6717      7.085   272.8117 1.7483e-01     7.3837      5.003      7.256    15.3741   999.0815 0.0000e+00
      5.132      0.122     5.0282     71.859     30.181  24.371714     5.6383      7.085   272.7674 1.7065e-01     7.2726      5.035      7.302    15.3737   999.0818 0.0000e+00
      5.160      0.109     5.0266     71.889     30.196  24.383937     5.5757      7.084   272.7133 1.5707e-01     7.1212      5.062      7.341    15.3733   999.0820 0.0000e+00
      5.183      0.095     5.0256     71.916     30.221  24.404049     5.5388      7.083   272.6738 1.4794e-01     7.0612      5.083      7.372    15.3729   999.0821 0.0000e+00
      5.206      0.085     5.0272     71.945     30.246  24.424580     5.5303      7.083   272.6339 1.4041e-01     7.0380      5.105      7.404    15.3725   999.0823 0.0000e+00
      5.227      0.078     5.0293     71.958     30.267  24.441879     5.5433      7.083   272.5745 1.3497e-01     7.0048      5.128      7.438    15.3723   999.0824 0.0000e+00
      5.243      0.076     5.0321     71.944     30.242  24.422903     5.5739      7.083   272.4726 1.4197e-01     6.9884      5.144      7.460    15.3725   999.0825 0.0000e+00
      5.258      0.078     5.0330     71.916     30.196  24.385439     5.5884      7.082   272.4339 1.4947e-01     7.0033      5.154      7.475    15.3731   999.0824 0.0000e+00
      5.275      0.082     5.0358     71.889     30.177  24.369520     5.5889      7.080   272.4511 1.4307e-01     7.0204      5.171      7.499    15.3738   999.0824 0.0000e+00
      5.298      0.087     5.0372     71.867     30.162  24.357295     5.5876      7.078   272.4230 1.3040e-01     6.9985      5.195      7.534    15.3747   999.0824 0.0000e+00
      5.323      0.093     5.0353     71.849     30.172  24.364503     5.5379      7.077   272.3514 1.2439e-01     6.9683      5.220      7.570    15.3754   999.0824 0.0000e+00
      5.350      0.098     5.0333     71.861     30.208  24.393231     5.4564      7.077   272.3601 1.2386e-01     6.9494      5.246      7.608    15.3750   999.0825 0.0000e+00
      5.378      0.102     5.0312     71.918     30.200  24.387462     5.4174      7.076   272.4420 1.2378e-01     6.9669      5.274      7.650    15.3736   999.0829 0.0000e+00
      5.403      0.105     5.0303     71.988     30.165  24.358190     5.4212      7.073   272.5670 1.2371e-01     7.0160      5.300      7.687    15.3722   999.0832 0.0000e+00
      5.426      0.107     5.0283     72.037     30.164  24.356489     5.4681      7.071   272.7540 1.2367e-01     7.0840      5.320      7.715    15.3720   999.0833 0.0000e+00
      5.453      0.107     5.0279     72.040     30.179  24.366889     5.5419      7.069   272.8095 1.2371e-01     7.1672      5.346      7.753    15.3722   999.0834 0.0000e+00
      5.483      0.106     5.0337     71.993     30.169  24.357057     5.5858      7.067   272.7214 1.2381e-01     7.2030      5.377      7.800    15.3723   999.0836 0.0000e+00
      5.514      0.103     5.0392     71.930     30.180  24.364482     5.6090      7.066   272.6355 1.2384e-01     7.1893      5.409      7.846    15.3714   999.0839 0.0000e+00
      5.542      0.099     5.0435     71.872     30.219  24.393219     5.7009      7.064   272.6306 1.2378e-01     7.1320      5.437      7.885    15.3691   999.0844 0.0000e+00
      5.565      0.094     5.0446     71.817     30.215  24.387339     5.8557      7.061   272.6629 1.2373e-01     7.0350      5.459      7.918    15.3671   999.0847 0.0000e+00
      5.585      0.086     5.0400     71.802     30.180  24.356819     5.9368      7.058   272.5096 1.2369e-01     6.9669      5.478      7.946    15.3644   999.0852 0.0000e+00
      5.605      0.076     5.0352     71.847     30.163  24.341382     5.9452      7.058   272.3266 1.2371e-01     6.9318      5.495      7.969    15.3608   999.0859 0.0000e+00
      5.627      0.065     5.0327     71.911     30.147  24.327552     5.9400      7.059   272.2570 1.2371e-01     6.9052      5.517      8.002    15.3571   999.0866 0.0000e+00
      5.648      0.053     5.0277     71.954     30.134  24.316472     5.9172      7.061   272.1841 1.2370e-01     6.9074      5.543      8.039    15.3524   999.0874 0.0000e+00
      5.662      0.043     5.0260     71.979     30.156  24.334286     5.8949      7.062   272.2196 1.2375e-01     6.9258      5.556      8.059    15.3482   999.0881 0.0000e+00
      5.666      0.038     5.0314     71.999     30.178  24.352634     5.8783      7.063   272.3414 1.2376e-01     6.9308      5.558      8.061    15.3458   999.0885 0.0000e+00
      5.666      0.042     5.0368     72.008     30.172  24.348010     5.8375      7.063   272.3661 1.2376e-01     6.9347      5.557      8.060    15.3446   999.0887 0.0000e+00
      5.669      0.052     5.0400     72.008     30.164  24.341824     5.7663      7.061   272.3470 1.2374e-01     6.9403      5.557      8.060    15.3436   999.0888 0.0000e+00
      5.679      0.067     5.0407     71.993     30.163  24.341266     5.7199      7.060   272.4549 1.2372e-01     6.9331      5.564      8.069    15.3432   999.0889 0.0000e+00
      5.703      0.081     5.0431     71.968     30.164  24.341267     5.7101      7.060   272.5516 1.2371e-01     6.9451      5.587      8.102    15.3443   999.0889 0.0000e+00
      5.738      0.092     5.0428     71.948     30.165  24.341835     5.7170      7.060   272.4840 1.2368e-01     6.9878      5.629      8.165    15.3459   999.0888 0.0000e+00
      5.772      0.098     5.0432     71.924     30.175  24.348125     5.7598      7.060   272.4124 1.2365e-01     7.0228      5.665      8.217    15.3464   999.0889 0.0000e+00
      5.795      0.098     5.0422     71.869     30.184  24.353892     5.8202      7.061   272.3735 1.2364e-01     7.0084      5.684      8.243    15.3455   999.0891 0.0000e+00
      5.814      0.093     5.0398     71.794     30.178  24.348126     5.8492      7.061   272.2723 1.2362e-01     6.9443      5.700      8.267    15.3444   999.0894 0.0000e+00
      5.835      0.087     5.0389     71.752     30.171  24.341835     5.8509      7.061   272.2199 1.2358e-01     6.9368      5.722      8.299    15.3434   999.0896 0.0000e+00
      5.856      0.087     5.0382     71.739     30.171  24.341267     5.8580      7.060   272.2573 1.2360e-01     6.9831      5.743      8.330    15.3411   999.0901 0.0000e+00
      5.877      0.091     5.0354     71.743     30.172  24.341258     5.8738      7.057   272.2947 1.2365e-01     6.9792      5.764      8.360    15.3383   999.0906 0.0000e+00
      5.899      0.096     5.0268     71.768     30.173  24.341721     5.8857      7.053   272.3275 1.2367e-01     6.9555      5.784      8.389    15.3368   999.0910 0.0000e+00
      5.924      0.100     5.0257     71.806     30.182  24.346858     5.8896      7.050   272.3092 1.2372e-01     6.9257      5.807      8.423    15.3359   999.0912 0.0000e+00
      5.954      0.102     5.0250     71.841     30.180  24.339928     5.9029      7.047   272.3319 1.2379e-01     6.8485      5.838      8.468    15.3354   999.0915 0.0000e+00
      5.984      0.102     5.0247     71.867     30.168  24.321370     5.9341      7.046   272.4292 1.2389e-01     6.7755      5.869      8.512    15.3346   999.0917 0.0000e+00
      6.012      0.097     5.0274     71.893     30.169  24.312774     5.9551      7.046   272.4540 1.2393e-01     6.7322      5.896      8.552    15.3327   999.0921 0.0000e+00
      6.038      0.088     5.0300     71.878     30.162  24.299412     5.9573      7.046   272.3739 1.2388e-01     6.6849      5.922      8.589    15.3313   999.0925 0.0000e+00
      6.059      0.076     5.0344     71.824     30.153  24.286669     5.9957      7.046   272.2350 1.2380e-01     6.6953      5.944      8.620    15.3252   999.0935 0.0000e+00
      6.076      0.065     5.0358     71.776     30.155  24.285561     6.0810      7.046   272.1514 1.2380e-01     6.7268      5.959      8.643    15.3078   999.0962 0.0000e+00
      6.090      0.058     5.0426     71.726     30.158  24.286017     6.1303      7.048   272.1370 1.2380e-01     6.7048      5.973      8.663    15.2889   999.0993 0.0000e+00
      6.101      0.055     5.0429     71.651     30.168  24.292184     6.1318      7.049   272.0605 1.2373e-01     6.7247      5.985      8.679    15.2760   999.1013 0.0000e+00
      6.109      0.055     5.0372     71.559     30.176  24.296692     6.1345      7.049   271.9149 1.2368e-01     6.8360      5.989      8.686    15.2677   999.1026 0.0000e+00
      6.121      0.058     5.0358     71.475     30.156  24.277086     6.1535      7.050   271.8386 1.2368e-01     6.9691      5.999      8.701    15.2630   999.1034 0.0000e+00
      6.139      0.065     5.0329     71.409     30.119  24.245423     6.1802      7.050   271.9125 1.2373e-01     7.0241      6.020      8.732    15.2610   999.1037 0.0000e+00
      6.158      0.075     5.0280     71.356     30.104  24.231026     6.1879      7.050   272.0342 1.2379e-01     7.0086      6.040      8.760    15.2587   999.1042 0.0000e+00
      6.177      0.082     5.0210     71.322     30.105  24.229882     6.1777      7.047   272.0198 1.2384e-01     7.0115      6.056      8.784    15.2536   999.1050 0.0000e+00
      6.197      0.085     5.0154     71.315     30.110  24.231594     6.0655      7.046   271.9106 1.2380e-01     7.0263      6.075      8.811    15.2481   999.1060 0.0000e+00
      6.224      0.083     5.0117     71.320     30.137  24.251715     5.8452      7.046   271.8322 1.2370e-01     7.0237      6.102      8.851    15.2451   999.1066 0.0000e+00
      6.251      0.080     5.0078     71.333     30.177  24.282854     5.7249      7.045   271.7592 1.2370e-01     7.0122      6.132      8.895    15.2432   999.1071 0.0000e+00
      6.273      0.078     5.0052     71.349     30.187  24.290917     5.7304      7.045   271.7171 1.2379e-01     6.9857      6.155      8.927    15.2389   999.1078 0.0000e+00
      6.288      0.077     5.0063     71.352     30.179  24.285770     5.8501      7.044   271.6672 1.2380e-01     6.9660      6.168      8.946    15.2343   999.1084 0.0000e+00
      6.300      0.076     5.0066     71.342     30.176  24.284060     6.0717      7.041   271.5869 1.2378e-01     6.9700      6.176      8.957    15.2314   999.1090 0.0000e+00
      6.317      0.077     5.0077     71.325     30.158  24.270240     6.1903      7.039   271.5199 1.2379e-01     6.9689      6.192      8.980    15.2297   999.1094 0.0000e+00
      6.340      0.079     5.0098     71.317     30.128  24.245549     6.1909      7.038   271.4595 1.2377e-01     6.9529      6.218      9.018    15.2300   999.1094 0.0000e+00
      6.365      0.080     5.0092     71.303     30.121  24.239256     6.1917      7.037   271.4580 1.2374e-01     6.8745      6.242      9.052    15.2320   999.1092 0.0000e+00
      6.390      0.081     5.0087     71.282     30.142  24.257596     6.2003      7.036   271.5022 1.2374e-01     6.7422      6.266      9.088    15.2342   999.1090 0.0000e+00
      6.410      0.084     5.0062     71.271     30.164  24.276984     6.2088      7.034   271.5647 1.2377e-01     6.6962      6.289      9.122    15.2349   999.1090 0.0000e+00
      6.425      0.087     5.0066     71.254     30.169  24.283368     6.2070      7.033   271.6114 1.2371e-01     6.7120      6.301      9.139    15.2342   999.1091 0.0000e+00
      6.440      0.090     5.0066     71.235     30.153  24.271353     6.1527      7.033   271.5499 1.2368e-01     6.7696      6.311      9.153    15.2324   999.1095 0.0000e+00
      6.465      0.091     5.0027     71.222     30.138  24.258581     6.0641      7.032   271.4236 1.2380e-01     6.9341      6.337      9.189    15.2338   999.1094 0.0000e+00
      6.498      0.091     5.0037     71.211     30.137  24.255815     6.0200      7.032   271.2881 1.2386e-01     7.0287      6.374      9.245    15.2385   999.1088 0.0000e+00
      6.528      0.091     5.0009     71.224     30.117  24.237908     6.0181      7.032   271.1170 1.2381e-01     6.9958      6.405      9.288    15.2425   999.1084 0.0000e+00
      6.550      0.090     4.9992     71.256     30.113  24.232380     6.0069      7.032   270.9893 1.2377e-01     6.9952      6.425      9.319    15.2441   999.1082 0.0000e+00
      6.567      0.087     4.9994     71.266     30.140  24.252408     5.9109      7.031   270.8624 1.2377e-01     7.0214      6.441      9.343    15.2424   999.1086 0.0000e+00
      6.582      0.086     4.9976     71.245     30.190  24.289751     5.7497      7.030   270.7015 1.2377e-01     7.0185      6.453      9.359    15.2392   999.1091 0.0000e+00
      6.601      0.087     4.9989     71.215     30.289  24.366709     5.6698      7.030   270.5916 1.2373e-01     6.9931      6.470      9.383    15.2361   999.1097 0.0000e+00
      6.627      0.091     5.0029     71.163     30.362  24.421668     5.6560      7.029   270.3089 1.2364e-01     6.9432      6.499      9.425    15.2333   999.1103 0.0000e+00
      6.655      0.095     5.0048     71.086     30.398  24.446765     5.6182      7.027   269.7786 1.2363e-01     6.8417      6.529      9.469    15.2297   999.1109 0.0000e+00
      6.681      0.097     5.0019     71.032     30.522  24.543283     5.5675      7.026   269.2565 1.2370e-01     6.7157      6.552      9.503    15.2250   999.1117 0.0000e+00
      6.706      0.096     5.0016     71.018     30.721  24.700539     5.5372      7.025   268.8137 1.2374e-01     6.6660      6.576      9.538    15.2202   999.1127 0.0000e+00
      6.731      0.096     4.9990     71.009     30.961  24.889101     5.5293      7.023   268.5550 1.2376e-01     6.6993      6.602      9.575    15.2137   999.1138 0.0000e+00
      6.753      0.097     4.9925     70.974     31.244  25.110362     5.5067      7.021   268.5370 1.2375e-01     6.7898      6.623      9.606    15.2061   999.1151 0.0000e+00
      6.774      0.098     4.9884     70.911     31.626  25.409217     5.4722      7.019   268.4235 1.2371e-01     6.9084      6.642      9.633    15.2011   999.1159 0.0000e+00
      6.798      0.098     4.9894     70.832     32.807  26.345603     5.4591      7.017   267.9585 1.2366e-01     6.9863      6.664      9.666    15.1981   999.1166 0.0000e+00
      6.828      0.097     4.9901     70.737     39.883  31.991301     5.4606      7.017   267.0435 1.2366e-01     7.0105      6.695      9.710    15.1911   999.1178 0.0000e+00
      6.858      0.097     4.9888     70.567     66.935  53.498479     5.4131      7.014   265.7924 1.2371e-01     6.9388      6.729      9.759    15.1819   999.1197 0.0000e+00
      6.883      0.097     4.9854     70.207    109.331  86.684421     5.3001      7.005   263.7588 1.2369e-01     6.8080      6.752      9.793    15.1692   999.1214 0.0000e+00
      6.902      0.099     4.9802     69.409    138.640 108.285087     5.2305      6.972   260.1803 1.2365e-01     6.7402      6.768      9.816    15.1557   999.1243 0.0000e+00
      6.921      0.104     4.9787     67.811    148.894 113.880925     5.2395      6.904   256.5960 1.2367e-01     6.7409      6.786      9.843    15.1346   999.1270 0.0000e+00
      6.945      0.112     4.9711     64.855    152.103 114.020841     5.3395      6.820   253.2020 1.2367e-01     6.8163      6.808      9.874    15.0981   999.1410 0.0000e+00
      6.975      0.121     4.9741     59.784    153.343 113.223817     5.5203      6.744   247.8806 1.2365e-01     6.9308      6.837      9.916    14.8899   999.1945 0.0000e+00
      7.012      0.128     5.0009     52.209    154.397 112.844124     5.6308      6.684   239.4917 1.2368e-01     6.9789      6.875      9.972    14.2056   999.3037 0.0000e+00
      7.053      0.132     5.0037     42.327    155.885 113.187993     5.6437      6.636   228.1754 1.2371e-01     7.0045      6.918     10.035    13.2114   999.4397 0.0000e+00
      7.091      0.133     4.9049     30.997    157.637 113.940064     5.5463      6.597   218.0890 1.2376e-01     7.0766      6.957     10.091    12.3982   999.5426 0.0000e+00
      7.121      0.132     4.5887     19.463    159.058 114.545644     5.3547      6.567   211.4062 1.2382e-01     7.1294      6.986     10.132    11.8545   999.6055 0.0000e+00
      7.149      0.129     4.0472      8.843    159.937 114.838621     5.2525      6.544   205.0206 1.2381e-01     7.1508      7.009     10.165    11.4912   999.6462 0.0000e+00
      7.180      0.124     3.2859      0.016    160.452 114.933268     5.2474      6.526   198.1831 1.2375e-01     7.1719      7.039     10.208    11.2819   999.6690 0.0000e+00
      7.215      0.119     2.3846     -6.498    160.694 114.861344     5.2140      6.512   192.4041 1.2374e-01     7.1551      7.077     10.264    11.1319   999.6857 0.0000e+00
      7.250      0.114     1.4787    -10.411    160.720 114.669665     4.7967      6.503   187.8897 1.2372e-01     6.9155      7.112     10.314    10.9950   999.7003 0.0000e+00
      7.280      0.107     0.6295    -12.000    160.738 114.527088     4.0342      6.497   183.8662 1.2369e-01     6.5032      7.141     10.357    10.8908   999.7112 0.0000e+00
      7.304      0.098    -0.0579    -11.979    161.011 114.602862     3.6242      6.492   179.8922 1.2374e-01     6.2989      7.164     10.391    10.8121   999.7193 0.0000e+00
      7.325      0.089    -0.5804    -10.993    161.740 115.012235     3.5754      6.488   175.9770 1.2379e-01     6.2484      7.183     10.419    10.7334   999.7272 0.0000e+00
      7.345      0.083    -0.8755     -9.571    162.791 115.653378     3.4190      6.484   171.9756 1.2378e-01     5.8596      7.204     10.449    10.6631   999.7341 0.0000e+00
      7.365      0.080    -0.9738     -8.055    163.847 116.301104     3.1468      6.482   168.0796 1.2373e-01     5.1695      7.223     10.476    10.6191   999.7385 0.0000e+00
      7.383      0.080    -0.9604     -6.639    164.673 116.789904     2.9968      6.481   164.7487 1.2371e-01     4.7868      7.240     10.500    10.5861   999.7418 0.0000e+00
      7.403      0.079    -0.8649     -5.369    165.062 116.975024     2.9667      6.480   161.9011 1.2375e-01     4.7393      7.260     10.529    10.5521   999.7454 0.0000e+00
      7.426      0.078    -0.7501     -4.279    165.237 117.009837     2.8790      6.478   158.9448 1.2377e-01     4.7590      7.283     10.563    10.5190   999.7491 0.0000e+00
      7.448      0.078    -0.6230     -3.321    165.662 117.210722     2.7334      6.476   155.3324 1.2374e-01     4.8280      7.306     10.595    10.4881   999.7525 0.0000e+00
      7.466      0.081    -0.5165     -2.438    166.490 117.683136     2.6633      6.476   151.1775 1.2367e-01     4.8864      7.323     10.621    10.4579   999.7559 0.0000e+00
      7.482      0.086    -0.4130     -1.691    167.761 118.451756     2.6645      6.474   147.3394 1.2363e-01     4.9069      7.337     10.641    10.4311   999.7586 0.0000e+00
      7.500      0.096    -0.3306     -1.080    169.722 119.684625     2.5997      6.471   144.1166 1.2364e-01     4.7158      7.354     10.667    10.4056   999.7610 0.0000e+00
      7.524      0.109    -0.2602     -0.563    171.894 121.053367     2.4782      6.468   140.7759 1.2361e-01     4.3128      7.376     10.698    10.3755   999.7641 0.0000e+00
      7.554      0.124    -0.1853     -0.129    173.185 121.807142     2.4179      6.466   137.2339 1.2361e-01     4.0657      7.405     10.740    10.3414   999.7678 0.0000e+00
      7.591      0.139    -0.1294      0.227    173.822 122.105611     2.4088      6.463   133.8984 1.2365e-01     3.9888      7.443     10.796    10.3044   999.7717 0.0000e+00
      7.632      0.151    -0.0820      0.544    174.768 122.622168     2.3332      6.461   130.9907 1.2370e-01     3.7440      7.484     10.855    10.2583   999.7769 0.0000e+00
      7.674      0.157    -0.0428      0.812    175.983 123.335454     2.1974      6.460   128.5768 1.2378e-01     3.3338      7.526     10.915    10.2078   999.7828 0.0000e+00
      7.715      0.158    -0.0068      1.029    176.426 123.526360     2.1284      6.461   126.3946 1.2382e-01     3.0934      7.566     10.974    10.1637   999.7873 0.0000e+00
      7.758      0.153     0.0178      1.224    176.120 123.209100     2.1136      6.461   124.4810 1.2377e-01     3.0333      7.608     11.035    10.1217   999.7913 0.0000e+00
      7.800      0.144     0.0444      1.390    176.148 123.133012     2.0019      6.461   122.9053 1.2369e-01     2.9022      7.651     11.097    10.0786   999.7957 0.0000e+00
      7.837      0.132     0.0664      1.535    176.519 123.307555     1.8007      6.462   121.1962 1.2366e-01     2.7204      7.686     11.149    10.0376   999.8003 0.0000e+00
      7.869      0.118     0.0804      1.641    176.849 123.470723     1.6927      6.464   118.7871 1.2369e-01     2.6366      7.717     11.193    10.0034   999.8036 0.0000e+00
      7.896      0.108     0.0985      1.701    177.167 123.639586     1.6839      6.465   115.8891 1.2371e-01     2.6109      7.746     11.234     9.9761   999.8057 0.0000e+00
      7.919      0.102     0.1098      1.761    177.497 123.819237     1.6681      6.466   113.3444 1.2367e-01     2.5731      7.767     11.266     9.9483   999.8085 0.0000e+00
      7.938      0.098     0.1224      1.805    177.812 123.985343     1.6495      6.468   111.2504 1.2366e-01     2.5408      7.783     11.288     9.9229   999.8108 0.0000e+00
      7.960      0.097     0.1322      1.819    178.172 124.181672     1.6406      6.471   108.8973 1.2369e-01     2.5481      7.803     11.318     9.9046   999.8126 0.0000e+00
      7.989      0.097     0.1334      1.833    178.657 124.471703     1.6297      6.472   106.0592 1.2372e-01     2.5624      7.835     11.364     9.8909   999.8141 0.0000e+00
      8.019      0.101     0.1401      1.844    179.117 124.750735     1.6214      6.473   103.0910 1.2378e-01     2.5497      7.867     11.411     9.8778   999.8155 0.0000e+00
      8.042      0.106     0.1445      1.834    179.451 124.941565     1.6191      6.474   100.5417 1.2379e-01     2.5586      7.887     11.439     9.8621   999.8171 0.0000e+00
      8.064      0.110     0.1434      1.820    179.779 125.121402     1.6196      6.474    98.9818 1.2375e-01     2.5712      7.906     11.466     9.8456   999.8187 0.0000e+00
      8.091      0.111     0.1453      1.810    180.069 125.267496     1.6269      6.475    98.2556 1.2373e-01     2.5715      7.934     11.506     9.8320   999.8202 0.0000e+00
      8.124      0.112     0.1473      1.793    180.292 125.369087     1.6471      6.478    97.6972 1.2368e-01     2.6940      7.966     11.554     9.8213   999.8215 0.0000e+00
      8.158      0.113     0.1454      1.791    180.577 125.520874     1.6727      6.480    96.8768 1.2365e-01     2.9375      8.001     11.605     9.8108   999.8226 0.0000e+00
      8.188      0.112     0.1438      1.802    180.987 125.763839     1.6853      6.482    95.6492 1.2370e-01     3.0907      8.032     11.649     9.7969   999.8241 0.0000e+00
      8.215      0.108     0.1445      1.797    181.402 126.011514     1.6867      6.482    94.2982 1.2373e-01     3.1043      8.056     11.685     9.7806   999.8257 0.0000e+00
      8.240      0.102     0.1416      1.790    181.670 126.156492     1.6641      6.483    93.0175 1.2372e-01     2.9379      8.080     11.719     9.7655   999.8272 0.0000e+00
      8.265      0.097     0.1414      1.792    181.848 126.241583     1.6115      6.486    91.4353 1.2369e-01     2.6513      8.105     11.755     9.7527   999.8285 0.0000e+00
      8.290      0.092     0.1444      1.782    182.127 126.402742     1.5788      6.488    89.1925 1.2368e-01     2.5230      8.130     11.791     9.7416   999.8297 0.0000e+00
      8.315      0.092     0.1428      1.766    182.690 126.766112     1.5727      6.491    86.4633 1.2370e-01     2.5342      8.156     11.829     9.7307   999.8309 0.0000e+00
      8.336      0.097     0.1412      1.754    183.526 127.319584     1.5637      6.493    83.8182 1.2369e-01     2.5238      8.177     11.859     9.7187   999.8321 0.0000e+00
      8.354      0.103     0.1436      1.723    184.261 127.802634     1.5474      6.494    81.7319 1.2365e-01     2.4962      8.191     11.879     9.7076   999.8332 0.0000e+00
      8.377      0.108     0.1419      1.683    184.703 128.079580     1.5319      6.496    80.2527 1.2365e-01     2.4959      8.211     11.909     9.6990   999.8341 0.0000e+00
      8.409      0.112     0.1397      1.668    185.081 128.308897     1.5241      6.499    79.1841 1.2372e-01     2.5198      8.245     11.958     9.6919   999.8350 0.0000e+00
      8.447      0.112     0.1405      1.666    185.451 128.534824     1.5134      6.500    78.2758 1.2376e-01     2.5229      8.285     12.017     9.6849   999.8362 0.0000e+00
      8.482      0.108     0.1377      1.649    185.739 128.707012     1.4886      6.502    77.3573 1.2375e-01     2.4999      8.321     12.068     9.6779   999.8373 0.0000e+00
      8.510      0.099     0.1325      1.619    185.904 128.796660     1.4584      6.505    76.5114 1.2375e-01     2.4716      8.348     12.108     9.6697   999.8381 0.0000e+00
      8.531      0.085     0.1323      1.585    185.924 128.789784     1.4429      6.507    75.7912 1.2375e-01     2.4435      8.367     12.136     9.6604   999.8391 0.0000e+00
      8.547      0.070     0.1334      1.569    185.890 128.751385     1.4409      6.508    75.1021 1.2371e-01     2.4222      8.382     12.156     9.6519   999.8401 0.0000e+00
      8.563      0.057     0.1315      1.576    185.848 128.714960     1.4432      6.509    74.2887 1.2366e-01     2.3777      8.397     12.179     9.6446   999.8409 0.0000e+00
      8.578      0.046     0.1291      1.581    185.782 128.668190     1.4438      6.510    73.2693 1.2366e-01     2.2987      8.413     12.202     9.6382   999.8416 0.0000e+00
      8.589      0.038     0.1257      1.572    185.727 128.632245     1.4488      6.512    72.1558 1.2364e-01     2.2540      8.424     12.219     9.6322   999.8421 0.0000e+00
      8.595      0.033     0.1239      1.561    185.767 128.662939     1.4603      6.514    70.8916 1.2369e-01     2.2635      8.429     12.226     9.6278   999.8426 0.0000e+00
      8.599      0.035     0.1260      1.551    185.943 128.784247     1.4699      6.515    69.1693 1.2376e-01     2.3145      8.432     12.230     9.6263   999.8427 0.0000e+00
      8.603      0.044     0.1264      1.530    186.284 129.014967     1.4956      6.515    67.0761 1.2376e-01     2.4125      8.436     12.235     9.6262   999.8426 0.0000e+00
      8.610      0.058     0.1250      1.503    186.788 129.348276     1.5197      6.516    65.1144 1.2377e-01     2.4652      8.441     12.242     9.6270   999.8426 0.0000e+00
      8.625      0.074     0.1243      1.488    187.233 129.625923     1.5095      6.518    63.3463 1.2374e-01     2.4268      8.453     12.260     9.6284   999.8425 0.0000e+00
      8.650      0.089     0.1238      1.469    187.663 129.885040     1.5107      6.520    61.4434 1.2368e-01     2.4069      8.480     12.299     9.6282   999.8428 0.0000e+00
      8.682      0.102     0.1226      1.435    188.247 130.249302     1.5433      6.522    59.7456 1.2369e-01     2.4537      8.514     12.349     9.6271   999.8431 0.0000e+00
      8.713      0.112     0.1186      1.418    188.792 130.586607     1.5653      6.524    58.7356 1.2374e-01     2.5008      8.547     12.396     9.6237   999.8438 0.0000e+00
      8.741      0.115     0.1187      1.428    189.214 130.838594     1.5770      6.525    58.1795 1.2380e-01     2.5187      8.573     12.433     9.6149   999.8448 0.0000e+00
      8.770      0.112     0.1182      1.442    189.499 131.000264     1.5989      6.525    57.7531 1.2380e-01     2.5385      8.600     12.473     9.6035   999.8460 0.0000e+00
      8.800      0.105     0.1135      1.446    189.649 131.074564     1.6211      6.528    57.0214 1.2374e-01     2.5443      8.632     12.518     9.5931   999.8472 0.0000e+00
      8.829      0.099     0.1120      1.434    189.903 131.226742     1.6293      6.532    55.5284 1.2371e-01     2.5227      8.660     12.561     9.5824   999.8485 0.0000e+00
      8.854      0.098     0.1141      1.416    190.422 131.564747     1.6280      6.532    53.4679 1.2370e-01     2.5063      8.684     12.596     9.5715   999.8496 0.0000e+00
      8.874      0.103     0.1151      1.418    191.232 132.100221     1.5965      6.532    51.2941 1.2366e-01     2.5434      8.703     12.623     9.5619   999.8506 0.0000e+00
      8.892      0.110     0.1159      1.429    192.374 132.854189     1.5348      6.533    49.3786 1.2365e-01     2.6105      8.718     12.644     9.5542   999.8514 0.0000e+00
      8.916      0.118     0.1149      1.429    193.521 133.601639     1.5066      6.536    47.9460 1.2369e-01     2.6290      8.738     12.674     9.5484   999.8521 0.0000e+00
      8.953      0.122     0.1119      1.421    194.161 133.994323     1.5070      6.538    46.7920 1.2376e-01     2.6363      8.777     12.729     9.5436   999.8528 0.0000e+00
      8.997      0.122     0.1129      1.415    194.557 134.221702     1.4793      6.539    45.4919 1.2376e-01     2.6337      8.824     12.800     9.5380   999.8537 0.0000e+00
      9.037      0.116     0.1147      1.418    195.293 134.692467     1.4393      6.540    44.1869 1.2368e-01     2.5977      8.867     12.861     9.5292   999.8551 0.0000e+00
      9.066      0.105     0.1144      1.426    196.107 135.221438     1.4314      6.542    43.2309 1.2368e-01     2.5933      8.895     12.901     9.5170   999.8568 0.0000e+00
      9.084      0.090     0.1135      1.419    196.667 135.578487     1.4452      6.543    42.0199 1.2372e-01     2.6141      8.909     12.922     9.5034   999.8582 0.0000e+00
      9.099      0.078     0.1128      1.392    197.242 135.947781     1.4497      6.544    39.8706 1.2369e-01     2.6192      8.922     12.940     9.4910   999.8592 0.0000e+00
      9.116      0.073     0.1129      1.354    197.889 136.369577     1.4502      6.546    37.2043 1.2364e-01     2.6227      8.940     12.966     9.4820   999.8604 0.0000e+00
      9.132      0.077     0.1147      1.309    198.529 136.787296     1.4524      6.548    34.9046 1.2363e-01     2.6235      8.957     12.990     9.4743   999.8615 0.0000e+00
      9.148      0.085     0.1143      1.282    199.211 137.234775     1.4419      6.550    33.2318 1.2363e-01     2.6296      8.970     13.009     9.4663   999.8623 0.0000e+00
      9.169      0.092     0.1114      1.279    199.823 137.633579     1.4349      6.550    31.8634 1.2367e-01     2.6637      8.989     13.037     9.4597   999.8631 0.0000e+00
      9.199      0.096     0.1088      1.274    200.442 138.036833     1.4463      6.551    30.4909 1.2373e-01     2.6746      9.019     13.081     9.4537   999.8641 0.0000e+00
      9.231      0.099     0.1040      1.264    201.388 138.665607     1.4582      6.551    28.8539 1.2378e-01     2.6635      9.054     13.132     9.4478   999.8649 0.0000e+00
      9.260      0.100     0.1014      1.265    202.537 139.430617     1.4573      6.551    26.9559 1.2382e-01     2.6927      9.083     13.174     9.4425   999.8658 0.0000e+00
      9.281      0.099     0.1027      1.280    203.337 139.949801     1.4446      6.553    25.2654 1.2383e-01     2.6998      9.102     13.201     9.4367   999.8665 0.0000e+00
      9.301      0.095     0.1021      1.286    203.689 140.158096     1.4347      6.555    23.9024 1.2375e-01     2.6185      9.118     13.225     9.4308   999.8673 0.0000e+00
      9.326      0.091     0.1007      1.291    203.925 140.290259     1.4415      6.557    22.5219 1.2369e-01     2.5289      9.144     13.262     9.4255   999.8681 0.0000e+00
      9.353      0.090     0.1005      1.305    204.210 140.463119     1.4570      6.558    21.2211 1.2370e-01     2.5016      9.175     13.307     9.4192   999.8693 0.0000e+00
      9.377      0.093     0.1031      1.307    204.700 140.780670     1.4580      6.558    20.2203 1.2373e-01     2.5178      9.198     13.340     9.4112   999.8704 0.0000e+00
      9.396      0.098     0.1030      1.312    205.707 141.450020     1.4525      6.559    19.1107 1.2372e-01     2.5601      9.213     13.362     9.4021   999.8713 0.0000e+00
      9.416      0.104     0.1023      1.334    207.273 142.494734     1.4518      6.560    17.6139 1.2370e-01     2.6204      9.231     13.388     9.3948   999.8720 0.0000e+00
      9.442      0.112     0.1057      1.333    209.103 143.713574     1.4408      6.561    16.1474 1.2373e-01     2.6571      9.258     13.427     9.3894   999.8727 0.0000e+00
      9.475      0.121     0.1046      1.300    210.971 144.956306     1.4326      6.562    15.0591 1.2377e-01     2.6426      9.290     13.475     9.3850   999.8733 0.0000e+00
      9.510      0.126     0.1038      1.265    212.607 146.033976     1.4394      6.564    14.1775 1.2377e-01     2.6092      9.325     13.525     9.3805   999.8743 0.0000e+00
      9.548      0.126     0.1081      1.242    213.772 146.788098     1.4454      6.565    13.0596 1.2376e-01     2.6146      9.363     13.580     9.3718   999.8758 0.0000e+00
      9.585      0.121     0.1081      1.234    214.864 147.500856     1.4442      6.565    11.5238 1.2375e-01     2.6416      9.401     13.635     9.3620   999.8773 0.0000e+00
      9.615      0.113     0.1037      1.242    216.202 148.397158     1.4426      6.566     9.7180 1.2373e-01     2.6418      9.432     13.678     9.3532   999.8790 0.0000e+00
      9.639      0.103     0.1011      1.240    217.387 149.200253     1.4600      6.568     7.8320 1.2375e-01     2.6163      9.454     13.711     9.3417   999.8806 0.0000e+00
      9.661      0.093     0.0992      1.226    218.462 149.934710     1.4986      6.569     6.1001 1.2385e-01     2.5627      9.473     13.739     9.3296   999.8820 0.0000e+00
      9.683      0.084     0.0981      1.231    219.585 150.702862     1.5195      6.571     4.8664 1.2390e-01     2.5180      9.495     13.771     9.3210   999.8831 0.0000e+00
      9.706      0.075     0.1001      1.244    220.238 151.147177     1.5135      6.572     4.1009 1.2383e-01     2.5024      9.520     13.807     9.3156   999.8843 0.0000e+00
      9.726      0.065     0.1003      1.221    220.259 151.157707     1.4948      6.573     3.2976 1.2375e-01     2.5048      9.539     13.835     9.3139   999.8849 0.0000e+00
      9.742      0.054     0.0973      1.187    220.157 151.085510     1.4672      6.573     1.8652 1.2374e-01     2.5138      9.554     13.857     9.3138   999.8853 0.0000e+00
      9.754      0.043     0.0978      1.183    220.464 151.295615     1.4484      6.574    -0.3126 1.2378e-01     2.5133      9.568     13.877     9.3132   999.8861 0.0000e+00
      9.762      0.034     0.1018      1.181    221.548 152.038333     1.4491      6.576    -2.6430 1.2379e-01     2.4984      9.575     13.888     9.3123   999.8864 0.0000e+00
      9.765      0.030     0.0984      1.176    224.325 153.937263     1.4409      6.578    -4.4560 1.2371e-01     2.4650      9.577     13.891     9.3112   999.8864 0.0000e+00
      9.768      0.029     0.0929      1.182    228.367 156.698297     1.4099      6.579    -5.5422 1.2367e-01     2.4703      9.579     13.893     9.3106   999.8863 0.0000e+00
      9.774      0.030     0.0957      1.191    231.627 158.924767     1.3864      6.580    -6.3985 1.2372e-01     2.5298      9.583     13.899     9.3108   999.8864 0.0000e+00
      9.784      0.031     0.0950      1.184    236.977 162.595511     1.3821      6.581    -7.3236 1.2377e-01     2.5612      9.593     13.914     9.3109   999.8868 0.0000e+00
      9.797      0.031     0.0937      1.172    253.119 173.679950     1.4011      6.582    -8.1235 1.2377e-01     2.5551      9.609     13.936     9.3099   999.8878 0.0000e+00
      9.808      0.031     0.0947      1.163    277.426 190.373607     1.4346      6.582    -8.8433 1.2374e-01     2.5533      9.621     13.953     9.3062   999.8905 0.0000e+00
      9.815      0.029     0.0964      1.143    286.678 196.736927     1.4487      6.582    -9.4870 1.2369e-01     2.5401      9.625     13.960     9.3027   999.8913 0.0000e+00
      9.819      0.026     0.0953      1.133    292.309 200.606844     1.4420      6.583   -10.0563 1.2369e-01     2.5261      9.629     13.965     9.3035   999.8923 0.0000e+00
      9.824      0.022     0.0932      1.148    317.873 218.145402     1.4228      6.584   -10.8221 1.2373e-01     2.5156      9.634     13.972     9.3054   999.8963 0.0000e+00
      9.830      0.018     0.0944      1.165    328.613 225.503136     1.3979      6.586   -11.9496 1.2373e-01     2.5119      9.640     13.981     9.3080   999.9120 0.0000e+00
      9.835      0.016     0.0913      1.174    312.452 214.395721     1.3933      6.587   -13.5362 1.2369e-01     2.5465      9.647     13.991     9.3119   999.9147 0.0000e+00
      9.839      0.015     0.0895      1.174    291.635 200.100048     1.4017      6.589   -15.2928 1.2365e-01     2.5732      9.650     13.996     9.3127   999.9048 0.0000e+00
      9.842      0.013     0.0924      1.172    286.253 196.404662     1.4123      6.590   -16.8414 1.2364e-01     2.6056      9.652     13.999     9.3113   999.9290 0.0000e+00
      9.844      0.011     0.0937      1.176    306.209 210.097817     1.4357      6.591   -18.3214 1.2364e-01     2.6770      9.654     14.002     9.3096   999.9320 0.0000e+00
      9.847      0.011     0.0944      1.180    320.747 220.072863     1.4506      6.591   -19.0771 1.2365e-01     2.7154      9.656     14.005     9.3056   999.9211 0.0000e+00
      9.850 -9.990e-29     0.0946 -9.990e-29 -9.990e-29 -9.990e-29 -9.990e-29 -9.990e-29 -9.990e-29 1.2367e-01 -9.990e-29      9.659     14.010     9.3036   999.9137 0.0000e+00
      9.852 -9.990e-29     0.0935 -9.990e-29 -9.990e-29 -9.990e-29 -9.990e-29 -9.990e-29 -9.990e-29 1.2367e-01 -9.990e-29      9.662     14.013     9.3040   999.9051 0.0000e+00
      9.854 -9.990e-29     0.0944 -9.990e-29 -9.990e-29 -9.990e-29 -9.990e-29 -9.990e-29 -9.990e-29 1.2367e-01 -9.990e-29      9.664     14.017     9.3039   999.9217 0.0000e+00
      9.855 -9.990e-29     0.0950 -9.990e-29 -9.990e-29 -9.990e-29 -9.990e-29 -9.990e-29 -9.990e-29 1.2369e-01 -9.990e-29      9.666     14.019     9.3041   999.9304 0.0000e+00
