* Sea-Bird SBE19plus  Data File:
* FileName = C:\R\Reservoirs\Data\DataNotYetUploadedToEDI\Raw_CTD\RawDownloads\100724_fcr50_S7809_0009.hex
* Software version 2.8.0.119
* Temperature SN = 7809
* Conductivity SN = 7809
* System UpLoad Time = Oct 24 2024 12:51:59
* <ApplicationData>
* <Seaterm232>
* <SoftwareVersion>2.8.0.119</SoftwareVersion>
* <BuildDate>07-Nov-2018</BuildDate>
* </Seaterm232>
* </ApplicationData>
* <InstrumentState>
* <HardwareData DeviceType='SBE19plus' SerialNumber='01907809'>
*
*    <Manufacturer>Sea-Bird Electronics, Inc.</Manufacturer>
*
*    <FirmwareVersion>3.1.8</FirmwareVersion>
*
*    <FirmwareDate>Mar  9 2016 16:22:29</FirmwareDate>
*
*    <CommandSetVersion>1.4</CommandSetVersion>
*
*    <PCBAssembly PCBSerialNum='120721' AssemblyNum='41054J'/>
*
*    <PCBAssembly PCBSerialNum='120715' AssemblyNum='41967A'/>
*
*    <PCBAssembly PCBSerialNum='116699' AssemblyNum='41606'/>
*
*    <PCBAssembly PCBSerialNum='120719' AssemblyNum='41059D'/>
*
*    <MfgDate>28-Apr-2017</MfgDate>
*
*    <InternalSensors>
*
*       <Sensor id='Main Temperature'>
*
*          <type>temperature0</type>
*
*          <SerialNumber>01907809</SerialNumber>
*
*       </Sensor>
*
*       <Sensor id='Main Conductivity'>
*
*          <type>conductivity-0</type>
*
*          <SerialNumber>01907809</SerialNumber>
*
*       </Sensor>
*
*       <Sensor id='Main Pressure'>
*
*          <type>strain-0</type>
*
*          <SerialNumber>10586018</SerialNumber>
*
*       </Sensor>
*
*    </InternalSensors>
*
*    <ExternalSensors>
*
*       <Sensor id='volt 0'>
*
*          <type>pH</type>
*
*          <SerialNumber>27-0363</SerialNumber>
*
*       </Sensor>
*
*       <Sensor id='volt 1'>
*
*          <type>ORP</type>
*
*          <SerialNumber>27-0363</SerialNumber>
*
*       </Sensor>
*
*       <Sensor id='volt 2'>
*
*          <type>OXY</type>
*
*          <SerialNumber>43-0434</SerialNumber>
*
*       </Sensor>
*
*       <Sensor id='volt 3'>
*
*          <type>PAR</type>
*
*          <SerialNumber>1122</SerialNumber>
*
*       </Sensor>
*
*       <Sensor id='volt 4'>
*
*          <type>ECO AFL/FL</type>
*
*          <SerialNumber>FLNTURT-2496</SerialNumber>
*
*       </Sensor>
*
*       <Sensor id='volt 5'>
*
*          <type>ECO-NTU</type>
*
*          <SerialNumber>FLNTURT-2496</SerialNumber>
*
*       </Sensor>
*
*       <Sensor id='serial'>
*
*          <type>not assigned</type>
*
*          <SerialNumber>not assigned</SerialNumber>
*
*       </Sensor>
*
*    </ExternalSensors>
*
* </HardwareData>
* <StatusData DeviceType='SBE19plus' SerialNumber='01907809'>
*
*    <DateTime>2024-10-24T12:49:18</DateTime>
*
*    <LoggingState>not logging</LoggingState>
*
*    <EventSummary numEvents='0'/>
*
*    <Power>
*
*       <vMain>13.8</vMain>
*
*       <vLith>8.3</vLith>
*
*       <iMain>63.0</iMain>
*
*       <iPump>41.3</iPump>
*
*       <iExt01>18.9</iExt01>
*
*       <iExt2345>35.6</iExt2345>
*
*    </Power>
*
*    <MemorySummary>
*
*       <Bytes>96784</Bytes>
*
*       <Samples>4208</Samples>
*
*       <SamplesFree>2856580</SamplesFree>
*
*       <SampleLength>23</SampleLength>
*
*       <Profiles>9</Profiles>
*
*    </MemorySummary>
*
* </StatusData>
* <ConfigurationData DeviceType='SBE19plus' SerialNumber='01907809'>
*
*    <ProfileMode>
*
*       <ScansToAverage>1</ScansToAverage>
*
*       <MinimumCondFreq>0</MinimumCondFreq>
*
*       <PumpDelay>45</PumpDelay>
*
*       <AutoRun>no</AutoRun>
*
*       <IgnoreSwitch>no</IgnoreSwitch>
*
*    </ProfileMode>
*
*    <Battery>
*
*       <Type>alkaline</Type>
*
*       <CutOff>7.5</CutOff>
*
*    </Battery>
*
*    <DataChannels>
*
*       <ExtVolt0>yes</ExtVolt0>
*
*       <ExtVolt1>yes</ExtVolt1>
*
*       <ExtVolt2>yes</ExtVolt2>
*
*       <ExtVolt3>yes</ExtVolt3>
*
*       <ExtVolt4>yes</ExtVolt4>
*
*       <ExtVolt5>yes</ExtVolt5>
*
*       <SBE38>no</SBE38>
*
*       <WETLABS>no</WETLABS>
*
*       <OPTODE>no</OPTODE>
*
*       <SBE63>no</SBE63>
*
*       <SeaFET>no</SeaFET>
*
*       <GTD>no</GTD>
*
*    </DataChannels>
*
*    <EchoCharacters>yes</EchoCharacters>
*
*    <OutputExecutedTag>yes</OutputExecutedTag>
*
*    <OutputFormat>raw HEX</OutputFormat>
*
* </ConfigurationData>
* <CalibrationCoefficients DeviceType='SBE19plus' SerialNumber='01907809'>
*
*    <Calibration format='TEMP1' id='Main Temperature'>
*
*       <SerialNum>01907809</SerialNum>
*
*       <CalDate>31-Jan-23</CalDate>
*
*       <TA0>1.218232e-03</TA0>
*
*       <TA1>2.815090e-04</TA1>
*
*       <TA2>-1.578887e-06</TA2>
*
*       <TA3>1.972343e-07</TA3>
*
*       <TOFFSET>0.000000e+00</TOFFSET>
*
*    </Calibration>
*
*    <Calibration format='WBCOND0' id='Main Conductivity'>
*
*       <SerialNum>01907809</SerialNum>
*
*       <CalDate>31-Jan-23</CalDate>
*
*       <G>-1.005652e+00</G>
*
*       <H>1.267963e-01</H>
*
*       <I>-1.561708e-04</I>
*
*       <J>2.645944e-05</J>
*
*       <CPCOR>-9.570000e-08</CPCOR>
*
*       <CTCOR>3.250000e-06</CTCOR>
*
*       <CSLOPE>1.000000e+00</CSLOPE>
*
*    </Calibration>
*
*    <Calibration format='STRAIN0' id='Main Pressure'>
*
*       <SerialNum>10586018</SerialNum>
*
*       <CalDate>20-Jan-23</CalDate>
*
*       <PA0>4.416439e-02</PA0>
*
*       <PA1>4.850502e-04</PA1>
*
*       <PA2>-3.090426e-12</PA2>
*
*       <PTCA0>5.254757e+05</PTCA0>
*
*       <PTCA1>1.050255e+01</PTCA1>
*
*       <PTCA2>-2.922435e-01</PTCA2>
*
*       <PTCB0>2.516687e+01</PTCB0>
*
*       <PTCB1>3.750000e-04</PTCB1>
*
*       <PTCB2>0.000000e+00</PTCB2>
*
*       <PTEMPA0>-5.470820e+01</PTEMPA0>
*
*       <PTEMPA1>5.485421e+01</PTEMPA1>
*
*       <PTEMPA2>-3.446578e-01</PTEMPA2>
*
*       <POFFSET>8.500000e-01</POFFSET>
*
*       <PRANGE>1.600000e+02</PRANGE>
*
*    </Calibration>
*
*    <Calibration format='VOLT0' id='Volt 0'>
*
*       <OFFSET>-4.920000e-02</OFFSET>
*
*       <SLOPE>1.248122e+00</SLOPE>
*
*    </Calibration>
*
*    <Calibration format='VOLT0' id='Volt 1'>
*
*       <OFFSET>-4.784000e-02</OFFSET>
*
*       <SLOPE>1.248871e+00</SLOPE>
*
*    </Calibration>
*
*    <Calibration format='VOLT0' id='Volt 2'>
*
*       <OFFSET>-4.864632e-02</OFFSET>
*
*       <SLOPE>1.248714e+00</SLOPE>
*
*    </Calibration>
*
*    <Calibration format='VOLT0' id='Volt 3'>
*
*       <OFFSET>-4.743790e-02</OFFSET>
*
*       <SLOPE>1.248571e+00</SLOPE>
*
*    </Calibration>
*
*    <Calibration format='VOLT0' id='Volt 4'>
*
*       <OFFSET>-4.671263e-02</OFFSET>
*
*       <SLOPE>1.248951e+00</SLOPE>
*
*    </Calibration>
*
*    <Calibration format='VOLT0' id='Volt 5'>
*
*       <OFFSET>-4.871053e-02</OFFSET>
*
*       <SLOPE>1.249136e+00</SLOPE>
*
*    </Calibration>
*
*    <Calibration format='FREQ0' id='external frequency channel'>
*
*       <EXTFREQSF>1.000014e+00</EXTFREQSF>
*
*    </Calibration>
*
* </CalibrationCoefficients>
* <EventCounters DeviceType='SBE19plus' SerialNumber='01907809'>
*
*    <EventSummary numEvents='0'/>
*
* </EventCounters></InstrumentState>
* <Headers>
*
* cast   9 21 Oct 2024 14:36:42 samples 3232 to 4208, avg = 1, stop = mag switch
*
# nquan = 15
# nvalues = 977                         
# units = specified
# name 0 = depFM: Depth [fresh water, m]
# name 1 = dz/dtM: Descent Rate [m/s]
# name 2 = sbeox0Mg/L: Oxygen, SBE 43 [mg/l]
# name 3 = sbeox0PS: Oxygen, SBE 43 [% saturation]
# name 4 = specc: Specific Conductance [uS/cm]
# name 5 = c0uS/cm: Conductivity [uS/cm]
# name 6 = flECO-AFL: Fluorescence, WET Labs ECO-AFL/FL [mg/m^3]
# name 7 = ph: pH
# name 8 = orp: Oxidation Reduction Potential [mV]
# name 9 = par/sat/log: PAR/Logarithmic, Satlantic
# name 10 = turbWETntu0: Turbidity, WET Labs ECO [NTU]
# name 11 = prdM: Pressure, Strain Gauge [db]
# name 12 = prdE: Pressure, Strain Gauge [psi]
# name 13 = tv290C: Temperature [ITS-90, deg C]
# name 14 = flag:  0.000e+00
# span 0 =     -0.573,      8.538       
# span 1 =     -0.446,      0.196       
# span 2 =     7.1799,    11.0588       
# span 3 =     73.674,    109.044       
# span 4 =      1.251,     65.423       
# span 5 =   1.195501,  51.071500       
# span 6 =    -0.8885,     5.4723       
# span 7 =      5.432,      7.408       
# span 8 = -1240.7455,   977.3684       
# span 9 = 1.2357e-01, 1.6494e+03       
# span 10 =    -1.9138,    86.2140      
# span 11 =     -0.562,      8.376      
# span 12 =     -0.816,     12.148      
# span 13 =    14.0265,    22.7877      
# span 14 = 0.0000e+00, 0.0000e+00      
# interval = seconds: 0.25
# start_time = Oct 21 2024 14:36:42 [Instrument's time stamp, header]
# bad_flag = -9.990e-29
# <Sensors count="9" >
#   <sensor Channel="1" >
#     <!-- Count, Temperature -->
#     <TemperatureSensor SensorID="58" >
#       <SerialNumber>7809</SerialNumber>
#       <CalibrationDate>31-Jan-23</CalibrationDate>
#       <A0>1.21823180e-003</A0>
#       <A1>2.81508993e-004</A1>
#       <A2>-1.57888696e-006</A2>
#       <A3>1.97234302e-007</A3>
#       <Slope>1.00000000</Slope>
#       <Offset>0.0000</Offset>
#     </TemperatureSensor>
#   </sensor>
#   <sensor Channel="2" >
#     <!-- Frequency 0, Conductivity -->
#     <ConductivitySensor SensorID="3" >
#       <SerialNumber>7809</SerialNumber>
#       <CalibrationDate>31-Jan-23</CalibrationDate>
#       <UseG_J>1</UseG_J>
#       <!-- Cell const and series R are applicable only for wide range sensors. -->
#       <SeriesR>0.0000</SeriesR>
#       <CellConst>2000.0000</CellConst>
#       <ConductivityType>0</ConductivityType>
#       <Coefficients equation="0" >
#         <A>0.00000000e+000</A>
#         <B>0.00000000e+000</B>
#         <C>0.00000000e+000</C>
#         <D>0.00000000e+000</D>
#         <M>0.0</M>
#         <CPcor>-9.57000000e-008</CPcor>
#       </Coefficients>
#       <Coefficients equation="1" >
#         <G>-1.00565232e+000</G>
#         <H>1.26796307e-001</H>
#         <I>-1.56170788e-004</I>
#         <J>2.64594368e-005</J>
#         <CPcor>-9.57000000e-008</CPcor>
#         <CTcor>3.2500e-006</CTcor>
#         <!-- WBOTC not applicable unless ConductivityType = 1. -->
#         <WBOTC>0.00000000e+000</WBOTC>
#       </Coefficients>
#       <Slope>1.00000000</Slope>
#       <Offset>0.00000</Offset>
#     </ConductivitySensor>
#   </sensor>
#   <sensor Channel="3" >
#     <!-- Count, Pressure, Strain Gauge -->
#     <PressureSensor SensorID="46" >
#       <SerialNumber>7809</SerialNumber>
#       <CalibrationDate>20-Jan-23</CalibrationDate>
#       <PA0>4.41643944e-002</PA0>
#       <PA1>4.85050239e-004</PA1>
#       <PA2>-3.09042623e-012</PA2>
#       <PTEMPA0>-5.47081996e+001</PTEMPA0>
#       <PTEMPA1>5.48542136e+001</PTEMPA1>
#       <PTEMPA2>-3.44657813e-001</PTEMPA2>
#       <PTCA0>5.25475731e+005</PTCA0>
#       <PTCA1>1.05025484e+001</PTCA1>
#       <PTCA2>-2.92243463e-001</PTCA2>
#       <PTCB0>2.51668750e+001</PTCB0>
#       <PTCB1>3.75000000e-004</PTCB1>
#       <PTCB2>0.00000000e+000</PTCB2>
#       <Offset>0.000000</Offset>
#     </PressureSensor>
#   </sensor>
#   <sensor Channel="4" >
#     <!-- A/D voltage 0, Oxygen, SBE 43 -->
#     <OxygenSensor SensorID="38" >
#       <SerialNumber>0434</SerialNumber>
#       <CalibrationDate>18-Feb-23</CalibrationDate>
#       <Use2007Equation>1</Use2007Equation>
#       <CalibrationCoefficients equation="0" >
#         <!-- Coefficients for Owens-Millard equation. -->
#         <Boc>0.0000</Boc>
#         <Soc>0.0000e+000</Soc>
#         <offset>0.0000</offset>
#         <Pcor>0.00e+000</Pcor>
#         <Tcor>0.0000</Tcor>
#         <Tau>0.0</Tau>
#       </CalibrationCoefficients>
#       <CalibrationCoefficients equation="1" >
#         <!-- Coefficients for Sea-Bird equation - SBE calibration in 2007 and later. -->
#         <Soc>5.1878e-001</Soc>
#         <offset>-0.5046</offset>
#         <A>-4.2788e-003</A>
#         <B> 1.5372e-004</B>
#         <C>-2.1853e-006</C>
#         <D0> 2.5826e+000</D0>
#         <D1> 1.92634e-004</D1>
#         <D2>-4.64803e-002</D2>
#         <E> 3.6000e-002</E>
#         <Tau20> 0.9900</Tau20>
#         <H1>-3.3000e-002</H1>
#         <H2> 5.0000e+003</H2>
#         <H3> 1.4500e+003</H3>
#       </CalibrationCoefficients>
#     </OxygenSensor>
#   </sensor>
#   <sensor Channel="5" >
#     <!-- A/D voltage 1, PAR/Logarithmic, Satlantic -->
#     <PARLog_SatlanticSensor SensorID="76" >
#       <SerialNumber>1122</SerialNumber>
#       <CalibrationDate>08-Sep-2021</CalibrationDate>
#       <a0>9.6751e-001</a0>
#       <a1>8.0992e-001</a1>
#       <Im>1.3589e+000</Im>
#       <Multiplier>1.0000e+000</Multiplier>
#     </PARLog_SatlanticSensor>
#   </sensor>
#   <sensor Channel="6" >
#     <!-- A/D voltage 2, pH -->
#     <pH_Sensor SensorID="43" >
#       <SerialNumber>0363</SerialNumber>
#       <CalibrationDate>28-Feb-23</CalibrationDate>
#       <Slope>4.7364</Slope>
#       <Offset>2.5433</Offset>
#     </pH_Sensor>
#   </sensor>
#   <sensor Channel="7" >
#     <!-- A/D voltage 3, Oxidation Reduction Potential -->
#     <OxidationReductionPotentialSensor SensorID="41" >
#       <SerialNumber>0363</SerialNumber>
#       <CalibrationDate>28-Feb-23</CalibrationDate>
#       <B>2.499480</B>
#       <M>-0.496195</M>
#       <Offset>0.0</Offset>
#     </OxidationReductionPotentialSensor>
#   </sensor>
#   <sensor Channel="8" >
#     <!-- A/D voltage 4, Fluorometer, WET Labs ECO-AFL/FL -->
#     <FluoroWetlabECO_AFL_FL_Sensor SensorID="20" >
#       <SerialNumber>FLNTURT-2496</SerialNumber>
#       <CalibrationDate>02-Sep-2021</CalibrationDate>
#       <ScaleFactor>4.80000000e+001</ScaleFactor>
#       <!-- Dark output -->
#       <Vblank>0.0550</Vblank>
#     </FluoroWetlabECO_AFL_FL_Sensor>
#   </sensor>
#   <sensor Channel="9" >
#     <!-- A/D voltage 5, Turbidity Meter, WET Labs, ECO-NTU -->
#     <TurbidityMeter SensorID="67" >
#       <SerialNumber>FLNTURT--2496</SerialNumber>
#       <CalibrationDate>02-Sep-2021</CalibrationDate>
#       <ScaleFactor>197.000000</ScaleFactor>
#       <!-- Dark output -->
#       <DarkVoltage>0.070000</DarkVoltage>
#     </TurbidityMeter>
#   </sensor>
# </Sensors>
# datcnv_date = Oct 24 2024 13:19:41, 7.26.7.129 [datcnv_vars = 14]
# datcnv_in = C:\R\Reservoirs\Data\DataNotYetUploadedToEDI\Raw_CTD\RawDownloads\102124_fcr50_S7809009.hex C:\R\Reservoirs\Data\DataNotYetUploadedToEDI\Raw_CTD\RawDownloads\SBE19plusV2_7809_start20230701.xmlcon
# datcnv_skipover = 0
# datcnv_ox_hysteresis_correction = yes
# datcnv_ox_tau_correction = yes
# filter_date = Oct 24 2024 13:20:26, 7.26.7.129
# filter_in = C:\R\Reservoirs\Data\DataNotYetUploadedToEDI\Raw_CTD\RawDownloads\102124_fcr50_S7809009.cnv
# filter_low_pass_tc_A = 0.030
# filter_low_pass_tc_B = 0.150
# filter_low_pass_A_vars = sbeox0Mg/L prdM prdE tv290C
# filter_low_pass_B_vars = depFM dz/dtM sbeox0PS specc c0uS/cm flECO-AFL ph orp par/sat/log turbWETntu0
# alignctd_date = Oct 24 2024 13:21:05, 7.26.7.129
# alignctd_in = C:\R\Reservoirs\Data\DataNotYetUploadedToEDI\Raw_CTD\RawDownloads\102124_fcr50_S7809009.cnv
# alignctd_adv = dz/dtM 1.000, sbeox0PS 1.000, specc 1.000, c0uS/cm 1.000, flECO-AFL 1.000, ph 1.000, orp 1.000, turbWETntu0 1.000                                                                                                   
# file_type = ascii
*END*
     -0.573 1.3674e-13     7.3936     85.909      1.478   1.412415    -0.0543      5.452 -1240.7455 1.0644e+02     0.7294     -0.562     -0.815    22.7697 0.0000e+00
     -0.573 1.5042e-12     7.3946     85.948      1.428   1.364983    -0.0571      5.746 -1240.7455 1.2153e+02     0.7999     -0.562     -0.815    22.7708 0.0000e+00
     -0.573 1.6546e-11     7.3995     86.047      1.374   1.313023    -0.0581      5.904 -1240.7455 2.4812e+02     0.8650     -0.562     -0.815    22.7723 0.0000e+00
     -0.573 1.8201e-10     7.4004     86.178      1.351   1.290911    -0.0669      5.989 -1240.7455 6.9351e+02     0.7653     -0.562     -0.815    22.7732 0.0000e+00
     -0.573 2.0021e-09     7.3994     86.264      1.348   1.287645    -0.0713      6.043 -1240.7455 9.3822e+02     0.6183     -0.562     -0.815    22.7737 0.0000e+00
     -0.573 2.2023e-08     7.4020     86.293      1.333   1.273531    -0.0537      6.078 -1240.7452 5.0346e+02     0.5916     -0.562     -0.815    22.7738 0.0000e+00
     -0.573 2.4225e-07     7.4102     86.300      1.305   1.246943    -0.0289      6.096 -1240.7424 1.1734e+02     0.6135     -0.562     -0.814    22.7747 0.0000e+00
     -0.573      0.000     7.4261     86.312      1.276   1.219535    -0.0458      6.105 -1240.7114 7.3345e+01     0.5406     -0.561     -0.815    22.7749 0.0000e+00
     -0.573      0.000     7.4329     86.341      1.251   1.195501    -0.0836      6.107 -1240.3702 6.8187e+01     0.5306     -0.562     -0.814    22.7763 0.0000e+00
     -0.573      0.000     7.4336     86.362      1.267   1.209716    -0.0942      6.080 -1236.6172 7.4257e+01     0.6632     -0.561     -0.815    22.7755 0.0000e+00
     -0.573      0.004     7.4338     86.364      1.730   1.644764    -0.0829      5.765 -1195.3347 1.1383e+02     0.9140     -0.562     -0.814    22.7779 0.0000e+00
     -0.572      0.014     7.4337     86.392      5.464   5.125463     0.0702      5.432  -741.2271 4.7953e+02     3.4605     -0.561     -0.815    22.7751 0.0000e+00
     -0.572      0.034     7.4373     86.487     15.831  14.593233     0.3578      5.630   237.0447 1.1776e+03     8.2240     -0.560     -0.813    22.7811 0.0000e+00
     -0.571      0.061     7.4408     86.629     29.261  26.502431     0.5234      5.913   977.3684 1.5994e+03    10.8566     -0.562     -0.816    22.7724 0.0000e+00
     -0.561      0.088     7.4373     86.760     38.043  33.921588     0.5906      5.967   949.7129 1.6413e+03    11.0381     -0.559     -0.812    22.7877 0.0000e+00
     -0.530      0.115     7.4428     86.881     40.728  35.865867     0.9209      5.980   518.4476 1.6012e+03     9.5300     -0.527     -0.764    22.7449 0.0000e+00
     -0.482      0.142     7.5705     87.203     40.975  35.736088     1.4792      5.972   268.2491 1.5456e+03     6.6964     -0.472     -0.685    21.9340 0.0000e+00
     -0.435      0.169     7.7954     87.726     41.008  35.461067     1.7722      5.971   239.5571 1.5073e+03     5.1976     -0.420     -0.609    20.5136 0.0000e+00
     -0.396      0.188     7.9659     88.111     41.226  35.332031     1.8090      5.989   235.2906 1.5049e+03     5.0724     -0.389     -0.566    19.5301 0.0000e+00
     -0.354      0.196     8.0533     88.371     41.581  35.317611     1.9069      6.011   234.5583 1.5184e+03     5.0459     -0.355     -0.515    18.9839 0.0000e+00
     -0.297      0.191     8.1427     88.694     41.936  35.349757     2.0654      6.029   233.9723 1.5184e+03     5.0140     -0.294     -0.425    18.5780 0.0000e+00
     -0.233      0.179     8.2746     89.053     42.233  35.403121     2.1522      6.043   233.1105 1.5129e+03     5.0277     -0.226     -0.327    18.2512 0.0000e+00
     -0.177      0.159     8.3699     89.397     42.455  35.454989     2.1667      6.054   232.1398 1.5275e+03     5.0758     -0.166     -0.241    17.8543 0.0000e+00
     -0.137      0.133     8.4559     89.690     42.581  35.469126     2.1742      6.064   231.1836 1.5557e+03     5.0491     -0.128     -0.185    17.4399 0.0000e+00
     -0.113      0.103     8.5520     89.911     42.636  35.447041     2.2087      6.078   230.3256 1.5761e+03     4.9778     -0.107     -0.156    17.1108 0.0000e+00
     -0.100      0.076     8.6268     90.084     42.844  35.568573     2.2847      6.093   229.8535 1.5866e+03     4.9650     -0.097     -0.141    16.8828 0.0000e+00
     -0.091      0.058     8.6889     90.237     43.206  35.859836     2.3363      6.105   229.5193 1.5942e+03     5.0307     -0.090     -0.131    16.7351 0.0000e+00
     -0.082      0.049     8.7364     90.375     43.326  35.986496     2.3573      6.117   229.3814 1.5952e+03     5.1242     -0.083     -0.120    16.6364 0.0000e+00
     -0.070      0.045     8.7701     90.527     43.117  35.831035     2.4226      6.129   229.4770 1.5919e+03     5.1381     -0.071     -0.103    16.5648 0.0000e+00
     -0.054      0.042     8.8000     90.689     42.886  35.629917     2.5178      6.142   228.8686 1.5869e+03     5.0279     -0.051     -0.074    16.4837 0.0000e+00
     -0.041      0.038     8.8189     90.794     42.788  35.521748     2.5682      6.155   227.7901 1.5697e+03     4.9198     -0.038     -0.055    16.4701 0.0000e+00
     -0.032      0.032     8.8174     90.812     42.769  35.474893     2.5827      6.166   227.3637 1.4743e+03     4.9237     -0.032     -0.046    16.5399 0.0000e+00
     -0.026      0.024     8.8281     90.775     42.760  35.444059     2.5601      6.177   227.4124 1.3169e+03     4.9729     -0.024     -0.035    16.5572 0.0000e+00
     -0.021      0.016     8.8505     90.718     42.728  35.402706     2.4783      6.189   227.6916 1.2190e+03     4.9678     -0.020     -0.029    16.5442 0.0000e+00
     -0.018      0.010     8.8682     90.621     42.679  35.355584     2.4096      6.201   227.6421 1.1768e+03     4.9295     -0.018     -0.026    16.5091 0.0000e+00
     -0.018      0.006     8.8772     90.453     42.627  35.318446     2.3949      6.211   226.9861 1.1606e+03     4.9206     -0.017     -0.025    16.4622 0.0000e+00
     -0.018      0.002     8.8757     90.151     42.550  35.270926     2.4327      6.220   226.7277 1.1742e+03     4.9627     -0.018     -0.026    16.4397 0.0000e+00
     -0.018      0.000     8.8748     89.259     42.475  35.225183     2.5005      6.229   226.9278 1.1661e+03     5.0290     -0.018     -0.026    16.4209 0.0000e+00
     -0.018      0.000     8.8693     87.212     42.446  35.209538     2.5321      6.238   227.5124 1.1459e+03     5.0389     -0.018     -0.026    16.4109 0.0000e+00
     -0.018     -0.001     8.8506     84.749     42.444  35.208683     2.5245      6.247   228.5474 1.1574e+03     5.0142     -0.017     -0.025    16.4169 0.0000e+00
     -0.018     -0.001     8.8263     83.431     42.451  35.214836     2.4992      6.255   228.7736 1.1669e+03     5.0368     -0.018     -0.026    16.4427 0.0000e+00
     -0.018     -0.001     8.7783     83.664     42.456  35.220486     2.4767      6.262   228.0964 1.1589e+03     5.0735     -0.018     -0.026    16.4674 0.0000e+00
     -0.019     -0.001     8.5496     84.940     42.447  35.213550     2.4854      6.268   227.9312 1.1520e+03     5.0480     -0.019     -0.027    16.4753 0.0000e+00
     -0.019     -0.001     8.2208     86.670     42.432  35.194429     2.4876      6.275   228.4972 1.1522e+03     4.9684     -0.020     -0.028    16.4721 0.0000e+00
     -0.019     -0.001     8.0949     88.365     42.431  35.179631     2.4612      6.281   229.2603 1.1607e+03     4.9300     -0.019     -0.028    16.4704 0.0000e+00
     -0.019      0.000     8.1413     89.979     42.431  35.161507     2.4902      6.288   229.7589 1.1675e+03     4.9598     -0.019     -0.027    16.4755 0.0000e+00
     -0.020 -1.863e-08     8.2804     91.543     42.452  35.165613     2.5898      6.297   229.6210 1.1721e+03     5.0216     -0.019     -0.028    16.4789 0.0000e+00
     -0.020 -2.049e-07     8.4774     92.732     42.532  35.229252     2.6502      6.307   228.9690 1.1771e+03     5.0281     -0.020     -0.028    16.4713 0.0000e+00
     -0.019 -2.049e-07     8.6417     93.391     42.602  35.296470     2.6461      6.317   228.5871 1.1697e+03     4.9696     -0.019     -0.028    16.4522 0.0000e+00
     -0.019 -1.863e-08     8.7948     93.801     42.643  35.343866     2.6240      6.327   228.7893 1.1615e+03     4.9289     -0.019     -0.028    16.4275 0.0000e+00
     -0.019 -1.665e-09     8.9722     94.254     42.649  35.358189     2.6066      6.338   229.0912 1.1572e+03     4.8773     -0.019     -0.028    16.4101 0.0000e+00
     -0.019 1.5649e-10     9.0977     94.834     42.627  35.342754     2.6027      6.348   229.5705 1.1570e+03     4.8582     -0.019     -0.028    16.4063 0.0000e+00
     -0.019 3.4008e-09     9.1420     95.416     42.630  35.347595     2.6021      6.357   230.1959 1.1701e+03     4.8692     -0.019     -0.028    16.4203 0.0000e+00
     -0.019 3.7562e-08     9.1682     95.764     42.633  35.353278     2.5910      6.366   230.2864 1.1730e+03     4.8736     -0.019     -0.028    16.4412 0.0000e+00
     -0.019 4.1319e-07     9.2080     95.741     42.622  35.348022     2.5846      6.374   230.0626 1.1702e+03     4.9793     -0.019     -0.028    16.4510 0.0000e+00
     -0.019      0.000     9.2685     95.334     42.615  35.347502     2.5996      6.381   230.1563 1.1703e+03     5.0886     -0.019     -0.028    16.4524 0.0000e+00
     -0.019      0.000     9.3363     94.563     42.602  35.346989     2.6057      6.387   230.3870 1.1638e+03     5.0680     -0.020     -0.028    16.4538 0.0000e+00
     -0.019      0.001     9.3737     93.453     42.581  35.341835     2.6003      6.392   230.9592 1.1617e+03     4.9693     -0.019     -0.027    16.4585 0.0000e+00
     -0.019      0.001     9.3698     92.127     42.577  35.348650     2.6095      6.398   231.8262 1.1655e+03     4.8511     -0.019     -0.028    16.4624 0.0000e+00
     -0.019      0.002     9.3288     90.901     42.592  35.365954     2.6330      6.405   232.1802 1.1687e+03     4.8004     -0.019     -0.027    16.4668 0.0000e+00
     -0.019      0.002     9.2498     90.101     42.582  35.360714     2.6596      6.413   232.2281 1.1687e+03     4.8344     -0.019     -0.027    16.4795 0.0000e+00
     -0.018      0.002     9.1370     89.880     42.567  35.348743     2.6566      6.422   232.1467 1.1683e+03     4.8184     -0.017     -0.025    16.4972 0.0000e+00
     -0.016      0.002     8.9911     90.233     42.570  35.348119     2.6301      6.429   231.8849 1.1632e+03     4.7447     -0.016     -0.023    16.5093 0.0000e+00
     -0.016      0.002     8.8579     91.089     42.584  35.353168     2.6223      6.436   232.5036 1.1516e+03     4.7282     -0.016     -0.023    16.5147 0.0000e+00
     -0.016      0.002     8.7744     92.292     42.587  35.346333     2.6374      6.443   233.8626 1.1479e+03     4.7560     -0.016     -0.023    16.5180 0.0000e+00
     -0.016      0.001     8.7542     93.572     42.579  35.328917     2.6544      6.450   234.4648 1.1535e+03     4.7388     -0.015     -0.022    16.5187 0.0000e+00
     -0.016      0.001     8.7917     94.712     42.598  35.332917     2.6863      6.457   234.1060 1.1606e+03     4.7591     -0.016     -0.023    16.5154 0.0000e+00
     -0.015      0.001     8.8798     95.610     42.608  35.331244     2.7492      6.463   233.3960 1.1537e+03     4.9337     -0.014     -0.022    16.5077 0.0000e+00
     -0.015      0.001     9.0125     96.230     42.590  35.308674     2.7987      6.470   233.0218 1.1437e+03     5.0730     -0.015     -0.021    16.4957 0.0000e+00
     -0.014      0.001     9.1465     96.564     42.599  35.313807     2.8179      6.476   233.8832 1.1472e+03     5.0773     -0.014     -0.020    16.4825 0.0000e+00
     -0.014      0.001     9.2638     96.647     42.614  35.329862     2.8072      6.483   235.4656 1.1484e+03     5.0541     -0.013     -0.019    16.4691 0.0000e+00
     -0.014      0.001     9.3549     96.554     42.587  35.312438     2.7689      6.489   236.2366 1.1474e+03     5.0314     -0.014     -0.020    16.4553 0.0000e+00
     -0.014      0.001     9.4180     96.368     42.559  35.293498     2.7462      6.493   236.0640 1.1474e+03     5.0424     -0.014     -0.020    16.4457 0.0000e+00
     -0.014      0.001     9.4501     96.118     42.554  35.291208     2.7497      6.497   235.6151 1.1471e+03     5.1193     -0.014     -0.019    16.4440 0.0000e+00
     -0.013      0.001     9.4541     95.806     42.545  35.284760     2.7610      6.502   235.8859 1.1486e+03     5.1753     -0.013     -0.018    16.4484 0.0000e+00
     -0.013      0.001     9.4406     95.464     42.538  35.278979     2.7658      6.508   236.9302 1.1520e+03     5.1039     -0.013     -0.019    16.4554 0.0000e+00
     -0.013      0.001     9.4196     95.112     42.545  35.284757     2.7582      6.515   237.5720 1.1543e+03     4.9736     -0.013     -0.018    16.4608 0.0000e+00
     -0.013      0.001     9.3969     94.762     42.551  35.291168     2.7517      6.521   237.7094 1.1547e+03     4.9665     -0.012     -0.018    16.4634 0.0000e+00
     -0.013      0.001     9.3632     94.442     42.550  35.293050     2.7710      6.526   237.7310 1.1566e+03     5.1210     -0.012     -0.017    16.4641 0.0000e+00
     -0.013      0.001     9.3301     94.160     42.569  35.307517     2.7999      6.530   237.7471 1.1567e+03     5.2360     -0.012     -0.018    16.4637 0.0000e+00
     -0.012      0.001     9.2957     93.908     42.615  35.339195     2.8024      6.533   237.7320 1.1395e+03     5.1947     -0.012     -0.017    16.4631 0.0000e+00
     -0.012      0.000     9.2593     93.689     42.648  35.358809     2.8087      6.535   237.8926 1.0686e+03     5.1332     -0.012     -0.017    16.4650 0.0000e+00
     -0.011     -0.001     9.2274     93.529     42.648  35.354305     2.8592      6.538   238.3989 9.1223e+02     5.1427     -0.011     -0.016    16.4700 0.0000e+00
     -0.011     -0.002     9.1994     93.414     42.644  35.348180     2.9303      6.542   238.7770 6.8541e+02     5.1388     -0.010     -0.015    16.4707 0.0000e+00
     -0.011     -0.003     9.1780     93.324     42.645  35.348201     2.9524      6.546   238.7639 4.6493e+02     5.0860     -0.010     -0.015    16.4603 0.0000e+00
     -0.014     -0.005     9.1560     93.276     42.646  35.354556     2.9277      6.549   238.4129 3.1088e+02     5.0506     -0.014     -0.020    16.4482 0.0000e+00
     -0.016     -0.007     9.1425     93.212     42.635  35.361576     2.9147      6.554   238.1465 2.2776e+02     5.0185     -0.017     -0.024    16.4455 0.0000e+00
     -0.016     -0.007     9.1337     93.037     42.621  35.369649     2.8863      6.559   238.4689 2.3455e+02     5.0054     -0.016     -0.023    16.4425 0.0000e+00
     -0.018     -0.006     9.1222     92.690     42.631  35.388745     2.8253      6.562   238.9549 3.3174e+02     5.0288     -0.017     -0.024    16.4382 0.0000e+00
     -0.021     -0.005     9.1203     92.175     42.648  35.402132     2.7760      6.564   239.2042 5.3451e+02     4.9929     -0.021     -0.030    16.4416 0.0000e+00
     -0.024     -0.004     9.1137     91.578     42.659  35.404608     2.7573      6.566   239.4192 8.2743e+02     4.9480     -0.024     -0.034    16.4636 0.0000e+00
     -0.024     -0.003     9.0925     90.937     42.684  35.418678     2.7730      6.570   239.2309 1.0705e+03     5.0324     -0.024     -0.035    16.4942 0.0000e+00
     -0.024     -0.001     9.0573     90.235     42.717  35.445340     2.8241      6.572   238.7342 1.1988e+03     5.2284     -0.023     -0.034    16.5071 0.0000e+00
     -0.023      0.001     9.0025     89.540     42.743  35.473172     2.8770      6.574   238.7482 1.2385e+03     5.3699     -0.023     -0.033    16.5045 0.0000e+00
     -0.023      0.001     8.9443     88.906     42.767  35.501412     2.8877      6.578   239.0555 1.2225e+03     5.3421     -0.023     -0.032    16.4931 0.0000e+00
     -0.022      0.001     8.8877     88.297     42.795  35.532993     2.9127      6.582   239.5255 1.2074e+03     5.2340     -0.022     -0.031    16.4824 0.0000e+00
     -0.022      0.000     8.8147     87.714     42.865  35.601223     2.9957      6.585   240.1282 1.2066e+03     5.1561     -0.022     -0.032    16.4822 0.0000e+00
     -0.022     -0.003     8.7416     87.144     43.037  35.755335     3.0586      6.588   239.8037 1.2073e+03     5.1178     -0.021     -0.031    16.4907 0.0000e+00
     -0.022     -0.013     8.6824     86.517     43.233  35.937001     3.0741      6.591   238.6133 1.2084e+03     5.1121     -0.022     -0.032    16.5008 0.0000e+00
     -0.022     -0.030     8.6193     85.859     43.277  36.021135     3.0248      6.594   237.9528 1.2119e+03     5.0193     -0.022     -0.031    16.5122 0.0000e+00
     -0.024     -0.049     8.5598     85.258     43.072  35.947786     2.9198      6.593   238.4433 1.2385e+03     4.8848     -0.021     -0.031    16.5218 0.0000e+00
     -0.035     -0.062     8.5071     84.769     42.700  35.748223     2.8704      6.578   239.6398 1.2978e+03     4.9201     -0.027     -0.040    16.5356 0.0000e+00
     -0.062     -0.062     8.4418     84.519     42.416  35.575360     2.8845      6.554   240.2010 1.3324e+03     4.9671     -0.056     -0.081    16.5497 0.0000e+00
     -0.100     -0.048     8.3663     84.703     42.331  35.507501     2.8663      6.532   239.8088 1.3212e+03     4.9415     -0.103     -0.149    16.5848 0.0000e+00
     -0.128     -0.025     8.2850     85.342     42.364  35.498797     2.8003      6.517   239.5437 1.3187e+03     4.9516     -0.138     -0.200    16.7175 0.0000e+00
     -0.130      0.004     8.2055     86.266     42.528  35.596973     2.7516      6.508   239.6634 1.3294e+03     4.9872     -0.137     -0.199    16.8833 0.0000e+00
     -0.109      0.031     8.1573     87.275     42.728  35.742733     2.7530      6.507   239.9656 1.3310e+03     5.0637     -0.108     -0.156    16.9602 0.0000e+00
     -0.080      0.051     8.1763     88.196     42.741  35.738341     2.7667      6.512   240.3579 1.3240e+03     5.0912     -0.077     -0.112    16.9535 0.0000e+00
     -0.055      0.059     8.2563     88.937     42.681  35.670755     2.7675      6.521   240.5345 1.3129e+03     5.0129     -0.051     -0.074    16.8945 0.0000e+00
     -0.040      0.056     8.3621     89.479     42.712  35.686930     2.7790      6.530   240.2080 1.3018e+03     4.9366     -0.033     -0.048    16.8347 0.0000e+00
     -0.037      0.046     8.4699     89.827     42.699  35.680108     2.7976      6.541   239.6794 1.2909e+03     4.9537     -0.037     -0.054    16.8191 0.0000e+00
     -0.033      0.039     8.5636     90.008     42.662  35.651725     2.8185      6.552   239.5642 1.2160e+03     5.0490     -0.037     -0.055    16.8091 0.0000e+00
     -0.023      0.036     8.6410     90.086     42.759  35.724460     2.8567      6.562   239.9341 1.1199e+03     5.0641     -0.021     -0.029    16.7796 0.0000e+00
     -0.012      0.036     8.6966     90.126     42.933  35.861569     2.8928      6.573   240.4519 1.1594e+03     4.9649     -0.010     -0.014    16.7628 0.0000e+00
     -0.002      0.035     8.7270     90.128     43.072  35.977027     2.9056      6.586   240.7481 1.2151e+03     4.9091     -0.005     -0.007    16.7781 0.0000e+00
      0.011      0.031     8.7400     90.026     43.150  36.041784     2.9111      6.601   240.7625 1.1362e+03     4.9359      0.010      0.015    16.7889 0.0000e+00
      0.022      0.023     8.7485     89.743     43.187  36.073486     2.9016      6.616   240.7126 1.0437e+03     4.9817      0.024      0.035    16.7675 0.0000e+00
      0.026      0.016     8.7551     89.235     43.203  36.106525     2.8568      6.630   240.7463 1.0498e+03     4.9846      0.028      0.041    16.7539 0.0000e+00
      0.026      0.009     8.7565     88.517     43.173  36.124026     2.8183      6.645   240.9115 1.0956e+03     4.9370      0.026      0.037    16.7615 0.0000e+00
      0.024      0.004     8.7496     87.627     43.083  36.094781     2.8029      6.659   241.2478 1.0710e+03     4.9181      0.022      0.032    16.7619 0.0000e+00
      0.023      0.004     8.7259     86.640     42.942  36.006793     2.7713      6.670   241.6286 9.5168e+02     4.9608      0.023      0.033    16.7505 0.0000e+00
      0.023      0.011     8.6723     85.675     42.782  35.885068     2.7278      6.676   241.5582 7.1943e+02     5.0434      0.022      0.032    16.7683 0.0000e+00
      0.023      0.021     8.5895     84.834     42.636  35.765153     2.7003      6.680   241.0852 4.8928e+02     5.0631      0.022      0.031    16.8339 0.0000e+00
      0.027      0.036     8.4912     84.211     42.489  35.635582     2.6971      6.681   240.8132 4.8824e+02     4.9944      0.024      0.034    16.8926 0.0000e+00
      0.038      0.054     8.3836     83.889     42.388  35.523979     2.7721      6.680   240.8516 6.5354e+02     4.9982      0.034      0.051    16.9289 0.0000e+00
      0.055      0.072     8.2857     83.884     42.474  35.557833     2.9006      6.679   241.3774 7.7132e+02     5.0750      0.053      0.078    16.9395 0.0000e+00
      0.076      0.085     8.2013     84.138     42.699  35.727608     2.9605      6.678   242.1804 7.6879e+02     5.1038      0.071      0.103    16.9390 0.0000e+00
      0.103      0.089     8.1366     84.500     42.856  35.863531     2.9550      6.679   242.5592 6.9081e+02     5.0723      0.098      0.142    16.9423 0.0000e+00
      0.137      0.083     8.1113     84.765     42.943  35.932276     2.9500      6.684   242.5151 6.0400e+02     5.0366      0.135      0.196    16.9084 0.0000e+00
      0.166      0.070     8.1237     84.804     43.033  35.987740     3.0344      6.693   242.3351 5.5535e+02     5.0467      0.168      0.244    16.8418 0.0000e+00
      0.181      0.053     8.1576     84.619     43.093  36.026500     3.2007      6.704   242.2761 5.6405e+02     5.0581      0.183      0.265    16.8167 0.0000e+00
      0.185      0.036     8.1956     84.213     43.070  36.020195     3.2957      6.715   242.7488 6.1189e+02     5.0378      0.183      0.265    16.8473 0.0000e+00
      0.185      0.024     8.2280     83.567     42.980  35.974973     3.3013      6.727   243.5763 6.5341e+02     5.0066      0.182      0.263    16.8416 0.0000e+00
      0.186      0.019     8.2357     82.791     42.888  35.923923     3.3105      6.737   243.9352 6.7975e+02     4.9891      0.183      0.264    16.8072 0.0000e+00
      0.188      0.023     8.2201     82.022     42.779  35.847151     3.3659      6.746   243.9907 6.9733e+02     5.0309      0.183      0.265    16.7847 0.0000e+00
      0.193      0.033     8.1827     81.344     42.655  35.744697     3.4215      6.754   244.3335 6.8071e+02     5.0336      0.186      0.270    16.8005 0.0000e+00
      0.204      0.045     8.1045     80.856     42.613  35.700368     3.4411      6.760   244.8109 6.5299e+02     4.9872      0.199      0.290    16.8544 0.0000e+00
      0.217      0.056     8.0188     80.589     42.687  35.755317     3.5113      6.768   245.2014 6.3006e+02     5.0501      0.212      0.308    16.8819 0.0000e+00
      0.234      0.062     7.9415     80.511     42.792  35.838012     3.6458      6.777   245.4423 5.9378e+02     5.1792      0.227      0.329    16.8991 0.0000e+00
      0.256      0.062     7.8688     80.569     42.852  35.875368     3.7353      6.785   245.6586 5.5834e+02     5.2852      0.251      0.365    16.9031 0.0000e+00
      0.277      0.057     7.8255     80.654     42.895  35.889722     3.7782      6.794   245.9236 5.2977e+02     5.3057      0.273      0.396    16.8805 0.0000e+00
      0.292      0.051     7.8023     80.642     42.913  35.884629     3.8817      6.803   246.2375 5.1133e+02     5.2232      0.289      0.418    16.8743 0.0000e+00
      0.301      0.045     7.7950     80.477     42.847  35.813763     4.0376      6.811   246.8734 5.0369e+02     5.1764      0.297      0.430    16.8757 0.0000e+00
      0.306      0.043     7.8077     80.177     42.767  35.730818     4.1232      6.817   247.7611 4.8985e+02     5.2184      0.299      0.435    16.8597 0.0000e+00
      0.312      0.046     7.8257     79.792     42.755  35.706597     4.1518      6.822   248.4522 4.7270e+02     5.2863      0.305      0.442    16.8305 0.0000e+00
      0.321      0.051     7.8309     79.397     42.762  35.711238     4.1923      6.829   249.0357 4.5641e+02     5.3148      0.312      0.452    16.8026 0.0000e+00
      0.338      0.056     7.8159     79.033     42.769  35.723480     4.2376      6.836   249.6533 4.4302e+02     5.2889      0.329      0.478    16.7895 0.0000e+00
      0.360      0.061     7.7885     78.706     42.774  35.727722     4.2667      6.843   250.2413 4.3715e+02     5.2457      0.356      0.515    16.7717 0.0000e+00
      0.380      0.065     7.7518     78.395     42.752  35.699074     4.2693      6.849   250.7242 4.3510e+02     5.2369      0.374      0.543    16.7433 0.0000e+00
      0.395      0.066     7.7123     78.130     42.769  35.694339     4.3111      6.856   251.0180 4.3012e+02     5.2845      0.387      0.562    16.7478 0.0000e+00
      0.408      0.064     7.6734     77.967     42.837  35.733894     4.3968      6.861   251.3845 4.1835e+02     5.3093      0.400      0.580    16.7639 0.0000e+00
      0.422      0.063     7.6436     77.841     42.842  35.733156     4.4313      6.866   251.8855 4.0412e+02     5.2639      0.413      0.599    16.7623 0.0000e+00
      0.440      0.064     7.6150     77.663     42.788  35.685415     4.4371      6.871   252.3435 3.9203e+02     5.2481      0.432      0.626    16.7530 0.0000e+00
      0.458      0.068     7.5879     77.458     42.772  35.664255     4.4507      6.874   252.7919 3.8228e+02     5.2544      0.451      0.654    16.7241 0.0000e+00
      0.474      0.071     7.5812     77.303     42.777  35.667651     4.4464      6.877   253.2637 3.7275e+02     5.2377      0.464      0.674    16.6974 0.0000e+00
      0.490      0.073     7.5728     77.230     42.763  35.663027     4.4267      6.879   253.6602 3.6011e+02     5.2511      0.478      0.694    16.6992 0.0000e+00
      0.512      0.073     7.5534     77.244     42.776  35.671811     4.4036      6.883   253.9730 3.4566e+02     5.2456      0.501      0.727    16.7022 0.0000e+00
      0.534      0.072     7.5327     77.309     42.839  35.710401     4.3991      6.888   254.2922 3.3273e+02     5.2397      0.525      0.762    16.6815 0.0000e+00
      0.552      0.068     7.5180     77.371     42.902  35.748899     4.4143      6.893   254.5080 3.2086e+02     5.2827      0.543      0.786    16.6792 0.0000e+00
      0.569      0.062     7.5064     77.414     42.923  35.756560     4.4212      6.899   254.8617 3.1082e+02     5.3212      0.558      0.809    16.7028 0.0000e+00
      0.584      0.057     7.5094     77.398     42.911  35.739569     4.4079      6.905   255.4711 3.0335e+02     5.2943      0.574      0.833    16.6987 0.0000e+00
      0.597      0.053     7.5237     77.277     42.909  35.733806     4.3949      6.911   255.6806 2.9731e+02     5.2316      0.587      0.852    16.6730 0.0000e+00
      0.608      0.051     7.5300     77.062     42.934  35.750328     4.4220      6.916   255.5024 2.9220e+02     5.2457      0.596      0.865    16.6580 0.0000e+00
      0.618      0.050     7.5385     76.794     42.937  35.748978     4.4778      6.921   255.5536 2.8545e+02     5.3282      0.605      0.877    16.6482 0.0000e+00
      0.631      0.050     7.5405     76.488     42.902  35.717470     4.5039      6.928   256.1272 2.7676e+02     5.3415      0.619      0.897    16.6382 0.0000e+00
      0.646      0.052     7.5288     76.154     42.868  35.686622     4.4966      6.934   256.8457 2.6991e+02     5.2700      0.634      0.919    16.6343 0.0000e+00
      0.660      0.054     7.5062     75.848     42.887  35.693242     4.4721      6.938   257.0991 2.6482e+02     5.2143      0.648      0.939    16.6307 0.0000e+00
      0.672      0.055     7.4807     75.605     42.944  35.734052     4.4495      6.943   257.1262 2.5811e+02     5.2143      0.658      0.954    16.6241 0.0000e+00
      0.686      0.055     7.4519     75.412     42.944  35.735889     4.4557      6.947   257.1745 2.4961e+02     5.2704      0.670      0.972    16.6232 0.0000e+00
      0.703      0.055     7.4160     75.228     42.915  35.715457     4.4651      6.951   257.0795 2.4186e+02     5.2776      0.690      1.001    16.6240 0.0000e+00
      0.719      0.055     7.3873     75.019     42.948  35.740821     4.4536      6.956   257.2684 2.3621e+02     5.2681      0.706      1.025    16.6087 0.0000e+00
      0.730      0.054     7.3667     74.798     42.932  35.725316     4.4414      6.961   257.9963 2.3110e+02     5.3596      0.715      1.037    16.5944 0.0000e+00
      0.742      0.054     7.3477     74.584     42.849  35.654879     4.4504      6.966   258.6529 2.2505e+02     5.4624      0.727      1.055    16.6033 0.0000e+00
      0.756      0.054     7.3308     74.378     42.852  35.650566     4.4721      6.970   259.0129 2.1926e+02     5.5539      0.743      1.078    16.6115 0.0000e+00
      0.769      0.054     7.3101     74.192     42.887  35.673162     4.4708      6.975   259.1653 2.1414e+02     5.5783      0.755      1.095    16.6052 0.0000e+00
      0.783      0.055     7.2880     74.014     42.811  35.610835     4.4678      6.979   259.2053 2.0800e+02     5.5184      0.767      1.111    16.6016 0.0000e+00
      0.799      0.055     7.2675     73.824     42.337  35.214222     4.4937      6.983   259.4095 2.0160e+02     5.4789      0.785      1.138    16.6052 0.0000e+00
      0.814      0.055     7.2483     73.674     41.466  34.430853     4.5267      6.987   259.8276 1.9665e+02     5.4760      0.801      1.161    16.5932 0.0000e+00
      0.827      0.054     7.2320     73.879     40.962  33.816243     4.5580      6.991   260.3894 1.9201e+02     5.5172      0.811      1.176    16.5789 0.0000e+00
      0.840      0.054     7.2167     75.487     41.108  33.619852     4.5895      6.996   260.8676 1.8671e+02     5.4654      0.823      1.194    16.5872 0.0000e+00
      0.854      0.054     7.1922     79.546     41.429  33.578586     4.6158      7.001   261.1357 1.8173e+02     5.3284      0.838      1.215    16.5962 0.0000e+00
      0.868      0.055     7.1799     85.708     41.679  33.570698     4.6268      7.005   261.1348 1.7758e+02     5.2606      0.852      1.235    16.5812 0.0000e+00
      0.880      0.057     7.1941     92.546     41.862  33.587671     4.6389      7.009   260.9436 1.7337e+02     5.2257      0.863      1.251    16.3485 0.0000e+00
      0.895      0.058     7.3682     98.768     41.964  33.593322     4.6622      7.012   261.0604 1.6822e+02     5.2149      0.875      1.270    15.8696 0.0000e+00
      0.912      0.060     7.8574    103.718     41.995  33.575494     4.6679      7.013   261.4284 1.6304e+02     5.1981      0.894      1.297    15.4727 0.0000e+00
      0.928      0.062     8.5768    107.116     42.003  33.562391     4.6580      7.016   261.7797 1.5869e+02     5.1931      0.910      1.321    15.2390 0.0000e+00
      0.943      0.064     9.3419    108.874     42.010  33.561768     4.6669      7.020   262.1245 1.5429e+02     5.2574      0.924      1.339    15.0921 0.0000e+00
      0.958      0.064    10.0021    109.044     42.025  33.567952     4.7008      7.023   261.8118 1.4983e+02     5.3262      0.940      1.363    15.0108 0.0000e+00
      0.976      0.063    10.5220    107.939     42.047  33.573710     4.7259      7.026   260.9242 1.4541e+02     5.3082      0.957      1.388    14.9629 0.0000e+00
      0.994      0.062    10.8715    106.228     42.056  33.567933     4.7205      7.029   260.8557 1.4086e+02     5.2101      0.974      1.412    14.9424 0.0000e+00
      1.010      0.061    11.0481    104.562     42.057  33.561533     4.7101      7.032   261.5865 1.3714e+02     5.1985      0.992      1.439    14.9418 0.0000e+00
      1.024      0.059    11.0588    103.217     42.059  33.559756     4.7420      7.035   262.1031 1.3402e+02     5.3047      1.005      1.457    14.9389 0.0000e+00
      1.037      0.058    10.9224    102.183     42.049  33.546444     4.8068      7.039   262.4557 1.3038e+02     5.3323      1.016      1.473    14.9191 0.0000e+00
      1.052      0.056    10.7280    101.401     42.036  33.527459     4.8446      7.043   262.3226 1.2655e+02     5.2255      1.031      1.496    14.9009 0.0000e+00
      1.067      0.055    10.5522    100.784     42.037  33.520529     4.8412      7.046   261.6118 1.2303e+02     5.1410      1.046      1.518    14.8948 0.0000e+00
      1.082      0.054    10.4213    100.249     42.051  33.526088     4.8240      7.048   261.4332 1.1997e+02     5.1300      1.061      1.539    14.8930 0.0000e+00
      1.096      0.053    10.3181     99.779     42.061  33.531221     4.8275      7.051   261.7979 1.1713e+02     5.1948      1.075      1.558    14.8880 0.0000e+00
      1.109      0.053    10.2455     99.367     42.047  33.519156     4.8427      7.055   262.3217 1.1423e+02     5.2747      1.088      1.577    14.8765 0.0000e+00
      1.121      0.053    10.1898     98.985     42.033  33.507091     4.8330      7.057   262.9475 1.1177e+02     5.2417      1.102      1.597    14.8646 0.0000e+00
      1.133      0.054    10.1366     98.655     42.041  33.512234     4.8182      7.059   262.8251 1.0939e+02     5.1721      1.111      1.610    14.8586 0.0000e+00
      1.146      0.054    10.0890     98.430     42.052  33.517899     4.8552      7.062   262.0470 1.0640e+02     5.1847      1.122      1.628    14.8560 0.0000e+00
      1.162      0.053    10.0501     98.311     42.050  33.512133     4.9310      7.066   261.7135 1.0325e+02     5.2577      1.140      1.653    14.8554 0.0000e+00
      1.178      0.051    10.0105     98.256     42.045  33.505960     4.9600      7.069   261.8905 1.0043e+02     5.2702      1.156      1.677    14.8554 0.0000e+00
      1.192      0.049     9.9737     98.219     42.047  33.506697     4.9486      7.073   262.4656 9.8259e+01     5.2331      1.170      1.697    14.8542 0.0000e+00
      1.203      0.046     9.9528     98.149     42.064  33.521050     4.9675      7.076   263.2473 9.6892e+01     5.2523      1.182      1.714    14.8496 0.0000e+00
      1.211      0.043     9.9438     98.057     42.104  33.552601     5.0135      7.078   263.3401 9.5552e+01     5.3317      1.187      1.722    14.8442 0.0000e+00
      1.220      0.043     9.9397     97.937     42.127  33.570960     5.0386      7.080   262.7264 9.3559e+01     5.4075      1.194      1.732    14.8407 0.0000e+00
      1.232      0.046     9.9398     97.771     42.102  33.552705     5.0303      7.083   262.4526 9.1484e+01     5.3831      1.208      1.752    14.8400 0.0000e+00
      1.243      0.050     9.9306     97.606     42.060  33.522204     5.0131      7.084   262.7829 8.9715e+01     5.2751      1.220      1.769    14.8413 0.0000e+00
      1.254      0.053     9.9204     97.469     42.053  33.519395     5.0136      7.085   263.1919 8.7428e+01     5.2298      1.228      1.782    14.8419 0.0000e+00
      1.270      0.055     9.9127     97.354     42.051  33.518753     5.0286      7.088   263.5267 8.4201e+01     5.2794      1.244      1.804    14.8398 0.0000e+00
      1.289      0.057     9.8903     97.247     42.048  33.514438     5.0360      7.092   263.9058 8.1686e+01     5.3281      1.268      1.839    14.8411 0.0000e+00
      1.304      0.059     9.8729     97.142     42.074  33.530673     4.9949      7.094   264.1618 8.0398e+01     5.3063      1.281      1.858    14.8476 0.0000e+00
      1.314      0.061     9.8585     97.064     42.073  33.524707     4.9148      7.096   264.1272 7.8611e+01     5.2553      1.285      1.865    14.8506 0.0000e+00
      1.329      0.061     9.8467     97.025     42.053  33.505732     4.8829      7.098   263.9176 7.6111e+01     5.2578      1.302      1.888    14.8529 0.0000e+00
      1.348      0.061     9.8372     96.961     42.036  33.491579     4.9004      7.100   263.6921 7.3751e+01     5.3020      1.322      1.918    14.8516 0.0000e+00
      1.365      0.062     9.8267     96.846     42.021  33.480469     4.9017      7.101   263.7235 7.1511e+01     5.3121      1.338      1.940    14.8435 0.0000e+00
      1.382      0.064     9.8188     96.733     42.041  33.498291     4.9057      7.104   264.4692 6.9335e+01     5.2769      1.354      1.964    14.8360 0.0000e+00
      1.398      0.064     9.8194     96.626     42.063  33.516746     4.9492      7.107   265.3092 6.7639e+01     5.2861      1.373      1.991    14.8324 0.0000e+00
      1.411      0.065     9.8155     96.541     42.061  33.513268     4.9956      7.109   265.1897 6.6179e+01     5.3210      1.385      2.008    14.8329 0.0000e+00
      1.424      0.068     9.7975     96.515     42.074  33.519668     5.0173      7.110   264.8311 6.4145e+01     5.3235      1.395      2.023    14.8344 0.0000e+00
      1.443      0.072     9.7884     96.512     42.092  33.530692     5.0275      7.111   264.6731 6.1779e+01     5.2822      1.415      2.052    14.8374 0.0000e+00
      1.464      0.074     9.7760     96.480     42.081  33.519669     5.0360      7.113   264.4837 5.9528e+01     5.2317      1.436      2.083    14.8390 0.0000e+00
      1.485      0.074     9.7654     96.437     42.073  33.513269     5.0365      7.114   265.2089 5.7320e+01     5.2254      1.456      2.112    14.8359 0.0000e+00
      1.506      0.073     9.7657     96.405     42.076  33.516749     5.0513      7.115   266.5581 5.5336e+01     5.2399      1.478      2.144    14.8305 0.0000e+00
      1.526      0.070     9.7702     96.358     42.054  33.498307     5.1061      7.117   267.1168 5.3749e+01     5.2363      1.497      2.172    14.8253 0.0000e+00
      1.541      0.066     9.7654     96.272     42.035  33.480617     5.1580      7.119   267.2318 5.2448e+01     5.2154      1.511      2.193    14.8227 0.0000e+00
      1.555      0.065     9.7592     96.142     42.055  33.493191     5.1631      7.121   267.0879 5.1017e+01     5.2263      1.523      2.209    14.8233 0.0000e+00
      1.571      0.066     9.7582     95.980     42.097  33.523445     5.1508      7.122   267.1835 4.9424e+01     5.2316      1.540      2.234    14.8255 0.0000e+00
      1.588      0.069     9.7530     95.788     42.106  33.529190     5.1346      7.124   268.2162 4.8078e+01     5.3136      1.558      2.260    14.8258 0.0000e+00
      1.604      0.074     9.7465     95.591     42.070  33.499208     5.1006      7.125   268.9052 4.6649e+01     5.4662      1.571      2.279    14.8219 0.0000e+00
      1.623      0.077     9.7326     95.406     42.047  33.478155     5.0729      7.127   268.9752 4.4905e+01     5.4712      1.590      2.306    14.8168 0.0000e+00
      1.645      0.077     9.7182     95.195     42.037  33.464967     5.0650      7.128   268.7187 4.3161e+01     5.4083      1.614      2.340    14.8121 0.0000e+00
      1.668      0.075     9.6983     94.981     42.043  33.466632     5.0972      7.129   268.1271 4.1408e+01     5.3884      1.636      2.372    14.8106 0.0000e+00
      1.691      0.072     9.6755     94.788     42.086  33.498277     5.1628      7.130   268.1888 3.9980e+01     5.3676      1.660      2.409    14.8113 0.0000e+00
      1.708      0.068     9.6620     94.568     42.129  33.530375     5.2002      7.132   269.0343 3.9115e+01     5.3280      1.677      2.433    14.8078 0.0000e+00
      1.721      0.067     9.6402     94.336     42.142  33.537497     5.1921      7.134   269.8323 3.8346e+01     5.2507      1.687      2.446    14.8005 0.0000e+00
      1.733      0.068     9.6162     94.121     42.127  33.520944     5.1651      7.135   270.2656 3.7422e+01     5.1845      1.698      2.463    14.7957 0.0000e+00
      1.748      0.071     9.6027     93.911     42.132  33.520549     5.1231      7.137   270.2293 3.6329e+01     5.2110      1.712      2.484    14.7943 0.0000e+00
      1.766      0.075     9.5780     93.711     42.151  33.532720     5.0585      7.139   269.9093 3.4972e+01     5.2301      1.731      2.511    14.7920 0.0000e+00
      1.790      0.077     9.5540     93.539     42.163  33.541211     5.0166      7.141   269.6659 3.3429e+01     5.1765      1.754      2.543    14.7875 0.0000e+00
      1.816      0.075     9.5353     93.377     42.188  33.559763     5.0156      7.144   269.6105 3.2022e+01     5.1765      1.782      2.584    14.7819 0.0000e+00
      1.839      0.069     9.5142     93.181     42.202  33.566693     5.0467      7.144   269.7554 3.1026e+01     5.2306      1.806      2.620    14.7762 0.0000e+00
      1.855      0.061     9.4941     92.908     42.199  33.561561     5.1088      7.145   270.0412 3.0400e+01     5.2845      1.821      2.641    14.7726 0.0000e+00
      1.867      0.053     9.4764     92.489     42.204  33.561146     5.1346      7.147   270.3987 2.9977e+01     5.2815      1.832      2.657    14.7737 0.0000e+00
      1.875      0.045     9.4635     91.923     42.209  33.561675     5.1166      7.150   270.6363 2.9587e+01     5.2280      1.838      2.666    14.7720 0.0000e+00
      1.883      0.040     9.4445     91.284     42.219  33.567954     5.1165      7.152   270.0752 2.8990e+01     5.2195      1.844      2.675    14.7651 0.0000e+00
      1.894      0.037     9.4220     90.592     42.226  33.573617     5.1421      7.153   269.1215 2.8299e+01     5.2462      1.858      2.694    14.7622 0.0000e+00
      1.906      0.037     9.3812     89.875     42.218  33.566706     5.1683      7.156   269.2576 2.7865e+01     5.3120      1.872      2.715    14.7581 0.0000e+00
      1.915      0.039     9.3189     89.210     42.194  33.547835     5.1661      7.160   269.9135 2.7601e+01     5.3325      1.879      2.725    14.7513 0.0000e+00
      1.921      0.043     9.2563     88.657     42.179  33.535780     5.1402      7.162   270.3405 2.7263e+01     5.2887      1.884      2.731    14.7502 0.0000e+00
      1.929      0.044     9.1849     88.262     42.194  33.547835     5.1221      7.163   270.8935 2.6777e+01     5.3624      1.891      2.742    14.7513 0.0000e+00
      1.942      0.044     9.1084     88.034     42.217  33.566707     5.1226      7.164   270.5768 2.6029e+01     5.5064      1.903      2.759    14.7506 0.0000e+00
      1.960      0.042     9.0398     87.964     42.225  33.573629     5.1290      7.166   269.3508 2.5192e+01     5.5606      1.921      2.786    14.7505 0.0000e+00
      1.976      0.039     8.9809     88.043     42.220  33.568079     5.0581      7.168   268.8902 2.4726e+01     5.4720      1.941      2.816    14.7506 0.0000e+00
      1.985      0.035     8.9416     88.214     42.216  33.563050     4.9141      7.172   269.1369 2.4590e+01     5.3225      1.948      2.826    14.7496 0.0000e+00
      1.988      0.033     8.9188     88.416     42.235  33.576260     4.8442      7.174   269.6662 2.4460e+01     5.2910      1.949      2.827    14.7515 0.0000e+00
      1.991      0.036     8.9108     88.621     42.269  33.600910     4.8465      7.174   270.4713 2.4335e+01     5.3305      1.952      2.833    14.7528 0.0000e+00
      1.995      0.041     8.9215     88.782     42.282  33.607311     4.8412      7.175   270.2673 2.4071e+01     5.2873      1.954      2.835    14.7511 0.0000e+00
      2.005      0.049     8.9428     88.847     42.266  33.590209     4.8549      7.176   269.0067 2.3402e+01     5.2468      1.962      2.846    14.7476 0.0000e+00
      2.024      0.055     8.9633     88.848     42.264  33.584452     4.9039      7.179   268.3078 2.2470e+01     5.3191      1.982      2.876    14.7455 0.0000e+00
      2.048      0.057     8.9860     88.797     42.288  33.601141     4.9428      7.182   268.6148 2.1681e+01     5.4443      2.011      2.916    14.7437 0.0000e+00
      2.066      0.057     9.0076     88.667     42.290  33.601663     4.9595      7.183   269.3632 2.1255e+01     5.5304      2.030      2.944    14.7383 0.0000e+00
      2.077      0.052     9.0119     88.484     42.277  33.590762     4.9565      7.184   269.8705 2.0996e+01     5.4720      2.037      2.954    14.7323 0.0000e+00
      2.085      0.045     9.0119     88.268     42.281  33.596217     4.9385      7.187   269.6722 2.0665e+01     5.2852      2.044      2.964    14.7280 0.0000e+00
      2.095      0.039     9.0111     88.057     42.285  33.604188     4.9340      7.189   269.1169 2.0265e+01     5.1512      2.053      2.978    14.7253 0.0000e+00
      2.106      0.039     8.9943     87.904     42.305  33.623698     4.9520      7.190   268.8339 1.9901e+01     5.1836      2.066      2.997    14.7239 0.0000e+00
      2.115      0.043     8.9770     87.812     42.330  33.641785     5.0147      7.191   268.8320 1.9656e+01     5.3011      2.076      3.011    14.7220 0.0000e+00
      2.122      0.047     8.9536     87.771     42.330  33.632549     5.0923      7.194   269.0087 1.9393e+01     5.3758      2.079      3.015    14.7247 0.0000e+00
      2.132      0.051     8.9268     87.789     42.351  33.638895     5.1170      7.196   269.6790 1.8888e+01     5.4030      2.088      3.028    14.7321 0.0000e+00
      2.150      0.056     8.9115     87.867     42.378  33.655060     5.1137      7.197   270.3978 1.8255e+01     5.4252      2.108      3.058    14.7389 0.0000e+00
      2.170      0.061     8.9020     87.957     42.356  33.637655     5.1518      7.198   270.3860 1.7757e+01     5.4740      2.130      3.089    14.7397 0.0000e+00
      2.185      0.066     8.9009     88.008     42.326  33.618783     5.2283      7.199   269.9672 1.7339e+01     5.5150      2.143      3.107    14.7233 0.0000e+00
      2.199      0.069     8.9046     88.024     42.321  33.617223     5.2561      7.200   269.6362 1.6789e+01     5.4770      2.155      3.125    14.7082 0.0000e+00
      2.217      0.069     8.9160     88.016     42.330  33.618793     5.2298      7.201   269.4804 1.6187e+01     5.4587      2.174      3.153    14.7031 0.0000e+00
      2.237      0.070     8.9279     87.976     42.369  33.637761     5.1936      7.203   270.1487 1.5701e+01     5.5326      2.196      3.184    14.7024 0.0000e+00
      2.255      0.071     8.9302     87.873     42.404  33.656219     5.1513      7.204   271.2637 1.5254e+01     5.5842      2.212      3.206    14.7109 0.0000e+00
      2.273      0.070     8.9305     87.670     42.402  33.651615     5.1345      7.204   271.3459 1.4736e+01     5.5372      2.228      3.231    14.7177 0.0000e+00
      2.293      0.067     8.9312     87.369     42.393  33.645538     5.1323      7.205   270.8859 1.4235e+01     5.4427      2.249      3.262    14.7099 0.0000e+00
      2.310      0.065     8.9317     87.014     42.396  33.646181     5.1161      7.206   270.5197 1.3849e+01     5.4313      2.267      3.288    14.6907 0.0000e+00
      2.325      0.064     8.9263     86.650     42.421  33.659392     5.0882      7.206   270.1873 1.3521e+01     5.5022      2.281      3.308    14.6783 0.0000e+00
      2.340      0.064     8.9053     86.294     42.456  33.678369     5.0528      7.207   270.9972 1.3176e+01     5.5485      2.293      3.327    14.6761 0.0000e+00
      2.355      0.064     8.8727     85.945     42.476  33.685290     5.0291      7.209   272.5692 1.2804e+01     5.5471      2.308      3.348    14.6797 0.0000e+00
      2.372      0.066     8.8340     85.617     42.478  33.679619     5.0098      7.211   273.1906 1.2443e+01     5.5190      2.326      3.373    14.6810 0.0000e+00
      2.389      0.069     8.7985     85.289     42.476  33.673237     4.9701      7.212   273.0891 1.2108e+01     5.5170      2.342      3.397    14.6713 0.0000e+00
      2.406      0.074     8.7657     84.948     42.479  33.671564     4.9316      7.213   272.6336 1.1749e+01     5.5561      2.358      3.421    14.6584 0.0000e+00
      2.425      0.077     8.7302     84.598     42.468  33.659387     4.9105      7.214   271.9851 1.1353e+01     5.5481      2.378      3.449    14.6476 0.0000e+00
      2.445      0.078     8.7005     84.252     42.463  33.652891     4.8982      7.215   272.4745 1.0925e+01     5.4885      2.397      3.477    14.6397 0.0000e+00
      2.467      0.077     8.6688     83.960     42.471  33.656455     4.9405      7.215   273.9049 1.0474e+01     5.4505      2.418      3.507    14.6342 0.0000e+00
      2.491      0.075     8.6336     83.745     42.451  33.639038     5.0393      7.215   274.7386 1.0102e+01     5.4650      2.444      3.545    14.6297 0.0000e+00
      2.511      0.071     8.6002     83.581     42.445  33.632636     5.1105      7.215   274.9838 9.8347e+00     5.5266      2.465      3.574    14.6260 0.0000e+00
      2.526      0.066     8.5621     83.434     42.459  33.642488     5.1188      7.216   274.8918 9.5962e+00     5.5116      2.477      3.593    14.6224 0.0000e+00
      2.541      0.062     8.5324     83.295     42.446  33.631264     5.0738      7.218   274.4001 9.3701e+00     5.4206      2.491      3.614    14.6193 0.0000e+00
      2.554      0.060     8.5122     83.153     42.439  33.623815     5.0157      7.220   274.2864 9.1653e+00     5.4162      2.505      3.634    14.6172 0.0000e+00
      2.568      0.059     8.4974     82.981     42.431  33.615863     4.9982      7.222   274.7216 8.9219e+00     5.4935      2.517      3.650    14.6157 0.0000e+00
      2.584      0.059     8.4827     82.769     42.411  33.598560     5.0122      7.223   275.1030 8.6234e+00     5.5693      2.533      3.674    14.6141 0.0000e+00
      2.601      0.059     8.4688     82.526     42.421  33.604942     5.0273      7.223   275.2838 8.3663e+00     5.5809      2.552      3.701    14.6125 0.0000e+00
      2.617      0.058     8.4567     82.308     42.453  33.629580     5.0390      7.223   275.4444 8.1735e+00     5.5318      2.568      3.724    14.6105 0.0000e+00
      2.631      0.057     8.4389     82.178     42.470  33.642675     5.0541      7.223   275.5828 7.9940e+00     5.5221      2.581      3.743    14.6084 0.0000e+00
      2.645      0.055     8.4188     82.146     42.463  33.636386     5.0772      7.224   275.3221 7.8162e+00     5.5658      2.593      3.761    14.6067 0.0000e+00
      2.659      0.055     8.3912     82.180     42.439  33.616986     5.0847      7.225   274.8739 7.6562e+00     5.5484      2.608      3.783    14.6055 0.0000e+00
      2.672      0.055     8.3665     82.270     42.415  33.598438     5.1107      7.226   274.8957 7.4967e+00     5.5164      2.621      3.802    14.6047 0.0000e+00
      2.684      0.056     8.3532     82.432     42.417  33.602458     5.1846      7.228   275.2415 7.2847e+00     5.5884      2.630      3.816    14.6038 0.0000e+00
      2.699      0.057     8.3520     82.640     42.416  33.602147     5.2371      7.229   275.6991 7.0497e+00     5.7023      2.646      3.838    14.6034 0.0000e+00
      2.716      0.060     8.3563     82.845     42.408  33.594677     5.2545      7.231   276.0406 6.8493e+00     5.8006      2.665      3.865    14.6024 0.0000e+00
      2.731      0.066     8.3635     83.032     42.468  33.639031     5.2454      7.231   275.5854 6.6854e+00     5.7853      2.679      3.885    14.6025 0.0000e+00
      2.745      0.071     8.3807     83.193     42.541  33.694305     5.2094      7.231   274.8408 6.5252e+00     5.6206      2.691      3.903    14.6062 0.0000e+00
      2.762      0.075     8.4042     83.304     42.541  33.691993     5.1769      7.232   274.8676 6.2906e+00     5.4828      2.705      3.924    14.6077 0.0000e+00
      2.785      0.079     8.4254     83.371     42.520  33.674523     5.1782      7.232   275.1350 5.9968e+00     5.4849      2.729      3.959    14.6049 0.0000e+00
      2.810      0.083     8.4449     83.417     42.520  33.673399     5.2165      7.232   275.4067 5.7581e+00     5.5101      2.758      3.999    14.6013 0.0000e+00
      2.832      0.084     8.4638     83.457     42.527  33.678403     5.2491      7.232   275.3131 5.5877e+00     5.5141      2.779      4.030    14.5979 0.0000e+00
      2.852      0.081     8.4747     83.479     42.519  33.671573     5.2471      7.233   274.4334 5.4125e+00     5.5333      2.797      4.057    14.5958 0.0000e+00
      2.872      0.074     8.4808     83.457     42.498  33.654269     5.2167      7.234   274.0624 5.1990e+00     5.5024      2.816      4.084    14.5948 0.0000e+00
      2.892      0.065     8.4850     83.401     42.505  33.659517     5.1147      7.235   274.3552 4.9981e+00     5.5172      2.838      4.116    14.5937 0.0000e+00
      2.910      0.056     8.4895     83.341     42.520  33.671581     4.9545      7.235   274.7902 4.8603e+00     5.5756      2.855      4.142    14.5929 0.0000e+00
      2.923      0.049     8.4938     83.292     42.522  33.673245     4.8619      7.235   275.3651 4.7764e+00     5.5250      2.867      4.158    14.5922 0.0000e+00
      2.933      0.043     8.4909     83.247     42.530  33.679635     4.8352      7.236   275.3682 4.7149e+00     5.4517      2.877      4.173    14.5916 0.0000e+00
      2.940      0.040     8.4836     83.176     42.537  33.685402     4.8644      7.237   274.7427 4.6346e+00     5.4754      2.882      4.180    14.5915 0.0000e+00
      2.947      0.040     8.4775     83.101     42.530  33.679532     4.9576      7.238   274.3416 4.5456e+00     5.5382      2.889      4.190    14.5914 0.0000e+00
      2.956      0.044     8.4715     83.071     42.519  33.672100     5.0128      7.239   274.3039 4.4647e+00     5.5282      2.898      4.203    14.5918 0.0000e+00
      2.967      0.049     8.4700     83.086     42.502  33.658986     5.0083      7.241   274.4580 4.3616e+00     5.4565      2.908      4.217    14.5918 0.0000e+00
      2.981      0.055     8.4617     83.130     42.489  33.647857     4.9943      7.242   274.8285 4.2286e+00     5.4230      2.923      4.239    14.5910 0.0000e+00
      2.997      0.060     8.4508     83.200     42.513  33.664431     4.9522      7.243   275.1695 4.0836e+00     5.4644      2.939      4.263    14.5905 0.0000e+00
      3.015      0.064     8.4489     83.298     42.520  33.669045     4.8814      7.243   275.3120 3.9607e+00     5.5473      2.957      4.289    14.5925 0.0000e+00
      3.032      0.066     8.4499     83.420     42.485  33.640199     4.8456      7.243   275.3475 3.8679e+00     5.5715      2.973      4.312    14.5944 0.0000e+00
      3.048      0.066     8.4556     83.560     42.477  33.632871     4.8443      7.244   275.3396 3.7702e+00     5.5181      2.988      4.334    14.5928 0.0000e+00
      3.065      0.065     8.4621     83.700     42.492  33.643886     4.9573      7.245   275.3029 3.6572e+00     5.5842      3.006      4.360    14.5902 0.0000e+00
      3.082      0.064     8.4732     83.820     42.496  33.646497     5.1880      7.246   275.4202 3.5528e+00     5.7566      3.024      4.386    14.5884 0.0000e+00
      3.099      0.062     8.4857     83.913     42.519  33.664438     5.3117      7.247   275.8973 3.4588e+00     5.8256      3.039      4.408    14.5869 0.0000e+00
      3.114      0.060     8.5006     83.945     42.528  33.670474     5.3122      7.248   276.4257 3.3597e+00     5.8035      3.054      4.430    14.5859 0.0000e+00
      3.129      0.058     8.5172     83.926     42.510  33.656034     5.3106      7.249   276.5605 3.2695e+00     5.6950      3.069      4.452    14.5851 0.0000e+00
      3.144      0.058     8.5274     83.894     42.542  33.680169     5.3259      7.250   276.4088 3.2000e+00     5.5721      3.084      4.473    14.5844 0.0000e+00
      3.157      0.058     8.5402     83.817     42.580  33.708505     5.3481      7.251   276.3125 3.1299e+00     5.5467      3.097      4.491    14.5837 0.0000e+00
      3.170      0.058     8.5431     83.690     42.548  33.681426     5.3539      7.252   276.4280 3.0338e+00     5.5247      3.107      4.506    14.5831 0.0000e+00
      3.185      0.057     8.5379     83.583     42.535  33.669979     5.3296      7.253   276.8587 2.9177e+00     5.4775      3.121      4.526    14.5824 0.0000e+00
      3.204      0.055     8.5379     83.513     42.571  33.696987     5.2954      7.254   277.3907 2.8269e+00     5.4536      3.143      4.558    14.5814 0.0000e+00
      3.220      0.055     8.5318     83.454     42.565  33.690752     5.2815      7.254   277.5252 2.7742e+00     5.4751      3.160      4.584    14.5796 0.0000e+00
      3.231      0.056     8.5138     83.394     42.525  33.658033     5.2868      7.254   277.4529 2.7177e+00     5.5328      3.167      4.594    14.5773 0.0000e+00
      3.241      0.057     8.5034     83.304     42.476  33.618614     5.2346      7.255   277.4634 2.6554e+00     5.5373      3.177      4.609    14.5754 0.0000e+00
      3.255      0.058     8.4990     83.179     42.445  33.594796     5.1159      7.256   277.4797 2.5880e+00     5.4952      3.190      4.628    14.5737 0.0000e+00
      3.270      0.058     8.4919     83.051     42.476  33.623831     5.0506      7.257   277.6502 2.4955e+00     5.4679      3.205      4.649    14.5723 0.0000e+00
      3.289      0.058     8.4883     82.945     42.502  33.652457     5.0530      7.259   277.9767 2.4136e+00     5.4804      3.227      4.679    14.5717 0.0000e+00
      3.307      0.056     8.4793     82.856     42.459  33.623703     5.0620      7.259   278.1570 2.3530e+00     5.5092      3.244      4.706    14.5712 0.0000e+00
      3.322      0.052     8.4653     82.769     42.416  33.593398     5.1082      7.260   278.1950 2.2957e+00     5.4738      3.258      4.726    14.5688 0.0000e+00
      3.333      0.046     8.4503     82.711     42.426  33.603257     5.2033      7.261   278.2645 2.2537e+00     5.4285      3.269      4.741    14.5742 0.0000e+00
      3.342      0.041     8.4371     82.707     42.444  33.616018     5.2717      7.262   278.3092 2.2275e+00     5.4733      3.277      4.752    14.5880 0.0000e+00
      3.351      0.039     8.4288     82.737     42.455  33.620809     5.3029      7.263   278.3914 2.2025e+00     5.5720      3.287      4.767    14.5936 0.0000e+00
      3.359      0.039     8.4177     82.783     42.433  33.597738     5.3476      7.263   278.5697 2.1685e+00     5.5975      3.294      4.779    14.5960 0.0000e+00
      3.367      0.042     8.4089     82.815     42.355  33.527388     5.3964      7.264   278.6580 2.1254e+00     5.5417      3.300      4.787    14.6007 0.0000e+00
      3.378      0.046     8.4115     82.827     42.290  33.468088     5.4016      7.264   278.5992 2.0834e+00     5.4787      3.312      4.804    14.5985 0.0000e+00
      3.391      0.051     8.4143     82.816     42.276  33.451730     5.3936      7.265   278.6331 2.0361e+00     5.4847      3.325      4.823    14.5930 0.0000e+00
      3.406      0.055     8.4231     82.781     42.284  33.456495     5.4158      7.267   278.7227 1.9656e+00     5.5798      3.339      4.843    14.5868 0.0000e+00
      3.422      0.058     8.4278     82.759     42.291  33.462248     5.4376      7.267   278.7371 1.8916e+00     5.6381      3.355      4.866    14.5761 0.0000e+00
      3.438      0.059     8.4305     82.772     42.286  33.457841     5.4245      7.268   278.8066 1.8330e+00     5.5746      3.372      4.890    14.5651 0.0000e+00
      3.453      0.058     8.4328     82.836     42.300  33.466665     5.3895      7.268   278.8748 1.7880e+00     5.4611      3.386      4.911    14.5586 0.0000e+00
      3.468      0.057     8.4252     82.940     42.355  33.505490     5.3734      7.268   278.8746 1.7438e+00     5.4270      3.400      4.932    14.5576 0.0000e+00
      3.483      0.057     8.4239     83.050     42.412  33.546592     5.3628      7.269   278.8893 1.7049e+00     5.4358      3.416      4.955    14.5588 0.0000e+00
      3.495      0.057     8.4233     83.155     42.463  33.582967     5.3531      7.271   279.1393 1.6742e+00     5.4302      3.429      4.974    14.5589 0.0000e+00
      3.507      0.058     8.4313     83.229     42.525  33.628070     5.3475      7.271   279.5733 1.6253e+00     5.4625      3.437      4.985    14.5554 0.0000e+00
      3.522      0.058     8.4451     83.228     42.554  33.647808     5.2943      7.272   279.7492 1.5750e+00     5.5180      3.453      5.008    14.5499 0.0000e+00
      3.541      0.057     8.4562     83.119     42.537  33.631281     5.2262      7.273   279.6312 1.5310e+00     5.5554      3.474      5.038    14.5455 0.0000e+00
      3.557      0.056     8.4691     82.917     42.523  33.618579     5.2057      7.274   279.5231 1.4907e+00     5.5394      3.489      5.060    14.5408 0.0000e+00
      3.571      0.054     8.4794     82.669     42.528  33.621113     5.1888      7.274   279.4745 1.4631e+00     5.4948      3.503      5.080    14.5357 0.0000e+00
      3.584      0.051     8.4814     82.417     42.581  33.661903     5.1633      7.276   279.7314 1.4300e+00     5.4605      3.515      5.098    14.5315 0.0000e+00
      3.594      0.049     8.4704     82.176     42.670  33.731105     5.1476      7.278   280.3061 1.3993e+00     5.5343      3.525      5.113    14.5281 0.0000e+00
      3.605      0.049     8.4481     81.955     42.709  33.759941     5.1319      7.278   280.5731 1.3744e+00     5.7046      3.535      5.127    14.5257 0.0000e+00
      3.617      0.048     8.4214     81.780     42.708  33.756783     5.1310      7.278   280.6363 1.3428e+00     5.7433      3.546      5.143    14.5243 0.0000e+00
      3.632      0.047     8.3958     81.667     42.708  33.756367     5.1285      7.278   280.6399 1.3080e+00     5.6940      3.561      5.164    14.5231 0.0000e+00
      3.647      0.048     8.3714     81.583     42.706  33.754902     5.1521      7.279   280.4452 1.2711e+00     5.7230      3.578      5.190    14.5213 0.0000e+00
      3.658      0.052     8.3483     81.486     42.687  33.739077     5.2162      7.280   280.6053 1.2473e+00     5.8215      3.589      5.206    14.5194 0.0000e+00
      3.666      0.058     8.3293     81.353     42.627  33.691906     5.2462      7.281   281.1996 1.2327e+00     5.8943      3.593      5.212    14.5170 0.0000e+00
      3.677      0.065     8.3202     81.231     42.548  33.628673     5.2484      7.281   281.6076 1.1946e+00     5.8516      3.603      5.226    14.5161 0.0000e+00
      3.694      0.074     8.3126     81.162     42.529  33.608973     5.2435      7.281   281.7521 1.1393e+00     5.7498      3.621      5.253    14.5171 0.0000e+00
      3.717      0.084     8.3050     81.135     42.583  33.644040     5.2361      7.281   281.6562 1.0866e+00     5.7226      3.644      5.285    14.5157 0.0000e+00
      3.743      0.091     8.2887     81.158     42.629  33.671992     5.2502      7.282   281.3954 1.0395e+00     5.7616      3.670      5.324    14.5159 0.0000e+00
      3.769      0.093     8.2730     81.228     42.667  33.693152     5.2651      7.282   281.4379 9.9143e-01     5.8113      3.696      5.361    14.5179 0.0000e+00
      3.795      0.089     8.2704     81.315     42.698  33.709545     5.2913      7.282   281.7397 9.3308e-01     5.8116      3.721      5.398    14.5111 0.0000e+00
      3.821      0.083     8.2673     81.380     42.667  33.679852     5.3415      7.283   282.0331 8.8257e-01     5.7310      3.749      5.438    14.5008 0.0000e+00
      3.843      0.077     8.2720     81.401     42.637  33.651346     5.3816      7.283   282.2316 8.5251e-01     5.7588      3.772      5.470    14.4916 0.0000e+00
      3.858      0.074     8.2821     81.379     42.682  33.682098     5.4020      7.283   282.3336 8.3368e-01     5.8739      3.784      5.487    14.4793 0.0000e+00
      3.869      0.073     8.2946     81.331     42.756  33.734448     5.3461      7.284   282.4053 8.1454e-01     5.8928      3.792      5.501    14.4691 0.0000e+00
      3.884      0.072     8.3029     81.272     42.816  33.776740     5.2222      7.284   282.2388 7.9092e-01     5.8848      3.806      5.521    14.4637 0.0000e+00
      3.906      0.071     8.3057     81.204     42.866  33.812766     5.1603      7.284   282.0403 7.5766e-01     5.9146      3.829      5.554    14.4600 0.0000e+00
      3.931      0.070     8.3038     81.134     42.919  33.852815     5.1725      7.284   282.1573 7.1737e-01     5.9788      3.856      5.593    14.4538 0.0000e+00
      3.953      0.069     8.2997     81.064     43.035  33.943741     5.1860      7.284   282.3626 6.8857e-01     6.0122      3.879      5.626    14.4452 0.0000e+00
      3.968      0.066     8.2956     80.995     43.218  34.087361     5.1570      7.285   282.6294 6.6887e-01     6.0793      3.893      5.645    14.4388 0.0000e+00
      3.978      0.062     8.2879     80.920     43.436  34.256942     5.1144      7.286   282.8015 6.4580e-01     6.2784      3.901      5.657    14.4358 0.0000e+00
      3.991      0.061     8.2821     80.839     43.713  34.471430     5.1037      7.287   282.2932 6.2550e-01     6.4041      3.912      5.675    14.4340 0.0000e+00
      4.006      0.062     8.2736     80.742     44.108  34.777309     5.1102      7.287   281.6458 6.1404e-01     6.4372      3.927      5.697    14.4344 0.0000e+00
      4.023      0.065     8.2680     80.613     44.688  35.227040     5.0764      7.288   281.7717 5.9465e-01     6.6109      3.945      5.723    14.4348 0.0000e+00
      4.041      0.068     8.2601     80.456     45.329  35.721453     4.9784      7.289   282.0943 5.6348e-01     6.8306      3.963      5.749    14.4308 0.0000e+00
      4.060      0.069     8.2533     80.282     45.778  36.059904     4.8989      7.289   282.3624 5.4063e-01     6.8733      3.981      5.774    14.4256 0.0000e+00
      4.079      0.069     8.2454     80.096     45.989  36.210099     4.8719      7.289   282.2608 5.2964e-01     6.8531      4.000      5.801    14.4194 0.0000e+00
      4.096      0.069     8.2332     79.883     46.080  36.268394     4.8604      7.290   281.4671 5.1643e-01     6.9278      4.017      5.827    14.4122 0.0000e+00
      4.113      0.069     8.2188     79.661     46.158  36.320557     4.8511      7.291   281.1120 5.0468e-01     7.0255      4.034      5.850    14.4016 0.0000e+00
      4.129      0.070     8.2033     79.483     46.258  36.396626     4.8349      7.292   281.3226 5.0241e-01     7.0099      4.049      5.872    14.3833 0.0000e+00
      4.146      0.073     8.1899     79.356     46.377  36.490149     4.8140      7.291   281.7766 4.8820e-01     6.9434      4.066      5.897    14.3631 0.0000e+00
      4.165      0.078     8.1694     79.191     46.550  36.626441     4.7739      7.290   282.4721 4.5635e-01     7.0758      4.085      5.924    14.3484 0.0000e+00
      4.184      0.083     8.1467     78.981     46.740  36.775447     4.7157      7.289   282.3320 4.2968e-01     7.3466      4.102      5.950    14.3383 0.0000e+00
      4.207      0.087     8.1263     78.821     46.814  36.832318     4.6855      7.289   281.3730 4.0638e-01     7.4850      4.124      5.982    14.3356 0.0000e+00
      4.233      0.087     8.1196     78.754     46.784  36.806434     4.6749      7.289   280.9439 3.7956e-01     7.4854      4.151      6.020    14.3388 0.0000e+00
      4.258      0.083     8.1035     78.784     46.834  36.843212     4.6787      7.287   281.4449 3.6121e-01     7.5565      4.176      6.057    14.3380 0.0000e+00
      4.282      0.077     8.0750     78.897     47.064  37.023177     4.7137      7.285   282.3545 3.4880e-01     7.7644      4.201      6.093    14.3371 0.0000e+00
      4.301      0.070     8.0598     79.038     47.379  37.269092     4.7404      7.284   282.6496 3.3530e-01     7.9149      4.221      6.122    14.3357 0.0000e+00
      4.313      0.065     8.0526     79.183     47.557  37.405232     4.7438      7.283   282.1737 3.2744e-01     7.9754      4.231      6.137    14.3321 0.0000e+00
      4.324      0.061     8.0563     79.342     47.475  37.336659     4.7295      7.281   281.7630 3.2528e-01     7.9839      4.239      6.149    14.3301 0.0000e+00
      4.339      0.059     8.0706     79.477     47.306  37.201453     4.6675      7.281   281.7270 3.1661e-01     7.9494      4.254      6.169    14.3293 0.0000e+00
      4.356      0.059     8.0871     79.556     47.262  37.166489     4.5938      7.281   281.9976 2.9095e-01     7.9338      4.272      6.197    14.3278 0.0000e+00
      4.375      0.060     8.1003     79.612     47.424  37.294657     4.5706      7.280   282.4533 2.5841e-01     7.8974      4.291      6.224    14.3238 0.0000e+00
      4.391      0.061     8.1193     79.655     47.742  37.545453     4.5703      7.278   283.1060 2.4239e-01     7.8854      4.308      6.247    14.3187 0.0000e+00
      4.404      0.061     8.1369     79.660     47.972  37.724048     4.5233      7.276   283.6945 2.4768e-01     7.9941      4.319      6.263    14.3159 0.0000e+00
      4.418      0.060     8.1413     79.654     48.081  37.804156     4.4351      7.275   283.6321 2.5085e-01     8.1871      4.331      6.281    14.3156 0.0000e+00
      4.433      0.060     8.1465     79.658     48.182  37.879446     4.3948      7.274   283.2129 2.3825e-01     8.3732      4.348      6.306    14.3175 0.0000e+00
      4.450      0.061     8.1533     79.667     48.177  37.872876     4.4023      7.273   283.0996 2.2582e-01     8.4345      4.364      6.330    14.3193 0.0000e+00
      4.466      0.061     8.1521     79.672     48.070  37.788171     4.4178      7.271   283.8108 2.1608e-01     8.3469      4.379      6.352    14.3158 0.0000e+00
      4.482      0.061     8.1518     79.654     48.011  37.743700     4.4407      7.270   284.7569 1.9903e-01     8.2703      4.396      6.376    14.3090 0.0000e+00
      4.498      0.060     8.1541     79.623     48.054  37.779385     4.4551      7.270   284.7312 1.8460e-01     8.2948      4.412      6.400    14.3047 0.0000e+00
      4.512      0.059     8.1546     79.603     48.209  37.902343     4.4665      7.269   284.2737 1.7888e-01     8.3698      4.425      6.419    14.3019 0.0000e+00
      4.526      0.059     8.1572     79.596     48.443  38.088141     4.4535      7.267   283.7854 1.7473e-01     8.3909      4.439      6.437    14.3010 0.0000e+00
      4.541      0.060     8.1544     79.608     48.648  38.249023     4.4058      7.266   283.2156 1.7713e-01     8.3111      4.454      6.459    14.3041 0.0000e+00
      4.556      0.063     8.1488     79.648     48.832  38.388018     4.3811      7.265   283.8368 1.7863e-01     8.2247      4.467      6.479    14.3063 0.0000e+00
      4.572      0.069     8.1476     79.680     49.065  38.562974     4.3802      7.264   285.4455 1.6330e-01     8.2339      4.483      6.502    14.3065 0.0000e+00
      4.588      0.075     8.1460     79.675     49.266  38.714441     4.3536      7.263   286.1471 1.4780e-01     8.3879      4.501      6.528    14.3094 0.0000e+00
      4.607      0.080     8.1459     79.656     49.331  38.759804     4.3004      7.261   285.7804 1.4329e-01     8.5500      4.516      6.550    14.3106 0.0000e+00
      4.630      0.080     8.1529     79.647     49.299  38.730684     4.2613      7.259   285.4000 1.3985e-01     8.5553      4.537      6.581    14.3034 0.0000e+00
      4.657      0.078     8.1604     79.656     49.316  38.743110     4.2548      7.256   286.1939 1.3553e-01     8.5194      4.568      6.626    14.2939 0.0000e+00
      4.682      0.075     8.1586     79.693     49.446  38.846590     4.2553      7.252   287.8939 1.2967e-01     8.5941      4.596      6.665    14.2871 0.0000e+00
      4.698      0.071     8.1568     79.739     49.601  38.966476     4.2499      7.250   288.8323 1.2815e-01     8.7076      4.610      6.686    14.2814 0.0000e+00
      4.709      0.066     8.1575     79.760     49.793  39.113816     4.2407      7.249   288.6785 1.3142e-01     8.6956      4.616      6.695    14.2767 0.0000e+00
      4.721      0.062     8.1568     79.798     50.030  39.295364     4.2187      7.248   288.1853 1.2987e-01     8.5861      4.628      6.712    14.2768 0.0000e+00
      4.738      0.060     8.1612     79.913     50.150  39.384610     4.1998      7.247   288.1175 1.2572e-01     8.5103      4.647      6.740    14.2796 0.0000e+00
      4.757      0.060     8.1686     80.035     50.215  39.431336     4.2041      7.246   288.5471 1.2393e-01     8.5644      4.665      6.766    14.2776 0.0000e+00
      4.773      0.060     8.1703     80.083     50.362  39.542998     4.2205      7.244   288.9912 1.2369e-01     8.7282      4.682      6.791    14.2731 0.0000e+00
      4.788      0.059     8.1694     80.147     50.510  39.655837     4.2319      7.241   289.1843 1.2365e-01     8.8167      4.697      6.813    14.2691 0.0000e+00
      4.801      0.056     8.1861     80.249     50.591  39.716785     4.2174      7.239   289.2474 1.2368e-01     8.7810      4.708      6.829    14.2635 0.0000e+00
      4.815      0.053     8.2071     80.304     50.664  39.772202     4.1361      7.238   289.0667 1.2363e-01     8.7406      4.721      6.847    14.2582 0.0000e+00
      4.830      0.052     8.2038     80.329     50.724  39.818174     4.0315      7.236   288.7199 1.2361e-01     8.7731      4.737      6.870    14.2549 0.0000e+00
      4.843      0.054     8.2094     80.328     50.658  39.764910     4.0013      7.234   288.8403 1.2368e-01     8.8322      4.750      6.890    14.2519 0.0000e+00
      4.853      0.058     8.2295     80.286     50.657  39.762829     4.0126      7.233   289.4036 1.2375e-01     8.8400      4.759      6.902    14.2490 0.0000e+00
      4.865      0.062     8.2295     80.237     50.941  39.983398     3.9849      7.231   290.0245 1.2377e-01     8.8670      4.770      6.917    14.2474 0.0000e+00
      4.882      0.066     8.2338     80.209     51.234  40.210542     3.9411      7.229   290.4110 1.2377e-01     8.9880      4.786      6.941    14.2467 0.0000e+00
      4.903      0.068     8.2354     80.197     51.337  40.287952     3.9322      7.228   289.8609 1.2376e-01     9.1076      4.807      6.972    14.2456 0.0000e+00
      4.925      0.068     8.2287     80.166     51.336  40.284707     3.9440      7.227   288.7936 1.2373e-01     9.1519      4.831      7.007    14.2434 0.0000e+00
      4.945      0.067     8.2235     80.112     51.354  40.298232     3.9676      7.226   288.7772 1.2372e-01     9.1824      4.851      7.036    14.2413 0.0000e+00
      4.959      0.066     8.2206     80.084     51.550  40.451475     4.0008      7.224   289.6631 1.2370e-01     9.2369      4.864      7.055    14.2386 0.0000e+00
      4.971      0.065     8.2230     80.133     51.840  40.677834     4.0288      7.222   290.3837 1.2370e-01     9.2983      4.875      7.070    14.2346 0.0000e+00
      4.985      0.066     8.2197     80.230     52.016  40.813804     4.0395      7.221   289.9190 1.2376e-01     9.3435      4.888      7.089    14.2320 0.0000e+00
      5.002      0.069     8.2130     80.343     52.116  40.889610     3.9729      7.220   288.6904 1.2376e-01     9.4764      4.905      7.113    14.2316 0.0000e+00
      5.021      0.071     8.2060     80.462     52.209  40.959723     3.8395      7.218   288.5208 1.2369e-01     9.6754      4.923      7.141    14.2320 0.0000e+00
      5.043      0.071     8.2141     80.560     52.298  41.026864     3.7495      7.217   289.5038 1.2370e-01     9.7344      4.945      7.172    14.2319 0.0000e+00
      5.067      0.067     8.2256     80.649     52.514  41.193663     3.7419      7.215   290.5957 1.2377e-01     9.7454      4.970      7.208    14.2297 0.0000e+00
      5.086      0.061     8.2366     80.758     52.929  41.516695     3.7560      7.212   290.7093 1.2379e-01     9.7748      4.991      7.239    14.2261 0.0000e+00
      5.097      0.054     8.2524     80.876     53.324  41.822644     3.7043      7.210   290.0170 1.2375e-01     9.8839      5.000      7.253    14.2231 0.0000e+00
      5.105      0.049     8.2617     80.980     53.603  42.036740     3.5996      7.208   289.6240 1.2373e-01    10.1080      5.004      7.259    14.2200 0.0000e+00
      5.115      0.047     8.2692     81.072     53.978  42.328129     3.5299      7.207   289.7441 1.2378e-01    10.1970      5.015      7.274    14.2182 0.0000e+00
      5.126      0.048     8.2819     81.181     54.513  42.743466     3.5106      7.206   290.1781 1.2383e-01    10.2078      5.028      7.293    14.2173 0.0000e+00
      5.138      0.051     8.2956     81.334     55.008  43.123250     3.4748      7.205   290.5690 1.2379e-01    10.4094      5.038      7.307    14.2126 0.0000e+00
      5.153      0.053     8.3074     81.514     55.248  43.302064     3.4048      7.204   290.6852 1.2378e-01    10.6865      5.051      7.326    14.2065 0.0000e+00
      5.170      0.053     8.3162     81.689     55.278  43.318626     3.3550      7.203   290.6359 1.2383e-01    10.7570      5.069      7.353    14.2049 0.0000e+00
      5.186      0.052     8.3256     81.832     55.290  43.323493     3.3310      7.202   290.5751 1.2384e-01    10.6820      5.087      7.379    14.2032 0.0000e+00
      5.198      0.051     8.3441     81.938     55.342  43.360907     3.2971      7.200   290.6389 1.2386e-01    10.7361      5.099      7.395    14.1948 0.0000e+00
      5.208      0.049     8.3656     82.051     55.383  43.390134     3.2446      7.198   291.2355 1.2388e-01    10.9321      5.108      7.408    14.1850 0.0000e+00
      5.219      0.048     8.3858     82.187     55.590  43.549923     3.2039      7.197   291.9379 1.2383e-01    11.0376      5.118      7.423    14.1780 0.0000e+00
      5.230      0.049     8.4023     82.314     56.195  44.023371     3.1724      7.195   291.8177 1.2378e-01    11.0216      5.128      7.438    14.1745 0.0000e+00
      5.243      0.050     8.4106     82.415     56.780  44.480751     3.0210      7.193   291.5033 1.2375e-01    11.2504      5.141      7.456    14.1726 0.0000e+00
      5.256      0.051     8.4217     82.495     56.819  44.509701     2.7716      7.193   291.4917 1.2374e-01    11.7885      5.155      7.475    14.1696 0.0000e+00
      5.271      0.052     8.4389     82.566     56.487  44.246447     2.6543      7.192   292.0214 1.2376e-01    12.1310      5.170      7.498    14.1670 0.0000e+00
      5.286      0.053     8.4517     82.649     56.697  44.408180     2.6426      7.189   293.0898 1.2376e-01    12.2142      5.186      7.521    14.1662 0.0000e+00
      5.298      0.053     8.4625     82.774     57.949  45.385981     2.4884      7.187   293.5692 1.2375e-01    12.4863      5.197      7.537    14.1663 0.0000e+00
      5.309      0.053     8.4699     82.943     59.362  46.483386     2.2053      7.185   293.2576 1.2376e-01    12.9622      5.205      7.550    14.1655 0.0000e+00
      5.322      0.052     8.4776     83.102     60.060  47.011781     2.0659      7.184   292.8501 1.2382e-01    13.2890      5.218      7.569    14.1615 0.0000e+00
      5.337      0.051     8.4851     83.240     60.085  47.013386     2.0678      7.182   293.2882 1.2388e-01    13.3971      5.236      7.594    14.1589 0.0000e+00
      5.352      0.050     8.4969     83.441     59.932  46.883691     2.0541      7.180   294.5107 1.2388e-01    13.3804      5.249      7.614    14.1594 0.0000e+00
      5.365      0.048     8.5188     83.793     59.799  46.776856     2.0251      7.180   295.3275 1.2383e-01    13.4286      5.261      7.631    14.1522 0.0000e+00
      5.376      0.045     8.5399     84.326     59.504  46.546964     1.9912      7.178   295.5065 1.2377e-01    13.6051      5.273      7.649    14.1344 0.0000e+00
      5.386      0.042     8.5529     85.004     59.053  46.199092     1.9687      7.175   295.5555 1.2375e-01    13.7033      5.283      7.662    14.1162 0.0000e+00
      5.396      0.040     8.5711     85.689     58.623  45.871966     1.9704      7.173   295.9210 1.2379e-01    13.7276      5.291      7.674    14.1085 0.0000e+00
      5.406      0.039     8.6078     86.277     58.393  45.702420     1.9865      7.171   296.3975 1.2380e-01    13.7630      5.302      7.689    14.1077 0.0000e+00
      5.416      0.039     8.6614     86.752     58.428  45.736206     2.0047      7.170   296.5859 1.2382e-01    13.7548      5.312      7.705    14.1073 0.0000e+00
      5.425      0.040     8.7384     87.060     58.552  45.836099     1.9995      7.169   296.5635 1.2383e-01    13.6976      5.320      7.716    14.1115 0.0000e+00
      5.434      0.040     8.8109     87.117     58.703  45.957978     1.9819      7.168   296.3849 1.2382e-01    13.6865      5.328      7.727    14.1216 0.0000e+00
      5.445      0.039     8.8674     86.919     59.001  46.194111     1.9914      7.166   296.2332 1.2385e-01    13.7564      5.338      7.744    14.1317 0.0000e+00
      5.457      0.037     8.9181     86.560     59.271  46.405750     2.0145      7.164   296.5366 1.2386e-01    13.8251      5.352      7.762    14.1368 0.0000e+00
      5.468      0.037     8.9531     86.140     59.779  46.802827     2.0196      7.163   297.1274 1.2381e-01    13.7999      5.363      7.778    14.1380 0.0000e+00
      5.476      0.038     8.9597     85.746     60.759  47.566846     2.0113      7.162   297.4394 1.2376e-01    13.7247      5.371      7.790    14.1408 0.0000e+00
      5.482      0.038     8.9332     85.448     61.441  48.088451     1.9975      7.159   297.1266 1.2376e-01    13.7357      5.376      7.798    14.1437 0.0000e+00
      5.489      0.039     8.8934     85.274     61.711  48.284436     1.9861      7.157   296.6149 1.2381e-01    13.8643      5.381      7.805    14.1439 0.0000e+00
      5.501      0.041     8.8471     85.246     61.966  48.476182     1.9984      7.155   296.7586 1.2383e-01    14.0167      5.393      7.822    14.1437 0.0000e+00
      5.516      0.044     8.8031     85.403     62.006  48.502093     2.0215      7.153   297.3148 1.2382e-01    14.0756      5.411      7.848    14.1446 0.0000e+00
      5.528      0.048     8.7749     85.778     61.813  48.343762     1.9990      7.151   297.4896 1.2378e-01    14.0297      5.421      7.863    14.1318 0.0000e+00
      5.538      0.052     8.7598     86.325     61.816  48.339547     1.9257      7.148   297.2372 1.2380e-01    13.9740      5.429      7.874    14.1133 0.0000e+00
      5.550      0.055     8.7560     86.939     62.125  48.578094     1.8766      7.146   297.1883 1.2384e-01    13.9823      5.443      7.895    14.1114 0.0000e+00
      5.565      0.055     8.7703     87.552     62.345  48.751854     1.8793      7.145   297.6723 1.2380e-01    14.0275      5.457      7.915    14.1088 0.0000e+00
      5.581      0.055     8.8120     88.109     62.390  48.789709     1.8829      7.142   298.6148 1.2376e-01    14.0089      5.472      7.936    14.1007 0.0000e+00
      5.598      0.054     8.8752     88.554     62.378  48.781824     1.8714      7.140   299.4648 1.2378e-01    13.9962      5.491      7.964    14.0948 0.0000e+00
      5.613      0.054     8.9400     88.895     62.461  48.846999     1.8647      7.139   299.6888 1.2381e-01    14.0787      5.506      7.986    14.0922 0.0000e+00
      5.623      0.055     9.0043     89.144     62.748  49.069794     1.8600      7.137   299.6890 1.2375e-01    14.1523      5.515      7.998    14.0947 0.0000e+00
      5.633      0.056     9.0646     89.280     62.988  49.253362     1.8647      7.135   299.8977 1.2369e-01    14.2035      5.524      8.012    14.0971 0.0000e+00
      5.646      0.057     9.1087     89.315     63.042  49.288698     1.8884      7.133   300.2332 1.2376e-01    14.3221      5.536      8.028    14.0985 0.0000e+00
      5.663      0.059     9.1426     89.310     62.994  49.243058     1.9052      7.132   300.4765 1.2378e-01    14.4932      5.552      8.053    14.0987 0.0000e+00
      5.683      0.061     9.1703     89.323     62.959  49.209465     1.8927      7.132   300.6020 1.2372e-01    14.5643      5.574      8.083    14.0976 0.0000e+00
      5.700      0.061     9.1848     89.385     63.032  49.263494     1.8705      7.130   300.7179 1.2371e-01    14.4985      5.592      8.110    14.0945 0.0000e+00
      5.715      0.060     9.1862     89.470     63.192  49.388356     1.8787      7.127   300.8449 1.2375e-01    14.4485      5.606      8.131    14.0891 0.0000e+00
      5.728      0.059     9.1853     89.545     63.352  49.512773     1.8994      7.126   301.2780 1.2380e-01    14.4725      5.618      8.148    14.0819 0.0000e+00
      5.741      0.057     9.1863     89.641     63.499  49.624915     1.8962      7.126   301.9107 1.2378e-01    14.5161      5.629      8.163    14.0760 0.0000e+00
      5.756      0.056     9.1939     89.741     63.719  49.791840     1.8813      7.125   302.1275 1.2371e-01    14.5315      5.643      8.185    14.0742 0.0000e+00
      5.773      0.057     9.2063     89.797     63.921  49.943663     1.8525      7.124   302.0926 1.2372e-01    14.5890      5.662      8.213    14.0749 0.0000e+00
      5.788      0.057     9.2093     89.838     64.000  50.000194     1.8232      7.123   302.1774 1.2381e-01    14.6994      5.676      8.234    14.0750 0.0000e+00
      5.800      0.057     9.2213     89.874     64.045  50.030879     1.8267      7.122   302.3783 1.2386e-01    14.7733      5.687      8.249    14.0720 0.0000e+00
      5.814      0.055     9.2370     89.932     64.086  50.060683     1.8450      7.121   302.5424 1.2382e-01    14.8340      5.701      8.269    14.0679 0.0000e+00
      5.829      0.053     9.2388     90.036     64.146  50.106561     1.8276      7.120   302.6129 1.2379e-01    14.8184      5.717      8.293    14.0632 0.0000e+00
      5.844      0.052     9.2462     90.141     64.191  50.141116     1.7754      7.120   302.6283 1.2382e-01    14.7555      5.733      8.315    14.0584 0.0000e+00
      5.856      0.052     9.2488     90.241     64.137  50.097498     1.7462      7.119   302.6425 1.2383e-01    14.7235      5.744      8.330    14.0556 0.0000e+00
      5.867      0.051     9.2524     90.354     64.043  50.023652     1.7573      7.117   302.7848 1.2378e-01    14.7034      5.752      8.343    14.0541 0.0000e+00
      5.879      0.048     9.2676     90.452     64.025  50.010204     1.7687      7.116   302.9728 1.2371e-01    14.7173      5.764      8.361    14.0535 0.0000e+00
      5.894      0.045     9.2780     90.534     64.091  50.061895     1.7422      7.116   303.1093 1.2369e-01    14.6875      5.781      8.385    14.0530 0.0000e+00
      5.909      0.042     9.2861     90.615     64.191  50.140680     1.7034      7.116   303.1442 1.2374e-01    14.6155      5.796      8.406    14.0516 0.0000e+00
      5.919      0.040     9.3011     90.675     64.350  50.264316     1.6901      7.116   303.1359 1.2379e-01    14.5983      5.806      8.420    14.0511 0.0000e+00
      5.926      0.038     9.3106     90.713     64.543  50.413834     1.6902      7.116   303.1809 1.2379e-01    14.6158      5.811      8.428    14.0517 0.0000e+00
      5.932      0.038     9.3169     90.742     64.642  50.488051     1.6955      7.115   303.1727 1.2377e-01    14.6225      5.817      8.436    14.0526 0.0000e+00
      5.941      0.039     9.3278     90.757     64.615  50.463199     1.7036      7.114   303.1218 1.2376e-01    14.5770      5.825      8.448    14.0527 0.0000e+00
      5.951      0.041     9.3333     90.759     64.577  50.430829     1.6975      7.113   303.1686 1.2378e-01    14.4760      5.836      8.463    14.0522 0.0000e+00
      5.964      0.045     9.3365     90.790     64.557  50.414145     1.6889      7.112   303.3083 1.2379e-01    14.4259      5.850      8.484    14.0514 0.0000e+00
      5.977      0.047     9.3404     90.872     64.524  50.388479     1.7157      7.112   303.4341 1.2374e-01    14.5177      5.862      8.503    14.0491 0.0000e+00
      5.989      0.049     9.3434     90.978     64.506  50.374498     1.7629      7.111   303.4856 1.2374e-01    14.6980      5.873      8.518    14.0459 0.0000e+00
      6.000      0.051     9.3416     91.101     64.502  50.372095     1.7849      7.110   303.5007 1.2379e-01    14.7945      5.884      8.534    14.0437 0.0000e+00
      6.013      0.052     9.3434     91.219     64.486  50.359416     1.7906      7.111   303.6158 1.2375e-01    14.7630      5.897      8.552    14.0429 0.0000e+00
      6.026      0.054     9.3546     91.306     64.472  50.348193     1.7736      7.112   303.7586 1.2372e-01    14.7620      5.910      8.571    14.0430 0.0000e+00
      6.041      0.057     9.3645     91.357     64.492  50.363396     1.7377      7.112   303.7654 1.2377e-01    14.8838      5.924      8.592    14.0432 0.0000e+00
      6.057      0.060     9.3781     91.359     64.561  50.416235     1.7315      7.111   303.7844 1.2380e-01    15.0061      5.940      8.615    14.0433 0.0000e+00
      6.072      0.063     9.3921     91.326     64.723  50.542580     1.7402      7.110   304.0740 1.2377e-01    15.0450      5.955      8.636    14.0436 0.0000e+00
      6.088      0.067     9.3997     91.288     64.905  50.684568     1.7177      7.110   304.5140 1.2379e-01    15.0134      5.969      8.658    14.0433 0.0000e+00
      6.105      0.070     9.4071     91.248     64.972  50.736048     1.6680      7.110   304.8015 1.2379e-01    14.9312      5.986      8.682    14.0426 0.0000e+00
      6.123      0.074     9.4064     91.209     64.956  50.720535     1.6394      7.109   304.8834 1.2373e-01    14.9382      6.005      8.709    14.0423 0.0000e+00
      6.143      0.075     9.4013     91.191     64.917  50.687494     1.6376      7.109   304.9015 1.2373e-01    14.9959      6.025      8.738    14.0421 0.0000e+00
      6.164      0.072     9.3977     91.202     64.876  50.654028     1.6451      7.109   305.0208 1.2379e-01    14.9800      6.044      8.766    14.0422 0.0000e+00
      6.185      0.067     9.3940     91.242     64.850  50.633384     1.6554      7.108   305.1208 1.2384e-01    14.9517      6.066      8.797    14.0411 0.0000e+00
      6.204      0.061     9.3893     91.308     64.844  50.628387     1.6457      7.107   305.0789 1.2385e-01    14.9272      6.087      8.827    14.0384 0.0000e+00
      6.218      0.056     9.3875     91.386     64.880  50.657114     1.6367      7.106   305.0309 1.2382e-01    14.9557      6.100      8.848    14.0362 0.0000e+00
      6.227      0.054     9.3897     91.478     64.968  50.726722     1.6456      7.107   305.0564 1.2378e-01    15.0916      6.106      8.858    14.0352 0.0000e+00
      6.235      0.054     9.3926     91.566     65.026  50.771528     1.6542      7.108   305.0422 1.2378e-01    15.2380      6.113      8.866    14.0352 0.0000e+00
      6.247      0.056     9.4016     91.617     65.005  50.754375     1.6577      7.107   305.1172 1.2377e-01    15.2569      6.123      8.881    14.0356 0.0000e+00
      6.264      0.059     9.4078     91.632     64.948  50.709827     1.6463      7.107   305.4481 1.2372e-01    15.1837      6.141      8.907    14.0361 0.0000e+00
      6.284      0.064     9.4180     91.626     64.905  50.677379     1.6324      7.108   305.3434 1.2368e-01    15.1390      6.165      8.941    14.0367 0.0000e+00
      6.303      0.069     9.4296     91.639     64.907  50.679549     1.6403      7.108   304.7116 1.2373e-01    15.1267      6.183      8.967    14.0363 0.0000e+00
      6.319      0.071     9.4337     91.675     64.898  50.672567     1.6574      7.108   304.6923 1.2380e-01    15.1372      6.195      8.986    14.0353 0.0000e+00
      6.334      0.069     9.4360     91.705     64.877  50.656449     1.6727      7.107   305.1953 1.2380e-01    15.0943      6.209      9.006    14.0353 0.0000e+00
      6.353      0.066     9.4321     91.712     64.900  50.675166     1.6839      7.106   305.0293 1.2373e-01    14.9853      6.229      9.034    14.0361 0.0000e+00
      6.374      0.063     9.4335     91.680     64.943  50.708384     1.7017      7.106   304.4055 1.2368e-01    14.8774      6.253      9.070    14.0369 0.0000e+00
      6.392      0.061     9.4392     91.609     64.985  50.740593     1.7294      7.106   304.2777 1.2369e-01    14.7801      6.270      9.096    14.0367 0.0000e+00
      6.404      0.058     9.4422     91.539     64.995  50.747112     1.7526      7.106   304.3445 1.2372e-01    14.7653      6.280      9.110    14.0367 0.0000e+00
      6.415      0.054     9.4440     91.497     64.967  50.723699     1.7663      7.106   304.4386 1.2372e-01    14.8010      6.291      9.124    14.0373 0.0000e+00
      6.427      0.053     9.4407     91.471     64.952  50.711504     1.7531      7.106   304.5559 1.2370e-01    14.8697      6.302      9.140    14.0375 0.0000e+00
      6.441      0.056     9.4318     91.481     64.890  50.663158     1.7181      7.106   304.2136 1.2370e-01    14.9816      6.316      9.161    14.0371 0.0000e+00
      6.455      0.062     9.4226     91.534     64.788  50.583637     1.6921      7.105   303.8279 1.2378e-01    15.0260      6.331      9.182    14.0361 0.0000e+00
      6.470      0.068     9.4211     91.598     64.776  50.575489     1.6884      7.105   303.8501 1.2384e-01    15.0657      6.344      9.201    14.0349 0.0000e+00
      6.487      0.070     9.4169     91.671     64.842  50.628136     1.7079      7.105   304.1378 1.2383e-01    15.1882      6.359      9.223    14.0340 0.0000e+00
      6.510      0.070     9.4166     91.726     64.868  50.648712     1.7270      7.105   304.3812 1.2375e-01    15.3113      6.384      9.258    14.0336 0.0000e+00
      6.533      0.067     9.4255     91.721     64.849  50.633774     1.7205      7.105   304.3837 1.2372e-01    15.2908      6.410      9.297    14.0344 0.0000e+00
      6.551      0.060     9.4297     91.668     64.854  50.638022     1.7036      7.105   304.2541 1.2378e-01    15.1453      6.426      9.320    14.0359 0.0000e+00
      6.564      0.050     9.4387     91.590     64.852  50.636575     1.7057      7.105   304.0190 1.2386e-01    15.0896      6.436      9.335    14.0363 0.0000e+00
      6.574      0.040     9.4473     91.488     64.826  50.616281     1.7215      7.104   304.2945 1.2389e-01    15.1635      6.448      9.352    14.0361 0.0000e+00
      6.583      0.031     9.4448     91.378     64.784  50.583146     1.7281      7.104   305.1762 1.2382e-01    15.2524      6.459      9.367    14.0362 0.0000e+00
      6.588      0.028     9.4386     91.298     64.746  50.553429     1.7187      7.104   305.3869 1.2376e-01    15.2429      6.462      9.372    14.0363 0.0000e+00
      6.590      0.029     9.4307     91.248     64.772  50.574458     1.6994      7.106   304.9486 1.2377e-01    15.1505      6.462      9.372    14.0365 0.0000e+00
      6.594      0.034     9.4204     91.224     64.864  50.646915     1.6607      7.106   305.3836 1.2377e-01    15.1267      6.465      9.376    14.0367 0.0000e+00
      6.603      0.044     9.4061     91.237     64.972  50.731017     1.6173      7.106   306.6027 1.2374e-01    15.1933      6.473      9.389    14.0367 0.0000e+00
      6.616      0.054     9.3985     91.265     65.018  50.765852     1.6074      7.106   306.9557 1.2372e-01    15.2726      6.487      9.409    14.0367 0.0000e+00
      6.633      0.064     9.3945     91.300     65.000  50.750610     1.6072      7.105   306.4687 1.2370e-01    15.2657      6.504      9.433    14.0371 0.0000e+00
      6.653      0.070     9.3894     91.350     64.984  50.737215     1.6077      7.105   306.2207 1.2369e-01    15.1447      6.523      9.462    14.0376 0.0000e+00
      6.675      0.071     9.3936     91.415     64.977  50.730898     1.6217      7.105   306.6240 1.2369e-01    15.0055      6.546      9.494    14.0376 0.0000e+00
      6.697      0.068     9.3960     91.488     64.986  50.737731     1.6424      7.106   307.3875 1.2371e-01    14.9490      6.568      9.528    14.0367 0.0000e+00
      6.715      0.062     9.3998     91.562     65.010  50.756341     1.6671      7.106   307.7940 1.2374e-01    14.9733      6.587      9.553    14.0355 0.0000e+00
      6.728      0.056     9.4048     91.637     65.021  50.765405     1.6785      7.105   307.7527 1.2374e-01    14.9581      6.599      9.571    14.0348 0.0000e+00
      6.738      0.049     9.4118     91.687     65.046  50.783820     1.6805      7.105   307.4905 1.2371e-01    14.9009      6.608      9.584    14.0344 0.0000e+00
      6.749      0.044     9.4206     91.707     65.052  50.788505     1.6831      7.106   307.3772 1.2369e-01    14.8973      6.618      9.598    14.0344 0.0000e+00
      6.760      0.042     9.4262     91.706     65.013  50.758545     1.6845      7.106   307.6742 1.2374e-01    14.9481      6.630      9.616    14.0342 0.0000e+00
      6.771      0.044     9.4370     91.699     64.988  50.739071     1.6730      7.107   307.9827 1.2380e-01    15.0030      6.641      9.632    14.0340 0.0000e+00
      6.780      0.049     9.4414     91.698     64.994  50.743547     1.6432      7.107   307.4941 1.2375e-01    15.0145      6.649      9.643    14.0339 0.0000e+00
      6.790      0.055     9.4432     91.688     65.001  50.749165     1.6242      7.107   306.5852 1.2372e-01    14.9840      6.657      9.656    14.0336 0.0000e+00
      6.803      0.063     9.4431     91.688     64.993  50.743487     1.6185      7.107   306.4576 1.2376e-01    14.9421      6.669      9.673    14.0335 0.0000e+00
      6.821      0.069     9.4404     91.708     64.987  50.738395     1.6240      7.107   306.9838 1.2378e-01    15.0546      6.688      9.699    14.0335 0.0000e+00
      6.844      0.072     9.4431     91.717     65.003  50.751105     1.6491      7.108   307.6127 1.2379e-01    15.3203      6.712      9.735    14.0338 0.0000e+00
      6.867      0.072     9.4401     91.722     65.028  50.770155     1.6719      7.108   307.1777 1.2374e-01    15.4557      6.735      9.769    14.0340 0.0000e+00
      6.888      0.070     9.4390     91.751     65.038  50.778237     1.6755      7.107   305.6824 1.2369e-01    15.4282      6.755      9.799    14.0339 0.0000e+00
      6.904      0.066     9.4435     91.781     65.047  50.785320     1.6596      7.107   305.3645 1.2370e-01    15.3635      6.773      9.823    14.0341 0.0000e+00
      6.916      0.061     9.4445     91.800     65.057  50.792305     1.6627      7.106   306.2592 1.2373e-01    15.2885      6.784      9.838    14.0342 0.0000e+00
      6.928      0.057     9.4415     91.816     65.066  50.799185     1.6965      7.106   306.3486 1.2380e-01    15.2031      6.792      9.851    14.0342 0.0000e+00
      6.943      0.054     9.4475     91.821     65.075  50.805013     1.7101      7.106   305.4991 1.2384e-01    15.1856      6.807      9.873    14.0342 0.0000e+00
      6.960      0.053     9.4510     91.830     65.069  50.799271     1.7106      7.107   305.0213 1.2384e-01    15.2477      6.828      9.903    14.0338 0.0000e+00
      6.975      0.055     9.4511     91.849     65.062  50.793254     1.7103      7.108   305.2177 1.2382e-01    15.2367      6.842      9.923    14.0335 0.0000e+00
      6.985      0.058     9.4552     91.885     65.065  50.795763     1.6991      7.108   305.6369 1.2381e-01    15.1897      6.849      9.934    14.0332 0.0000e+00
      6.997      0.060     9.4534     91.919     65.108  50.829605     1.6911      7.108   305.8731 1.2381e-01    15.1912      6.859      9.950    14.0325 0.0000e+00
      7.012      0.061     9.4560     91.926     65.179  50.884937     1.6889      7.107   305.7510 1.2377e-01    15.1876      6.875      9.972    14.0317 0.0000e+00
      7.030      0.063     9.4563     91.916     65.190  50.893290     1.6973      7.107   305.5366 1.2371e-01    15.2133      6.894      9.999    14.0311 0.0000e+00
      7.050      0.065     9.4614     91.902     65.157  50.867104     1.7003      7.108   305.5187 1.2369e-01    15.1948      6.914     10.030    14.0312 0.0000e+00
      7.069      0.069     9.4664     91.894     65.181  50.885809     1.6843      7.109   306.0511 1.2369e-01    15.0994      6.933     10.055    14.0316 0.0000e+00
      7.085      0.076     9.4657     91.898     65.236  50.928955     1.6700      7.109   306.8975 1.2374e-01    15.0507      6.949     10.078    14.0315 0.0000e+00
      7.098      0.083     9.4652     91.913     65.257  50.944283     1.6435      7.109   307.1476 1.2383e-01    15.0848      6.960     10.095    14.0309 0.0000e+00
      7.115      0.088     9.4625     91.928     65.257  50.944138     1.5880      7.109   306.7526 1.2389e-01    15.1702      6.971     10.112    14.0305 0.0000e+00
      7.143      0.090     9.4625     91.937     65.236  50.927209     1.5407      7.110   306.2516 1.2388e-01    15.1949      7.000     10.153    14.0308 0.0000e+00
      7.179      0.089     9.4617     91.951     65.239  50.930084     1.5215      7.110   306.8545 1.2383e-01    15.1447      7.043     10.216    14.0313 0.0000e+00
      7.208      0.085     9.4644     91.972     65.301  50.978901     1.5476      7.109   308.3631 1.2380e-01    15.1436      7.075     10.261    14.0307 0.0000e+00
      7.224      0.077     9.4668     91.983     65.341  51.009458     1.6154      7.109   308.6614 1.2376e-01    15.2157      7.087     10.277    14.0297 0.0000e+00
      7.235      0.067     9.4667     91.963     65.306  50.982050     1.6585      7.110   307.9654 1.2369e-01    15.2653      7.094     10.288    14.0296 0.0000e+00
      7.248      0.060     9.4683     91.919     65.284  50.965005     1.6689      7.111   308.0362 1.2364e-01    15.2656      7.108     10.309    14.0298 0.0000e+00
      7.262      0.059     9.4704     91.863     65.321  50.993873     1.6666      7.111   308.9142 1.2369e-01    15.2187      7.121     10.330    14.0301 0.0000e+00
      7.277      0.061     9.4735     91.803     65.346  51.013593     1.6476      7.111   309.5481 1.2378e-01    15.1430      7.135     10.349    14.0303 0.0000e+00
      7.293      0.062     9.4702     91.753     65.346  51.012937     1.6464      7.111   309.6774 1.2373e-01    15.1698      7.150     10.370    14.0302 0.0000e+00
      7.312      0.061     9.4655     91.706     65.312  50.985933     1.6605      7.111   309.4455 1.2368e-01    15.2693      7.170     10.400    14.0300 0.0000e+00
      7.330      0.059     9.4602     91.670     65.254  50.941093     1.6514      7.111   309.2385 1.2375e-01    15.2523      7.191     10.429    14.0299 0.0000e+00
      7.344      0.057     9.4519     91.652     65.221  50.915276     1.6277      7.110   309.5848 1.2380e-01    15.1357      7.203     10.447    14.0297 0.0000e+00
      7.356      0.054     9.4488     91.652     65.237  50.927766     1.6076      7.110   310.0183 1.2382e-01    15.0891      7.213     10.462    14.0295 0.0000e+00
      7.367      0.051     9.4427     91.680     65.285  50.965111     1.6086      7.110   310.1783 1.2380e-01    15.1330      7.223     10.476    14.0292 0.0000e+00
      7.380      0.049     9.4387     91.732     65.312  50.985823     1.6146      7.110   309.7979 1.2370e-01    15.1884      7.236     10.494    14.0291 0.0000e+00
      7.395      0.048     9.4373     91.795     65.315  50.987707     1.5792      7.110   308.9469 1.2364e-01    15.2127      7.253     10.519    14.0292 0.0000e+00
      7.408      0.048     9.4365     91.857     65.315  50.987887     1.5221      7.110   308.6651 1.2371e-01    15.1867      7.267     10.540    14.0292 0.0000e+00
      7.418      0.048     9.4400     91.902     65.315  50.987991     1.4820      7.110   309.0574 1.2377e-01    15.1473      7.274     10.550    14.0293 0.0000e+00
      7.428      0.047     9.4454     91.921     65.316  50.988956     1.4615      7.110   308.9584 1.2376e-01    15.1466      7.283     10.562    14.0291 0.0000e+00
      7.442      0.046     9.4529     91.923     65.330  50.999559     1.4647      7.111   307.9840 1.2378e-01    15.1784      7.298     10.585    14.0287 0.0000e+00
      7.455      0.046     9.4594     91.915     65.317  50.989192     1.4793      7.112   307.3434 1.2380e-01    15.2241      7.312     10.606    14.0287 0.0000e+00
      7.466      0.047     9.4652     91.909     65.237  50.927110     1.4711      7.112   307.6652 1.2380e-01    15.2209      7.322     10.620    14.0289 0.0000e+00
      7.476      0.048     9.4657     91.919     65.182  50.883920     1.4487      7.113   308.3473 1.2374e-01    15.1741      7.330     10.633    14.0288 0.0000e+00
      7.487      0.049     9.4662     91.939     65.217  50.911481     1.4342      7.113   308.3642 1.2366e-01    15.1711      7.342     10.648    14.0287 0.0000e+00
      7.500      0.051     9.4651     91.941     65.256  50.942851     1.4284      7.113   307.6964 1.2370e-01    15.1849      7.356     10.668    14.0288 0.0000e+00
      7.514      0.054     9.4633     91.931     65.259  50.945718     1.4379      7.113   307.4148 1.2380e-01    15.2039      7.369     10.688    14.0289 0.0000e+00
      7.528      0.055     9.4649     91.932     65.259  50.946143     1.4399      7.114   307.5399 1.2380e-01    15.1959      7.382     10.706    14.0290 0.0000e+00
      7.544      0.053     9.4681     91.932     65.262  50.947989     1.4367      7.114   307.9186 1.2375e-01    15.0871      7.397     10.729    14.0295 0.0000e+00
      7.560      0.050     9.4687     91.934     65.287  50.968039     1.4480      7.114   308.3796 1.2373e-01    14.9481      7.415     10.755    14.0295 0.0000e+00
      7.573      0.046     9.4647     91.942     65.326  50.998069     1.4606      7.113   308.2956 1.2372e-01    14.9162      7.428     10.774    14.0297 0.0000e+00
      7.583      0.045     9.4672     91.927     65.320  50.993586     1.4816      7.113   308.0214 1.2370e-01    15.0087      7.437     10.787    14.0300 0.0000e+00
      7.591      0.045     9.4664     91.905     65.300  50.977328     1.4935      7.113   308.5064 1.2368e-01    15.1445      7.444     10.797    14.0301 0.0000e+00
      7.600      0.048     9.4653     91.905     65.320  50.991998     1.4705      7.114   309.4277 1.2373e-01    15.2253      7.451     10.808    14.0303 0.0000e+00
      7.610      0.054     9.4696     91.931     65.306  50.980455     1.4365      7.115   309.6097 1.2379e-01    15.1665      7.461     10.822    14.0302 0.0000e+00
      7.625      0.058     9.4661     91.974     65.286  50.964750     1.4158      7.114   309.3312 1.2374e-01    15.1167      7.475     10.842    14.0300 0.0000e+00
      7.644      0.054     9.4624     91.992     65.321  50.992616     1.4189      7.112   309.2429 1.2368e-01    15.2041      7.495     10.870    14.0297 0.0000e+00
      7.666      0.043     9.4633     91.975     65.330  50.999881     1.4493      7.112   309.8338 1.2371e-01    15.2664      7.519     10.906    14.0292 0.0000e+00
      7.686      0.026     9.4650     91.960     65.315  50.989100     1.4836      7.112   310.9689 1.2379e-01    15.2552      7.543     10.939    14.0288 0.0000e+00
      7.691      0.009     9.4727     91.965     65.312  50.989255     1.4843      7.111   311.4389 1.2384e-01    15.2044      7.549     10.949    14.0285 0.0000e+00
      7.682     -0.006     9.4748     91.980     65.324  51.001770     1.4663      7.111   311.2136 1.2384e-01    15.1313      7.535     10.930    14.0287 0.0000e+00
      7.666     -0.012     9.4707     91.979     65.336  51.013410     1.4576      7.111   310.9986 1.2382e-01    15.1222      7.517     10.902    14.0286 0.0000e+00
      7.654     -0.009     9.4684     91.954     65.322  51.003010     1.4616      7.111   311.1618 1.2384e-01    15.1627      7.503     10.881    14.0292 0.0000e+00
      7.650      0.002     9.4692     91.924     65.324  51.003020     1.4812      7.111   311.3804 1.2383e-01    15.1773      7.499     10.876    14.0311 0.0000e+00
      7.656      0.020     9.4713     91.914     65.338  51.013535     1.4874      7.112   311.3185 1.2378e-01    15.1619      7.506     10.886    14.0339 0.0000e+00
      7.668      0.037     9.4711     91.922     65.323  51.003145     1.5034      7.113   311.2730 1.2375e-01    15.1822      7.520     10.907    14.0368 0.0000e+00
      7.683      0.050     9.4679     91.945     65.323  51.004395     1.5498      7.114   311.0029 1.2373e-01    15.2175      7.533     10.928    14.0366 0.0000e+00
      7.698      0.059     9.4631     91.973     65.356  51.028650     1.5820      7.114   310.5481 1.2364e-01    15.2127      7.548     10.948    14.0342 0.0000e+00
      7.715      0.065     9.4636     91.992     65.377  51.042401     1.6016      7.114   310.5921 1.2357e-01    15.2268      7.566     10.972    14.0341 0.0000e+00
      7.732      0.070     9.4632     92.012     65.382  51.043651     1.6038      7.115   310.9325 1.2365e-01    15.2851      7.583     10.998    14.0362 0.0000e+00
      7.748      0.075     9.4660     92.039     65.385  51.043765     1.5828      7.116   310.6204 1.2375e-01    15.3369      7.598     11.021    14.0373 0.0000e+00
      7.767      0.077     9.4702     92.059     65.387  51.043777     1.5726      7.117   309.8289 1.2379e-01    15.3406      7.615     11.045    14.0361 0.0000e+00
      7.789      0.075     9.4717     92.056     65.388  51.043787     1.5895      7.117   309.7084 1.2377e-01    15.3641      7.637     11.077    14.0334 0.0000e+00
      7.814      0.072     9.4742     92.029     65.388  51.043892     1.6204      7.117   310.1967 1.2372e-01    15.3818      7.664     11.116    14.0311 0.0000e+00
      7.835      0.067     9.4775     91.990     65.390  51.045037     1.6301      7.116   310.5703 1.2370e-01    15.2821      7.686     11.148    14.0293 0.0000e+00
      7.850      0.063     9.4810     91.951     65.408  51.057632     1.6151      7.116   310.2674 1.2375e-01    15.1832      7.699     11.166    14.0285 0.0000e+00
      7.860      0.059     9.4804     91.906     65.423  51.069186     1.6128      7.116   309.4606 1.2376e-01    15.1423      7.707     11.179    14.0282 0.0000e+00
      7.870      0.058     9.4776     91.859     65.408  51.057735     1.6192      7.116   309.2474 1.2373e-01    15.1288      7.717     11.192    14.0279 0.0000e+00
      7.883      0.060     9.4723     91.820     65.393  51.046170     1.6010      7.117   309.6680 1.2373e-01    15.2253      7.730     11.211    14.0275 0.0000e+00
      7.901      0.065     9.4700     91.788     65.404  51.056362     1.5681      7.117   309.8996 1.2374e-01    15.3866      7.748     11.237    14.0270 0.0000e+00
      7.921      0.068     9.4644     91.776     65.400  51.053959     1.5466      7.118   309.8103 1.2374e-01    15.4396      7.768     11.267    14.0267 0.0000e+00
      7.940      0.069     9.4592     91.807     65.353  51.017119     1.5317      7.118   309.6208 1.2376e-01    15.3868      7.787     11.295    14.0265 0.0000e+00
      7.959      0.068     9.4554     91.847     65.321  50.991929     1.5463      7.118   309.4153 1.2381e-01    15.3977      7.805     11.320    14.0272 0.0000e+00
      7.976      0.066     9.4514     91.846     65.337  51.003380     1.5903      7.118   309.4773 1.2379e-01    15.4687      7.823     11.346    14.0283 0.0000e+00
      7.992      0.064     9.4485     91.820     65.370  51.028570     1.6060      7.118   309.7685 1.2375e-01    15.4940      7.839     11.369    14.0291 0.0000e+00
      8.006      0.063     9.4525     91.793     65.388  51.042508     1.5942      7.118   309.9235 1.2374e-01    15.4646      7.852     11.388    14.0289 0.0000e+00
      8.021      0.062     9.4613     91.776     65.392  51.044901     1.5719      7.119   309.8887 1.2374e-01    15.3866      7.865     11.407    14.0282 0.0000e+00
      8.038      0.061     9.4581     91.778     65.407  51.057506     1.5447      7.120   309.7792 1.2370e-01    15.3706      7.881     11.431    14.0276 0.0000e+00
      8.056      0.060     9.4557     91.791     65.420  51.067918     1.5314      7.120   310.0622 1.2368e-01    15.4770      7.900     11.458    14.0272 0.0000e+00
      8.072      0.060     9.4524     91.801     65.389  51.043788     1.5363      7.120   310.5572 1.2369e-01    15.5453      7.916     11.482    14.0270 0.0000e+00
      8.086      0.061     9.4499     91.818     65.359  51.019752     1.5374      7.120   310.6010 1.2372e-01    15.4795      7.930     11.502    14.0270 0.0000e+00
      8.099      0.063     9.4509     91.850     65.374  51.031298     1.5201      7.120   310.4196 1.2378e-01    15.3640      7.944     11.521    14.0271 0.0000e+00
      8.112      0.065     9.4526     91.882     65.407  51.056384     1.5108      7.119   310.4286 1.2378e-01    15.3101      7.954     11.535    14.0271 0.0000e+00
      8.128      0.066     9.4536     91.895     65.423  51.069065     1.5156      7.120   310.6246 1.2371e-01    15.3408      7.967     11.556    14.0273 0.0000e+00
      8.150      0.065     9.4541     91.873     65.408  51.057623     1.5442      7.121   310.7244 1.2370e-01    15.4276      7.992     11.591    14.0273 0.0000e+00
      8.173      0.063     9.4590     91.834     65.391  51.045037     1.5912      7.121   310.6886 1.2376e-01    15.4714      8.018     11.629    14.0270 0.0000e+00
      8.189      0.061     9.4622     91.815     65.390  51.043883     1.6003      7.121   310.6213 1.2377e-01    15.4254      8.034     11.654    14.0267 0.0000e+00
      8.199      0.059     9.4651     91.805     65.390  51.043675     1.5798      7.122   310.5133 1.2373e-01    15.3843      8.040     11.661    14.0266 0.0000e+00
      8.207      0.057     9.4623     91.801     65.388  51.042518     1.5778      7.123   310.4155 1.2376e-01    15.4191      8.046     11.670    14.0267 0.0000e+00
      8.221      0.057     9.4547     91.804     65.372  51.029896     1.5915      7.122   310.3857 1.2387e-01    15.5051      8.060     11.690    14.0268 0.0000e+00
      8.239      0.058     9.4554     91.805     65.357  51.018066     1.5956      7.122   310.4110 1.2392e-01    15.5010      8.080     11.718    14.0273 0.0000e+00
      8.259      0.059     9.4537     91.811     65.367  51.026479     1.5943      7.122   310.3778 1.2386e-01    15.4373      8.099     11.747    14.0272 0.0000e+00
      8.276      0.061     9.4527     91.819     65.339  51.004619     1.5922      7.122   310.3284 1.2373e-01    15.4525      8.117     11.773    14.0271 0.0000e+00
      8.288      0.061     9.4548     91.834     65.261  50.944258     1.5862      7.122   310.3290 1.2366e-01    15.4805      8.129     11.789    14.0271 0.0000e+00
      8.298      0.060     9.4531     91.866     65.244  50.931653     1.5892      7.122   310.3856 1.2371e-01    15.4675      8.136     11.800    14.0269 0.0000e+00
      8.313      0.059     9.4549     91.892     65.305  50.979208     1.5949      7.122   310.4966 1.2381e-01    15.4662      8.150     11.820    14.0270 0.0000e+00
      8.332      0.059     9.4550     91.896     65.345  51.011252     1.5971      7.122   310.5525 1.2386e-01    15.4652      8.172     11.853    14.0276 0.0000e+00
      8.351      0.059     9.4557     91.918     65.332  51.001589     1.5902      7.122   310.5451 1.2377e-01    15.3535      8.193     11.883    14.0280 0.0000e+00
      8.366      0.060     9.4597     91.968     65.316  50.989372     1.5707      7.123   310.4940 1.2368e-01    15.2080      8.205     11.901    14.0284 0.0000e+00
      8.377      0.062     9.4648     92.004     65.317  50.990533     1.5689      7.123   310.3643 1.2374e-01    15.2100      8.215     11.915    14.0287 0.0000e+00
      8.389      0.063     9.4616     92.008     65.350  51.015631     1.5933      7.123   310.3527 1.2375e-01    15.2744      8.224     11.929    14.0289 0.0000e+00
      8.404      0.063     9.4632     91.984     65.380  51.038826     1.6088      7.124   310.6118 1.2369e-01    15.3038      8.239     11.950    14.0291 0.0000e+00
      8.425      0.062     9.4717     91.958     65.352  51.016994     1.5973      7.124   310.9160 1.2371e-01    15.3257      8.261     11.982    14.0295 0.0000e+00
      8.447      0.060     9.4746     91.935     65.337  51.005659     1.5796      7.123   311.0197 1.2375e-01    15.3352      8.286     12.017    14.0298 0.0000e+00
      8.465      0.055     9.4763     91.912     65.366  51.028769     1.5769      7.123   310.9201 1.2379e-01    15.3497      8.303     12.043    14.0293 0.0000e+00
      8.475      0.051     9.4714     91.902     65.382  51.042415     1.5904      7.123   310.8294 1.2383e-01    15.3982      8.313     12.056    14.0286 0.0000e+00
      8.481      0.047     9.4695     91.908     65.381  51.043655     1.6088      7.123   310.9557 1.2388e-01    15.4772      8.317     12.062    14.0288 0.0000e+00
      8.488      0.044     9.4672     91.930     65.377  51.043767     1.6083      7.123   311.2427 1.2390e-01    15.4855      8.322     12.070    14.0293 0.0000e+00
      8.500      0.039     9.4637     91.952     65.375  51.043768     1.5846      7.123   311.4594 1.2388e-01    15.3615      8.333     12.087    14.0294 0.0000e+00
      8.518      0.031     9.4628     91.957     65.375  51.043664     1.5389      7.122   311.4245 1.2384e-01    15.1740      8.353     12.115    14.0300 0.0000e+00
      8.533      0.017     9.4626     91.953     65.375  51.042519     1.4888      7.121   311.3370 1.2378e-01    15.0287      8.373     12.143    14.0323 0.0000e+00
      8.538     -0.006     9.4654     91.968     65.360  51.029924     1.4777      7.120   311.6073 1.2372e-01    15.0059      8.376     12.148    14.0350 0.0000e+00
      8.533     -0.035     9.4678     91.973     65.345  51.018379     1.4792      7.118   312.0252 1.2375e-01    14.9659      8.369     12.139    14.0361 0.0000e+00
      8.521     -0.060     9.4690     91.945     65.355  51.029924     1.4571      7.117   311.8302 1.2382e-01    14.8878      8.360     12.126    14.0360 0.0000e+00
      8.499     -0.074     9.4656     91.903     65.363  51.042528     1.4021      7.116   311.1415 1.2386e-01    14.9490      8.341     12.097    14.0350 0.0000e+00
      8.464     -0.075     9.4700     91.868     65.356  51.043776     1.3385      7.115   311.0117 1.2383e-01    15.1257      8.303     12.041    14.0336 0.0000e+00
      8.428     -0.074     9.4719     91.853     65.351  51.045025     1.3214      7.113   311.4648 1.2376e-01    15.2822      8.257     11.975    14.0339 0.0000e+00
      8.411     -0.075     9.4661     91.829     65.361  51.057639     1.3194      7.112   311.6306 1.2372e-01    15.3375      8.238     11.948    14.0365 0.0000e+00
      8.413     -0.074     9.4614     91.797     65.366  51.069289     1.2982      7.112   311.2960 1.2375e-01    15.2825      8.251     11.967    14.0418 0.0000e+00
      8.412     -0.064     9.4540     91.779     65.340  51.058897     1.2810      7.112   310.8603 1.2380e-01    15.1630      8.261     11.981    14.0485 0.0000e+00
      8.387     -0.050     9.4548     91.782     65.328  51.059000     1.2864      7.112   310.6641 1.2380e-01    15.1222      8.234     11.942    14.0518 0.0000e+00
      8.346     -0.040     9.4514     91.826     65.337  51.070545     1.3044      7.112   310.7304 1.2377e-01    15.1998      8.176     11.859    14.0544 0.0000e+00
      8.325     -0.042     9.4450     91.886     65.339  51.071500     1.3166      7.112   311.1456 1.2370e-01    15.2476      8.148     11.818    14.0595 0.0000e+00
      8.335     -0.055     9.4431     91.915     65.340  51.070545     1.3094      7.110   311.6408 1.2367e-01    15.2215      8.172     11.852    14.0680 0.0000e+00
      8.355     -0.075     9.4387     91.924     65.323  51.058997     1.2839      7.107   311.6408 1.2374e-01    15.1905      8.203     11.898    14.0775 0.0000e+00
      8.354     -0.094     9.4438     91.934     65.317  51.058883     1.2738      7.105   311.4042 1.2379e-01    15.2149      8.207     11.904    14.0810 0.0000e+00
      8.314     -0.109     9.4542     91.930     65.322  51.069169     1.2879      7.105   311.7059 1.2376e-01    15.2781      8.168     11.849    14.0783 0.0000e+00
      8.244     -0.119     9.4558     91.907     65.302  51.056375     1.3045      7.105   312.4493 1.2374e-01    15.3060      8.082     11.722    14.0760 0.0000e+00
      8.179     -0.114     9.4551     91.875     65.274  51.031185     1.3080      7.105   312.7348 1.2376e-01    15.2445      8.003     11.607    14.0770 0.0000e+00
      8.154     -0.092     9.4568     91.854     65.264  51.018599     1.2967      7.106   312.3190 1.2378e-01    15.1145      7.985     11.581    14.0814 0.0000e+00
      8.159     -0.057     9.4551     91.874     65.286  51.031186     1.3345      7.107   311.8098 1.2374e-01    15.1014      8.002     11.607    14.0882 0.0000e+00
      8.164     -0.025     9.4512     91.924     65.326  51.056366     1.4324      7.107   312.1698 1.2369e-01    15.2227      8.012     11.620    14.0912 0.0000e+00
      8.163     -0.019     9.4490     91.967     65.348  51.069056     1.4899      7.106   313.2310 1.2373e-01    15.2828      8.004     11.609    14.0873 0.0000e+00
      8.163     -0.044     9.4451     91.990     65.336  51.057614     1.4958      7.104   313.7133 1.2378e-01    15.2473      8.003     11.608    14.0828 0.0000e+00
      8.165     -0.085     9.4489     92.000     65.317  51.045017     1.4788      7.101   313.5274 1.2377e-01    15.1696      8.012     11.620    14.0796 0.0000e+00
      8.153     -0.120     9.4573     92.017     65.308  51.043757     1.3927      7.099   313.4788 1.2379e-01    15.1281      8.009     11.614    14.0750 0.0000e+00
      8.108     -0.137     9.4621     92.038     65.300  51.042393     1.2630      7.100   313.8133 1.2377e-01    15.1564      7.966     11.554    14.0702 0.0000e+00
      8.033     -0.143     9.4655     92.057     65.281  51.028529     1.2088      7.100   314.2172 1.2372e-01    15.2049      7.875     11.422    14.0685 0.0000e+00
      7.964     -0.145     9.4641     92.077     65.252  51.003129     1.2284      7.100   314.4033 1.2374e-01    15.2355      7.790     11.299    14.0704 0.0000e+00
      7.938     -0.142     9.4655     92.079     65.237  50.989272     1.2428      7.100   313.9986 1.2378e-01    15.2185      7.770     11.270    14.0757 0.0000e+00
      7.942     -0.126     9.4672     92.074     65.236  50.987988     1.2412      7.100   313.3680 1.2377e-01    15.1703      7.795     11.306    14.0818 0.0000e+00
      7.930     -0.101     9.4679     92.099     65.236  50.987604     1.2336      7.101   313.4904 1.2380e-01    15.1312      7.795     11.306    14.0821 0.0000e+00
      7.883     -0.086     9.4722     92.102     65.235  50.984628     1.2424      7.102   313.9293 1.2382e-01    15.1558      7.733     11.216    14.0783 0.0000e+00
      7.833     -0.095     9.4735     92.070     65.198  50.951995     1.2726      7.102   314.1144 1.2379e-01    15.1945      7.663     11.114    14.0757 0.0000e+00
      7.816     -0.120     9.4684     92.051     65.148  50.910537     1.2987      7.102   313.7501 1.2377e-01    15.1888      7.655     11.101    14.0756 0.0000e+00
      7.822     -0.137     9.4755     92.026     65.168  50.927853     1.3079      7.102   312.7939 1.2373e-01    15.1892      7.682     11.140    14.0766 0.0000e+00
      7.806     -0.138     9.4775     91.983     65.218  50.970869     1.3010      7.105   312.2760 1.2369e-01    15.1656      7.676     11.132    14.0749 0.0000e+00
      7.744     -0.137     9.4697     91.946     65.237  50.986155     1.2984      7.106   312.4778 1.2369e-01    15.1767      7.603     11.029    14.0703 0.0000e+00
      7.664     -0.147     9.4718     91.902     65.239  50.985685     1.3097      7.107   312.3953 1.2370e-01    15.2552      7.498     10.876    14.0678 0.0000e+00
      7.619     -0.160     9.4688     91.847     65.215  50.965189     1.3133      7.108   311.5359 1.2370e-01    15.2955      7.453     10.808    14.0704 0.0000e+00
      7.613     -0.160     9.4614     91.826     65.168  50.928832     1.3007      7.110   310.8637 1.2373e-01    15.2539      7.470     10.834    14.0749 0.0000e+00
      7.600     -0.141     9.4584     91.841     65.164  50.927090     1.2729      7.111   310.9785 1.2375e-01    15.1271      7.472     10.838    14.0760 0.0000e+00
      7.550     -0.122     9.4560     91.848     65.186  50.944132     1.2520      7.112   311.4611 1.2377e-01    15.0264      7.411     10.750    14.0725 0.0000e+00
      7.486     -0.121     9.4473     91.853     65.190  50.944392     1.2566      7.113   311.6223 1.2379e-01    15.0272      7.325     10.624    14.0701 0.0000e+00
      7.451     -0.133     9.4448     91.861     65.175  50.930221     1.2620      7.115   311.2075 1.2376e-01    15.0344      7.294     10.578    14.0714 0.0000e+00
      7.446     -0.140     9.4497     91.876     65.136  50.899794     1.2504      7.116   310.7473 1.2375e-01    14.9772      7.306     10.597    14.0736 0.0000e+00
      7.436     -0.130     9.4484     91.925     65.126  50.893998     1.2326      7.117   310.5323 1.2380e-01    14.9155      7.305     10.597    14.0734 0.0000e+00
      7.393     -0.112     9.4494     91.975     65.164  50.923638     1.2220      7.119   310.7582 1.2390e-01    14.9034      7.261     10.532    14.0700 0.0000e+00
      7.328     -0.102     9.4524     91.981     65.189  50.940686     1.2211      7.120   311.2427 1.2393e-01    14.9338      7.175     10.408    14.0673 0.0000e+00
      7.283     -0.103     9.4498     91.954     65.154  50.909619     1.2311      7.120   311.1417 1.2391e-01    14.9758      7.122     10.330    14.0682 0.0000e+00
      7.281     -0.104     9.4575     91.901     65.100  50.865501     1.2512      7.121   310.5695 1.2384e-01    15.0004      7.134     10.349    14.0705 0.0000e+00
      7.294     -0.097     9.4647     91.846     65.081  50.851751     1.2727      7.122   310.2603 1.2377e-01    15.0269      7.165     10.392    14.0718 0.0000e+00
      7.281     -0.087     9.4637     91.814     65.102  50.870364     1.2837      7.123   310.6728 1.2374e-01    15.0566      7.157     10.380    14.0691 0.0000e+00
      7.231     -0.090     9.4632     91.805     65.140  50.900059     1.2919      7.124   311.5993 1.2369e-01    15.1548      7.091     10.285    14.0642 0.0000e+00
      7.179     -0.111     9.4563     91.827     65.133  50.893295     1.3058      7.125   312.0840 1.2370e-01    15.2230      7.023     10.187    14.0628 0.0000e+00
      7.159     -0.139     9.4492     91.874     65.081  50.852083     1.3016      7.126   311.8875 1.2376e-01    15.0952      7.011     10.170    14.0647 0.0000e+00
      7.155     -0.154     9.4461     91.917     65.071  50.846262     1.2908      7.126   311.9766 1.2376e-01    14.9426      7.025     10.190    14.0671 0.0000e+00
      7.128     -0.149     9.4446     91.944     65.119  50.886412     1.2997      7.127   312.7311 1.2376e-01    14.8810      7.010     10.167    14.0669 0.0000e+00
      7.061     -0.140     9.4468     91.957     65.128  50.893054     1.3095      7.127   313.1804 1.2377e-01    14.8966      6.931     10.053    14.0646 0.0000e+00
      6.984     -0.141     9.4542     91.956     65.093  50.863074     1.3176      7.127   312.9339 1.2376e-01    14.9952      6.830      9.906    14.0640 0.0000e+00
      6.946     -0.151     9.4581     91.946     65.068  50.841411     1.3233      7.128   312.7633 1.2375e-01    15.0479      6.792      9.851    14.0660 0.0000e+00
      6.948     -0.152     9.4599     91.913     65.042  50.821627     1.3196      7.129   313.0959 1.2370e-01    14.9871      6.816      9.887    14.0690 0.0000e+00
      6.943     -0.139     9.4621     91.886     65.030  50.814358     1.2898      7.130   313.3420 1.2366e-01    14.9428      6.829      9.904    14.0694 0.0000e+00
      6.895     -0.125     9.4607     91.894     65.033  50.817026     1.2459      7.130   313.3310 1.2373e-01    14.9917      6.776      9.828    14.0662 0.0000e+00
      6.822     -0.127     9.4627     91.919     65.002  50.790386     1.2379      7.131   313.3925 1.2378e-01    15.0660      6.677      9.684    14.0635 0.0000e+00
      6.773     -0.145     9.4572     91.957     64.949  50.746251     1.2514      7.133   313.0527 1.2373e-01    15.0888      6.622      9.605    14.0642 0.0000e+00
      6.765     -0.160     9.4516     91.993     64.925  50.727881     1.2518      7.133   312.4058 1.2368e-01    15.0292      6.634      9.623    14.0667 0.0000e+00
      6.760     -0.160     9.4554     92.009     64.960  50.758777     1.2418      7.133   312.4546 1.2370e-01    14.9253      6.644      9.635    14.0675 0.0000e+00
      6.720     -0.145     9.4568     92.017     65.014  50.802333     1.2392      7.133   312.8674 1.2369e-01    14.8918      6.607      9.583    14.0651 0.0000e+00
      6.645     -0.131     9.4624     92.016     65.026  50.810024     1.2370      7.133   312.2353 1.2360e-01    14.9314      6.517      9.452    14.0623 0.0000e+00
      6.573     -0.126     9.4671     91.984     65.002  50.788265     1.2488      7.133   310.8343 1.2357e-01    14.9605      6.423      9.314    14.0628 0.0000e+00
      6.549     -0.128     9.4670     91.924     64.930  50.729734     1.2897      7.133   310.6405 1.2367e-01    14.9695      6.405      9.290    14.0658 0.0000e+00
      6.564     -0.128     9.4672     91.865     64.858  50.673814     1.3074      7.134   311.5265 1.2378e-01    14.9380      6.441      9.343    14.0682 0.0000e+00
      6.569     -0.121     9.4691     91.820     64.867  50.683633     1.2962      7.135   311.8248 1.2379e-01    14.9217      6.460      9.370    14.0667 0.0000e+00
      6.530     -0.116     9.4665     91.786     64.913  50.721463     1.2878      7.137   311.1499 1.2372e-01    14.9429      6.422      9.314    14.0628 0.0000e+00
      6.454     -0.127     9.4588     91.769     64.869  50.686725     1.2806      7.138   310.1637 1.2367e-01    14.8873      6.321      9.169    14.0608 0.0000e+00
      6.391     -0.153     9.4523     91.759     64.736  50.581111     1.2836      7.137   309.7095 1.2371e-01    14.7613      6.244      9.058    14.0617 0.0000e+00
      6.375     -0.175     9.4478     91.762     64.662  50.523963     1.2913      7.137   309.8733 1.2375e-01    14.6498      6.245      9.058    14.0645 0.0000e+00
      6.374     -0.177     9.4427     91.786     64.715  50.567243     1.2903      7.138   310.0800 1.2374e-01    14.5982      6.267      9.089    14.0667 0.0000e+00
      6.336     -0.162     9.4423     91.803     64.831  50.659915     1.2714      7.139   309.7992 1.2377e-01    14.6837      6.236      9.044    14.0655 0.0000e+00
      6.252     -0.150     9.4416     91.800     64.874  50.691992     1.2458      7.139   309.4040 1.2381e-01    14.8968      6.130      8.892    14.0633 0.0000e+00
      6.172     -0.152     9.4401     91.777     64.809  50.637588     1.2389      7.139   309.2594 1.2377e-01    15.0573      6.027      8.742    14.0637 0.0000e+00
      6.143     -0.161     9.4450     91.720     64.730  50.573602     1.2291      7.139   309.2547 1.2371e-01    15.0198      6.009      8.716    14.0665 0.0000e+00
      6.151     -0.163     9.4457     91.630     64.702  50.553321     1.2277      7.141   309.8640 1.2368e-01    14.8530      6.039      8.760    14.0685 0.0000e+00
      6.143     -0.153     9.4459     91.546     64.737  50.582871     1.2557      7.142   310.6895 1.2368e-01    14.7140      6.044      8.766    14.0667 0.0000e+00
      6.089     -0.144     9.4446     91.513     64.774  50.613403     1.2840      7.142   310.5459 1.2368e-01    14.6716      5.985      8.681    14.0632 0.0000e+00
      6.004     -0.151     9.4400     91.518     64.765  50.605003     1.3120      7.142   310.0204 1.2373e-01    14.7155      5.877      8.524    14.0611 0.0000e+00
      5.942     -0.171     9.4286     91.528     64.690  50.544795     1.3441      7.143   310.7893 1.2378e-01    14.7671      5.804      8.418    14.0619 0.0000e+00
      5.927     -0.190     9.4166     91.539     64.577  50.456919     1.3565      7.144   312.3564 1.2380e-01    14.7494      5.807      8.424    14.0649 0.0000e+00
      5.923     -0.191     9.4142     91.559     64.542  50.431461     1.3457      7.145   312.6209 1.2380e-01    14.6714      5.825      8.448    14.0669 0.0000e+00
      5.881     -0.177     9.4167     91.575     64.616  50.490982     1.3458      7.145   311.8367 1.2377e-01    14.6444      5.790      8.397    14.0654 0.0000e+00
      5.793     -0.164     9.4182     91.592     64.682  50.541607     1.3749      7.146   311.7366 1.2378e-01    14.6617      5.684      8.243    14.0628 0.0000e+00
      5.705     -0.161     9.4183     91.603     64.677  50.535590     1.4145      7.146   312.5281 1.2378e-01    14.6078      5.569      8.077    14.0627 0.0000e+00
      5.669     -0.164     9.4217     91.592     64.610  50.481735     1.4247      7.147   313.2335 1.2374e-01    14.5050      5.542      8.038    14.0651 0.0000e+00
      5.675     -0.164     9.4215     91.570     64.503  50.398420     1.4069      7.149   313.3830 1.2372e-01    14.4100      5.571      8.081    14.0678 0.0000e+00
      5.673     -0.155     9.4233     91.539     64.443  50.353710     1.3990      7.151   313.1314 1.2376e-01    14.3812      5.580      8.093    14.0672 0.0000e+00
      5.630     -0.148     9.4274     91.510     64.482  50.385632     1.4050      7.151   312.6000 1.2380e-01    14.3962      5.539      8.033    14.0642 0.0000e+00
      5.550     -0.154     9.4242     91.508     64.505  50.403407     1.4210      7.151   312.2922 1.2377e-01    14.3859      5.440      7.891    14.0623 0.0000e+00
      5.476     -0.173     9.4233     91.509     64.393  50.314642     1.4250      7.153   312.4215 1.2373e-01    14.3246      5.349      7.757    14.0623 0.0000e+00
      5.445     -0.191     9.4192     91.481     64.248  50.201335     1.4039      7.154   312.5285 1.2378e-01    14.2025      5.329      7.728    14.0645 0.0000e+00
      5.440     -0.195     9.4136     91.441     64.214  50.176370     1.3989      7.154   311.7792 1.2385e-01    14.0020      5.347      7.754    14.0670 0.0000e+00
      5.411     -0.182     9.4149     91.416     64.245  50.203288     1.4314      7.154   310.4172 1.2380e-01    13.8132      5.329      7.730    14.0668 0.0000e+00
      5.333     -0.165     9.4175     91.395     64.250  50.209319     1.4642      7.154   309.9132 1.2369e-01    13.7982      5.238      7.598    14.0649 0.0000e+00
      5.243     -0.155     9.4136     91.378     64.221  50.185789     1.4786      7.155   310.3305 1.2369e-01    13.8206      5.121      7.426    14.0645 0.0000e+00
      5.194     -0.147     9.4068     91.355     64.125  50.109284     1.5309      7.157   310.9031 1.2372e-01    13.8106      5.073      7.358    14.0665 0.0000e+00
      5.193     -0.137     9.4058     91.311     63.965  49.982757     1.6314      7.159   310.5559 1.2376e-01    13.8489      5.093      7.386    14.0694 0.0000e+00
      5.198     -0.120     9.4022     91.269     63.890  49.925892     1.7024      7.160   309.1435 1.2376e-01    13.9077      5.107      7.408    14.0708 0.0000e+00
      5.180     -0.104     9.4012     91.233     63.892  49.929697     1.7235      7.161   308.4520 1.2370e-01    13.9743      5.092      7.386    14.0695 0.0000e+00
      5.131     -0.095     9.4010     91.173     63.773  49.838282     1.7029      7.161   308.8210 1.2368e-01    13.8346      5.040      7.309    14.0675 0.0000e+00
      5.071     -0.090     9.3944     91.081     63.690  49.773037     1.6612      7.163   309.0448 1.2376e-01    13.4831      4.959      7.193    14.0666 0.0000e+00
      5.038     -0.077     9.3896     90.971     63.776  49.839264     1.6440      7.166   308.7495 1.2381e-01    13.2769      4.922      7.140    14.0680 0.0000e+00
      5.041     -0.061     9.3875     90.865     63.826  49.877086     1.6453      7.168   308.2610 1.2379e-01    13.2541      4.944      7.171    14.0709 0.0000e+00
      5.051     -0.057     9.3808     90.762     63.792  49.849370     1.6931      7.170   307.9568 1.2373e-01    13.2413      4.959      7.192    14.0719 0.0000e+00
      5.053     -0.077     9.3711     90.665     63.675  49.758138     1.7812      7.171   307.9105 1.2374e-01    13.1561      4.956      7.186    14.0714 0.0000e+00
      5.047     -0.112     9.3585     90.597     63.387  49.535954     1.8199      7.173   308.4757 1.2380e-01    13.0437      4.955      7.187    14.0716 0.0000e+00
      5.017     -0.142     9.3482     90.565     63.026  49.258280     1.8191      7.174   309.1981 1.2381e-01    12.9761      4.939      7.164    14.0699 0.0000e+00
      4.946     -0.155     9.3387     90.580     62.856  49.131062     1.8798      7.174   308.8150 1.2378e-01    12.8170      4.862      7.051    14.0678 0.0000e+00
      4.859     -0.154     9.3264     90.621     62.863  49.140664     2.0051      7.174   307.9736 1.2376e-01    12.5543      4.747      6.885    14.0680 0.0000e+00
      4.808     -0.149     9.3201     90.655     62.754  49.056922     2.0769      7.175   308.3174 1.2373e-01    12.4303      4.693      6.807    14.0701 0.0000e+00
      4.803     -0.141     9.3145     90.678     62.446  48.816971     2.0741      7.178   309.7020 1.2373e-01    12.4111      4.710      6.831    14.0743 0.0000e+00
      4.806     -0.128     9.3154     90.631     62.231  48.652148     2.0546      7.180   310.4324 1.2384e-01    12.3564      4.724      6.850    14.0797 0.0000e+00
      4.786     -0.113     9.3223     90.484     62.226  48.651366     2.0154      7.180   310.0930 1.2473e-01    12.3839      4.706      6.825    14.0836 0.0000e+00
      4.734     -0.108     9.3228     90.300     62.180  48.617044     1.9659      7.180   309.5567 1.3402e-01    12.5379      4.649      6.744    14.0836 0.0000e+00
      4.672     -0.119     9.3290     90.111     61.935  48.427646     1.9481      7.181   309.7985 1.5283e-01    12.6471      4.567      6.625    14.0835 0.0000e+00
      4.638     -0.143     9.3267     89.914     61.563  48.139126     1.9503      7.184   310.7797 1.5762e-01    12.6800      4.531      6.572    14.0856 0.0000e+00
      4.638     -0.166     9.3052     89.724     61.280  47.922152     1.9169      7.187   311.4401 1.4680e-01    12.6629      4.553      6.601    14.0891 0.0000e+00
      4.631     -0.176     9.2862     89.562     60.919  47.645461     1.8520      7.187   311.5886 1.6122e-01    12.6106      4.563      6.616    14.0914 0.0000e+00
      4.576     -0.176     9.2667     89.437     60.350  47.206226     1.8234      7.186   311.5428 2.1741e-01    12.6282      4.509      6.540    14.0921 0.0000e+00
      4.477     -0.178     9.2456     89.334     59.986  46.928579     1.8374      7.186   311.0581 2.7731e-01    12.6705      4.382      6.356    14.0934 0.0000e+00
      4.395     -0.185     9.2245     89.218     59.931  46.891452     1.9127      7.187   310.3746 2.9198e-01    12.5411      4.282      6.209    14.0970 0.0000e+00
      4.366     -0.187     9.2064     89.060     59.836  46.820818     2.0440      7.191   310.4194 2.7244e-01    12.2599      4.274      6.199    14.1023 0.0000e+00
      4.363     -0.175     9.1932     88.837     59.528  46.582441     2.1100      7.194   310.9117 2.7571e-01    12.1396      4.288      6.218    14.1071 0.0000e+00
      4.341     -0.152     9.1828     88.537     59.156  46.294738     2.1028      7.195   310.3893 3.2311e-01    12.1447      4.272      6.196    14.1130 0.0000e+00
      4.283     -0.135     9.1710     88.197     58.865  46.072071     2.1152      7.195   309.0937 3.9614e-01    12.0146      4.210      6.106    14.1186 0.0000e+00
      4.211     -0.133     9.1544     87.871     58.748  45.985172     2.1598      7.196   308.6688 4.5402e-01    11.7966      4.116      5.969    14.1212 0.0000e+00
      4.168     -0.144     9.1332     87.589     58.770  46.005867     2.1838      7.197   308.8655 4.6351e-01    11.6261      4.070      5.903    14.1224 0.0000e+00
      4.163     -0.156     9.0991     87.342     58.686  45.941396     2.1728      7.199   309.0630 4.5586e-01    11.5595      4.082      5.921    14.1252 0.0000e+00
      4.161     -0.157     9.0615     87.103     58.311  45.650046     2.1851      7.199   308.6483 4.8396e-01    11.4700      4.094      5.937    14.1301 0.0000e+00
      4.125     -0.147     9.0258     86.880     57.748  45.212916     2.2491      7.199   307.3792 5.6050e-01    11.2947      4.065      5.895    14.1347 0.0000e+00
      4.047     -0.135     8.9964     86.723     57.272  44.845876     2.3062      7.200   306.7097 6.6510e-01    11.1818      3.973      5.763    14.1377 0.0000e+00
      3.967     -0.126     8.9727     86.646     57.082  44.703636     2.3093      7.203   306.7478 7.2692e-01    11.1305      3.867      5.608    14.1386 0.0000e+00
      3.935     -0.117     8.9479     86.581     57.232  44.826176     2.2865      7.206   306.7222 7.0101e-01    11.0838      3.840      5.569    14.1389 0.0000e+00
      3.949     -0.106     8.9218     86.476     57.445  44.994432     2.3304      7.208   306.8304 6.5889e-01    10.9933      3.876      5.621    14.1424 0.0000e+00
      3.962     -0.096     8.9025     86.314     57.402  44.960582     2.4479      7.210   307.0231 6.7400e-01    10.8567      3.897      5.652    14.1484 0.0000e+00
      3.946     -0.094     8.8988     86.120     57.193  44.797775     2.5254      7.212   306.9009 7.4741e-01    10.7637      3.882      5.631    14.1542 0.0000e+00
      3.896     -0.108     8.8916     85.928     57.035  44.676418     2.5353      7.213   306.3853 8.5245e-01    10.6892      3.827      5.550    14.1590 0.0000e+00
      3.836     -0.138     8.8819     85.733     56.899  44.572431     2.5424      7.216   305.7789 9.3480e-01    10.6044      3.750      5.438    14.1609 0.0000e+00
      3.799     -0.171     8.8644     85.552     56.633  44.365707     2.5700      7.221   306.0226 9.6410e-01    10.5574      3.713      5.386    14.1601 0.0000e+00
      3.785     -0.191     8.8414     85.416     56.184  44.017816     2.5947      7.223   306.9235 9.9995e-01    10.5663      3.719      5.393    14.1599 0.0000e+00
      3.755     -0.191     8.8241     85.338     55.890  43.793887     2.6160      7.224   307.1207 1.1387e+00    10.5065      3.702      5.369    14.1620 0.0000e+00
      3.682     -0.179     8.8016     85.322     55.991  43.879898     2.6938      7.225   306.5147 1.3898e+00    10.1081      3.621      5.253    14.1644 0.0000e+00
      3.589     -0.171     8.7816     85.342     55.951  43.851727     2.8370      7.227   305.7910 1.5943e+00     9.5756      3.503      5.080    14.1659 0.0000e+00
      3.533     -0.170     8.7672     85.365     55.441  43.453279     2.9236      7.232   305.9421 1.6213e+00     9.3624      3.441      4.990    14.1686 0.0000e+00
      3.524     -0.168     8.7569     85.339     54.854  42.997789     2.9344      7.235   306.7063 1.5790e+00     9.3402      3.456      5.013    14.1749 0.0000e+00
      3.524     -0.154     8.7558     85.260     54.495  42.724201     2.9095      7.236   306.7712 1.6254e+00     9.2389      3.469      5.031    14.1825 0.0000e+00
      3.493     -0.135     8.7574     85.178     54.352  42.620846     2.8474      7.236   306.4684 1.8309e+00     9.0595      3.442      4.991    14.1856 0.0000e+00
      3.424     -0.128     8.7630     85.088     54.364  42.636755     2.8157      7.236   306.2287 2.1244e+00     8.9825      3.361      4.874    14.1843 0.0000e+00
      3.357     -0.137     8.7606     84.961     54.312  42.599210     2.8177      7.238   305.7662 2.2764e+00     9.0586      3.270      4.743    14.1875 0.0000e+00
      3.332     -0.152     8.7464     84.794     54.002  42.357310     2.8541      7.242   305.5221 2.2547e+00     9.0232      3.256      4.724    14.1964 0.0000e+00
      3.333     -0.158     8.7379     84.609     53.538  41.996955     2.9393      7.244   305.6005 2.2611e+00     8.7593      3.276      4.752    14.2055 0.0000e+00
      3.317     -0.150     8.7285     84.437     53.032  41.606168     2.9907      7.245   305.5958 2.4611e+00     8.5321      3.269      4.741    14.2126 0.0000e+00
      3.259     -0.139     8.7156     84.308     52.729  41.377077     3.0017      7.246   305.5522 2.9013e+00     8.5309      3.210      4.656    14.2142 0.0000e+00
      3.179     -0.135     8.6968     84.224     52.729  41.385005     3.0890      7.248   304.9869 3.3096e+00     8.5752      3.104      4.501    14.2139 0.0000e+00
      3.127     -0.138     8.6766     84.149     52.723  41.384687     3.2556      7.251   304.0946 3.3948e+00     8.5208      3.045      4.415    14.2179 0.0000e+00
      3.118     -0.140     8.6565     84.057     52.624  41.309775     3.3428      7.255   303.8842 3.3180e+00     8.4190      3.056      4.432    14.2234 0.0000e+00
      3.123     -0.133     8.6408     83.938     52.453  41.177414     3.3364      7.257   304.1633 3.3554e+00     8.3012      3.070      4.454    14.2317 0.0000e+00
      3.104     -0.119     8.6336     83.808     52.131  40.926759     3.3355      7.258   304.4580 3.6777e+00     8.2574      3.060      4.439    14.2411 0.0000e+00
      3.046     -0.115     8.6247     83.684     51.826  40.690875     3.3735      7.261   303.9200 4.2583e+00     8.1628      2.994      4.343    14.2447 0.0000e+00
      2.978     -0.130     8.6166     83.601     51.798  40.673651     3.4375      7.263   302.4762 4.6333e+00     7.9085      2.901      4.207    14.2470 0.0000e+00
      2.947     -0.153     8.6021     83.565     51.769  40.655051     3.4691      7.266   301.3696 4.5744e+00     7.7108      2.875      4.170    14.2484 0.0000e+00
      2.947     -0.168     8.5889     83.513     51.362  40.339071     3.4568      7.268   300.9511 4.5238e+00     7.6170      2.897      4.202    14.2498 0.0000e+00
      2.932     -0.163     8.5742     83.457     50.796  39.899516     3.4044      7.269   301.1158 5.0001e+00     7.5610      2.897      4.201    14.2536 0.0000e+00
      2.867     -0.151     8.5617     83.426     50.394  39.592578     3.3106      7.270   301.2963 6.0686e+00     7.5116      2.827      4.101    14.2592 0.0000e+00
      2.777     -0.144     8.5642     83.400     50.242  39.483788     3.2465      7.271   300.8963 6.9525e+00     7.4636      2.704      3.923    14.2635 0.0000e+00
      2.722     -0.143     8.5555     83.367     50.298  39.536109     3.2459      7.274   300.2373 7.0120e+00     7.3909      2.646      3.838    14.2649 0.0000e+00
      2.717     -0.144     8.5475     83.312     50.281  39.527108     3.3191      7.279   299.6087 6.7667e+00     7.2467      2.664      3.864    14.2695 0.0000e+00
      2.723     -0.145     8.5448     83.227     50.086  39.374960     3.4493      7.284   299.1472 6.8327e+00     7.1543      2.679      3.885    14.2790 0.0000e+00
      2.708     -0.146     8.5389     83.134     49.885  39.219603     3.5213      7.285   299.4752 7.4073e+00     7.1965      2.669      3.872    14.2912 0.0000e+00
      2.656     -0.154     8.5354     83.037     49.738  39.108340     3.5322      7.286   300.3049 8.6493e+00     7.2441      2.620      3.800    14.3006 0.0000e+00
      2.573     -0.166     8.5293     82.937     49.650  39.045082     3.5892      7.288   300.3169 1.0058e+01     7.1839      2.518      3.652    14.3028 0.0000e+00
      2.502     -0.179     8.5198     82.882     49.379  38.835537     3.6778      7.290   299.4491 1.0697e+01     7.0838      2.432      3.528    14.3029 0.0000e+00
      2.472     -0.189     8.5086     82.859     48.920  38.478564     3.7301      7.294   298.5012 1.0717e+01     7.0925      2.417      3.507    14.3057 0.0000e+00
      2.462     -0.189     8.5004     82.835     48.663  38.282737     3.7555      7.295   298.0629 1.1047e+01     7.1861      2.423      3.515    14.3107 0.0000e+00
      2.433     -0.176     8.4839     82.836     48.604  38.244687     3.7016      7.295   298.7091 1.2323e+01     7.3617      2.403      3.484    14.3173 0.0000e+00
      2.366     -0.162     8.4791     82.850     48.550  38.208893     3.5613      7.295   299.8613 1.4576e+01     7.5770      2.331      3.380    14.3205 0.0000e+00
      2.282     -0.156     8.4799     82.860     48.491  38.167260     3.4660      7.297   300.0349 1.6429e+01     7.6366      2.221      3.222    14.3228 0.0000e+00
      2.230     -0.159     8.4714     82.863     48.348  38.058607     3.4482      7.301   299.5182 1.6661e+01     7.6382      2.166      3.143    14.3308 0.0000e+00
      2.223     -0.168     8.4728     82.856     47.995  37.783602     3.4624      7.306   298.9478 1.6278e+01     7.6650      2.179      3.161    14.3400 0.0000e+00
      2.224     -0.173     8.4726     82.852     47.557  37.443962     3.4798      7.309   298.6453 1.6738e+01     7.5503      2.191      3.177    14.3472 0.0000e+00
      2.194     -0.174     8.4727     82.865     47.221  37.188353     3.4758      7.310   299.2154 1.8939e+01     7.3108      2.171      3.149    14.3524 0.0000e+00
      2.118     -0.178     8.4730     82.876     47.099  37.104404     3.4558      7.313   299.7322 2.2883e+01     7.1256      2.089      3.030    14.3552 0.0000e+00
      2.022     -0.186     8.4711     82.876     47.115  37.126965     3.4619      7.318   299.5602 2.6179e+01     7.0869      1.964      2.849    14.3571 0.0000e+00
      1.960     -0.197     8.4695     82.872     46.970  37.016962     3.5820      7.323   299.1998 2.6993e+01     6.9455      1.902      2.758    14.3619 0.0000e+00
      1.943     -0.204     8.4693     82.831     46.677  36.789651     3.7687      7.328   298.8170 2.6838e+01     6.5100      1.905      2.763    14.3720 0.0000e+00
      1.934     -0.201     8.4696     82.753     46.348  36.536033     3.8466      7.329   298.1153 2.8018e+01     6.1586      1.906      2.765    14.3875 0.0000e+00
      1.893     -0.191     8.4640     82.680     45.955  36.234836     3.8415      7.329   297.3404 3.2377e+01     6.0781      1.878      2.725    14.3996 0.0000e+00
      1.808     -0.186     8.4670     82.623     45.647  36.003290     3.8647      7.331   297.1059 3.9130e+01     6.1865      1.779      2.579    14.4013 0.0000e+00
      1.716     -0.189     8.4624     82.591     45.575  35.957277     3.9109      7.334   297.1724 4.3528e+01     6.4108      1.660      2.406    14.4040 0.0000e+00
      1.668     -0.195     8.4496     82.580     45.694  36.059212     3.9254      7.338   297.2832 4.4110e+01     6.5016      1.623      2.353    14.4107 0.0000e+00
      1.656     -0.197     8.4422     82.593     45.734  36.093657     3.9073      7.342   296.6382 4.4224e+01     6.4305      1.625      2.358    14.4197 0.0000e+00
      1.641     -0.189     8.4318     82.641     45.524  35.929603     3.8334      7.344   295.3109 4.6951e+01     6.3023      1.621      2.351    14.4342 0.0000e+00
      1.595     -0.178     8.4274     82.693     45.180  35.661938     3.7056      7.343   294.7435 5.4757e+01     6.2153      1.585      2.298    14.4466 0.0000e+00
      1.510     -0.174     8.4249     82.728     44.912  35.458841     3.6443      7.342   294.8541 6.4576e+01     6.2673      1.478      2.142    14.4547 0.0000e+00
      1.430     -0.180     8.4236     82.785     44.877  35.440951     3.6409      7.343   295.0136 6.9440e+01     6.2814      1.380      2.001    14.4583 0.0000e+00
      1.395     -0.192     8.4308     82.851     44.956  35.509099     3.6480      7.347   295.0379 6.9708e+01     6.1464      1.360      1.972    14.4582 0.0000e+00
      1.387     -0.203     8.4375     82.892     44.968  35.521418     3.7306      7.349   294.6311 7.0539e+01     6.0009      1.363      1.977    14.4608 0.0000e+00
      1.367     -0.204     8.4356     82.939     44.892  35.463003     3.8655      7.349   293.7941 7.6969e+01     5.9572      1.356      1.968    14.4713 0.0000e+00
      1.306     -0.203     8.4395     82.996     44.695  35.310420     3.9391      7.349   293.0918 9.3523e+01     5.9944      1.303      1.890    14.4851 0.0000e+00
      1.205     -0.205     8.4489     83.037     44.467  35.135892     3.9385      7.353   292.7650 1.1329e+02     5.9720      1.174      1.703    14.4914 0.0000e+00
      1.116     -0.210     8.4488     83.073     44.449  35.129385     3.9495      7.358   292.5965 1.2290e+02     5.9941      1.070      1.551    14.4925 0.0000e+00
      1.078     -0.216     8.4539     83.109     44.571  35.231759     4.0055      7.364   292.5160 1.2354e+02     6.1594      1.048      1.520    14.4940 0.0000e+00
      1.067     -0.219     8.4615     83.148     44.569  35.231614     4.0499      7.369   292.8246 1.2613e+02     6.2628      1.052      1.526    14.4971 0.0000e+00
      1.042     -0.217     8.4625     83.213     44.438  35.127639     4.0530      7.371   293.2303 1.3936e+02     6.2530      1.037      1.504    14.5031 0.0000e+00
      0.979     -0.219     8.4647     83.299     44.260  34.989794     4.0098      7.370   292.9471 1.6764e+02     6.1438      0.977      1.417    14.5135 0.0000e+00
      0.880     -0.229     8.4670     83.374     44.135  34.897360     3.9434      7.370   292.3258 2.0284e+02     6.0358      0.860      1.248    14.5225 0.0000e+00
      0.788     -0.249     8.4698     83.434     44.125  34.898323     3.9245      7.373   291.5697 2.2569e+02     6.0393      0.753      1.092    14.5217 0.0000e+00
      0.738     -0.267     8.4764     83.499     44.087  34.874555     3.9479      7.377   291.1178 2.3226e+02     6.0163      0.713      1.034    14.5195 0.0000e+00
      0.713     -0.270     8.4874     83.602     43.907  34.736891     4.0015      7.377   291.3362 2.4614e+02     5.9627      0.709      1.028    14.5220 0.0000e+00
      0.664     -0.257     8.4930     83.746     43.682  34.566248     4.0645      7.375   291.1992 3.0124e+02     5.9374      0.676      0.979    14.5297 0.0000e+00
      0.568     -0.237     8.4965     83.913     43.536  34.460971     4.0771      7.373   290.7512 3.9080e+02     5.9491      0.564      0.817    14.5423 0.0000e+00
      0.459     -0.214     8.4997     84.122     43.463  34.415720     4.0880      7.373   290.3933 4.5213e+02     6.0016      0.428      0.620    14.5502 0.0000e+00
      0.392     -0.179     8.5094     84.382     43.428  34.399811     4.2214      7.373   289.9698 4.5648e+02     5.8900      0.367      0.532    14.5527 0.0000e+00
      0.371     -0.129     8.5248     84.678     43.413  34.395527     4.4320      7.373   290.1913 4.4419e+02     5.5897      0.360      0.523    14.5602 0.0000e+00
      0.368     -0.071     8.5372     85.002     43.367  34.363937     4.5371      7.374   291.0072 4.4439e+02     5.4107      0.360      0.522    14.5738 0.0000e+00
      0.368     -0.027     8.5553     85.362     43.244  34.271639     4.5352      7.374   291.0580 4.4664e+02     5.4347      0.361      0.523    14.5901 0.0000e+00
      0.370     -0.017     8.5798     85.747     43.184  34.231261     4.5003      7.375   290.1168 4.4319e+02     5.5036      0.362      0.525    14.6034 0.0000e+00
      0.373     -0.043     8.6101     86.131     43.288  34.319863     4.4401      7.379   289.0049 4.4035e+02     5.4930      0.366      0.529    14.6106 0.0000e+00
      0.375     -0.095     8.6397     86.455     43.377  34.391240     4.3899      7.384   288.1109 4.3664e+02     5.4429      0.369      0.535    14.6167 0.0000e+00
      0.367     -0.161     8.6771     86.736     43.387  34.396375     4.3769      7.389   287.1377 4.4763e+02     5.4441      0.372      0.539    14.6214 0.0000e+00
      0.327     -0.235     8.7143     87.048     43.373  34.381944     4.3821      7.394   285.8413 5.1572e+02     5.4391      0.342      0.496    14.6295 0.0000e+00
      0.237     -0.311     8.7548     87.326     43.325  34.343652     4.4107      7.401   284.3105 6.5718e+02     5.4506      0.241      0.349    14.6401 0.0000e+00
      0.126     -0.381     8.7888     87.516     43.280  34.314065     4.4648      7.407   282.5671 8.8743e+02     5.4805      0.114      0.166    14.6420 0.0000e+00
      0.017     -0.431     8.8095     87.621     43.219  34.278008     4.4877      7.408   280.1636 1.1219e+03     5.4937      0.023      0.034    14.6354 0.0000e+00
     -0.103     -0.446     8.8500     87.612     43.124  34.224942     4.4955      7.405   276.8459 1.2218e+03     5.9167     -0.092     -0.134    14.6311 0.0000e+00
     -0.236     -0.421     8.8794     87.447     43.104  34.243490     4.5926      7.402   273.8572 1.2520e+03    10.4588     -0.237     -0.345    14.6293 0.0000e+00
     -0.363     -0.367     8.8960     87.085     43.149  34.311977     4.7553      7.397   271.1296 1.2985e+03    18.7038     -0.356     -0.517    14.6355 0.0000e+00
     -0.473     -0.297     8.9062     86.507     43.181  34.355141     4.8310      7.393   268.0434 1.3222e+03    23.2822     -0.481     -0.696    14.6494 0.0000e+00
     -0.542     -0.217     8.9018     85.751     43.217  34.384722     4.7508      7.392   268.0334 1.2806e+03    25.0628     -0.554     -0.803    14.6710 0.0000e+00
     -0.563     -0.138     8.8784     84.862     43.272  34.415852     3.9179      7.388   271.4381 9.5444e+02    41.0189     -0.555     -0.804    14.7188 0.0000e+00
     -0.564     -0.073     8.8325     83.808     43.377  34.477734     2.4096      7.378   273.1595 3.9697e+02    70.3113     -0.552     -0.802    14.7651 0.0000e+00
     -0.564     -0.028     8.7710     82.693     43.513  34.561877     1.5877      7.368   272.8433 9.8454e+01    86.1807     -0.553     -0.803    14.7838 0.0000e+00
     -0.564     -0.006     8.6885     81.724     43.599  34.608384     1.5962      7.363   272.2615 6.8464e+01    86.2140     -0.553     -0.801    14.7823 0.0000e+00
     -0.564     -0.000     8.6077     81.006     43.606  34.595887     2.5944      7.360   271.7172 6.2314e+01    71.1581     -0.553     -0.802    14.7670 0.0000e+00
     -0.564 -2.212e-08     8.5020     80.635     43.471  34.474202     4.4514      7.353   272.1133 6.0559e+01    43.4776     -0.553     -0.802    14.7396 0.0000e+00
     -0.564 -2.433e-07     8.3820     80.638     41.716  33.073643     5.4723      7.343   272.7488 6.1634e+01    28.4613     -0.553     -0.802    14.7090 0.0000e+00
     -0.565 -2.436e-07     8.2892     80.900     31.884  25.274834     5.4500      7.334   272.3451 6.2584e+01    27.3625     -0.554     -0.803    14.6843 0.0000e+00
     -0.565 -2.551e-08     8.2142     81.242     16.283  12.907087     4.1812      7.328   271.6198 6.2519e+01    30.3968     -0.554     -0.803    14.6635 0.0000e+00
     -0.564 -3.927e-08     8.1776     81.471      8.240   6.531377     1.8592      7.327   271.8946 6.1642e+01    36.2841     -0.553     -0.802    14.6469 0.0000e+00
     -0.564 -4.100e-07     8.1858     81.468      7.895   6.257514     0.6122      7.331   272.3127 6.1530e+01    39.5177     -0.553     -0.802    14.6356 0.0000e+00
     -0.564     -0.000     8.2196     81.270      8.110   6.427932     0.5402      7.337   272.2007 6.2660e+01    39.7757     -0.553     -0.803    14.6295 0.0000e+00
     -0.564      0.000     8.2628     80.965      7.643   6.057554     0.6142      7.345   272.0037 6.4259e+01    38.9939     -0.553     -0.802    14.6267 0.0000e+00
     -0.564     -0.001     8.2926     80.595      6.961   5.517434     1.5488      7.351   269.8448 6.7114e+01    30.2691     -0.553     -0.803    14.6257 0.0000e+00
     -0.564     -0.001     8.2887     80.210      6.506   5.156002     3.3169      7.356   266.6609 7.1672e+01    14.3896     -0.553     -0.802    14.6256 0.0000e+00
     -0.565     -0.001     8.2644     79.904      6.526   5.172051     4.2818      7.363   266.0294 8.0204e+01     5.6996     -0.554     -0.803    14.6261 0.0000e+00
     -0.565     -0.001     8.2330     79.745      6.727   5.331346     4.2419      7.371   266.5117 1.2698e+02     4.7914     -0.554     -0.803    14.6262 0.0000e+00
     -0.565     -0.001     8.1943     79.745      6.618   5.244734     2.9347      7.373   266.2112 5.1169e+02     4.2621     -0.554     -0.803    14.6255 0.0000e+00
     -0.565     -0.001     8.1510     79.846      6.245   4.948455     0.5455      7.369   267.0424 1.1590e+03     3.5018     -0.555     -0.804    14.6237 0.0000e+00
     -0.565     -0.001     8.1176     79.972      5.805   4.599982    -0.7675      7.369   268.2156 1.1618e+03     3.0456     -0.554     -0.804    14.6222 0.0000e+00
     -0.565     -0.001     8.1015     80.091      5.539   4.389100    -0.8885      7.372   267.4046 5.3719e+02     2.8787     -0.555     -0.805    14.6207 0.0000e+00
     -0.565     -0.000     8.1035     80.210      5.346   4.235944    -0.6515      7.372   267.2181 1.8400e+02     2.4403     -0.554     -0.804    14.6189 0.0000e+00
     -0.565 -1.879e-08     8.1184     80.355      5.307   4.205281    -0.1653      7.369   267.6814 1.5629e+02     1.7427     -0.553     -0.803    14.6178 0.0000e+00
     -0.566 -2.067e-07     8.1314     80.510      5.232   4.145066     0.1124      7.367   267.3269 1.9573e+02     1.3438     -0.555     -0.805    14.6167 0.0000e+00
     -0.566 -2.403e-07     8.1442     80.649      4.907   3.887975     0.1266      7.363   268.0078 6.4565e+02     1.1699     -0.555     -0.804    14.6158 0.0000e+00
     -0.565 -4.249e-07     8.1540     80.791      4.582   3.630846    -0.0351      7.358   269.4610 1.4552e+03     0.3573     -0.554     -0.803    14.6151 0.0000e+00
     -0.565     -0.000     8.1698     80.943      4.186   3.316753    -0.3277      7.355   269.7552 1.5121e+03    -1.0338     -0.554     -0.804    14.6143 0.0000e+00
     -0.566     -0.000     8.1885     81.084      3.872   3.067717    -0.4990      7.357   268.8979 1.1366e+03    -1.8149     -0.555     -0.804    14.6137 0.0000e+00
     -0.566     -0.001     8.1997     81.207      3.501   2.773644    -0.5244      7.358   268.5591 1.4138e+03    -1.9138     -0.556     -0.805    14.6132 0.0000e+00
     -0.566     -0.001     8.2149     81.343      2.896   2.295005    -0.5094      7.360   268.5841 1.6494e+03    -1.8879     -0.555     -0.805    14.6126 0.0000e+00
     -0.566     -0.000     8.2311     81.508      2.724   2.158190    -0.3189      7.364   267.9963 1.3758e+03    -1.1944     -0.555     -0.804    14.6123 0.0000e+00
     -0.566     -0.000     8.2465     81.678      3.332   2.639735     0.0319      7.364   267.6468 8.5592e+02     0.1172     -0.555     -0.805    14.6125 0.0000e+00
     -0.566     -0.000     8.2570     81.847      4.089   3.239635     0.2284      7.354   268.1445 3.2718e+02     0.8869     -0.556     -0.806    14.6123 0.0000e+00
     -0.566     -0.000     8.2695     82.036      4.363   3.456915     0.2500      7.336   268.3345 1.0156e+02     1.1101     -0.555     -0.805    14.6120 0.0000e+00
     -0.566      0.000     8.2891     82.235      4.249   3.366405     0.2017      7.320   267.7079 8.0418e+01     1.7916     -0.555     -0.804    14.6118 0.0000e+00
     -0.567      0.000     8.3057     82.330      4.147   3.285568     0.1523      7.314   267.2789 7.9962e+01     2.3621     -0.556     -0.806    14.6114 0.0000e+00
     -0.567 -9.990e-29     8.3226 -9.990e-29 -9.990e-29 -9.990e-29 -9.990e-29 -9.990e-29 -9.990e-29 8.1532e+01 -9.990e-29     -0.556     -0.806    14.6107 0.0000e+00
     -0.567 -9.990e-29     8.3404 -9.990e-29 -9.990e-29 -9.990e-29 -9.990e-29 -9.990e-29 -9.990e-29 8.1467e+01 -9.990e-29     -0.556     -0.806    14.6103 0.0000e+00
     -0.567 -9.990e-29     8.3659 -9.990e-29 -9.990e-29 -9.990e-29 -9.990e-29 -9.990e-29 -9.990e-29 7.9108e+01 -9.990e-29     -0.556     -0.806    14.6099 0.0000e+00
     -0.567 -9.990e-29     8.3822 -9.990e-29 -9.990e-29 -9.990e-29 -9.990e-29 -9.990e-29 -9.990e-29 7.7406e+01 -9.990e-29     -0.556     -0.806    14.6096 0.0000e+00
