* Sea-Bird SBE19plus  Data File:
* FileName = C:\DATA\101518_fcr_0012.hex
* Software version 2.6.3.104
* Temperature SN = 7809
* Conductivity SN = 7809
* System UpLoad Time = Oct 29 2018 16:40:22
* <ApplicationData>
* <Seaterm232>
* <SoftwareVersion>2.6.3.104</SoftwareVersion>
* <BuildDate>30-Jun-2017</BuildDate>
* </Seaterm232>
* </ApplicationData>
* <InstrumentState>
* <HardwareData DeviceType='SBE19plus' SerialNumber='01907809'>
*
*    <Manufacturer>Sea-Bird Electronics, Inc.</Manufacturer>
*
*    <FirmwareVersion>3.1.8</FirmwareVersion>
*
*    <FirmwareDate>Mar  9 2016 16:22:29</FirmwareDate>
*
*    <CommandSetVersion>1.4</CommandSetVersion>
*
*    <PCBAssembly PCBSerialNum='120721' AssemblyNum='41054J'/>
*
*    <PCBAssembly PCBSerialNum='120715' AssemblyNum='41967A'/>
*
*    <PCBAssembly PCBSerialNum='116699' AssemblyNum='41606'/>
*
*    <PCBAssembly PCBSerialNum='120719' AssemblyNum='41059D'/>
*
*    <MfgDate>28-Apr-2017</MfgDate>
*
*    <InternalSensors>
*
*       <Sensor id='Main Temperature'>
*
*          <type>temperature0</type>
*
*          <SerialNumber>01907809</SerialNumber>
*
*       </Sensor>
*
*       <Sensor id='Main Conductivity'>
*
*          <type>conductivity-0</type>
*
*          <SerialNumber>01907809</SerialNumber>
*
*       </Sensor>
*
*       <Sensor id='Main Pressure'>
*
*          <type>strain-0</type>
*
*          <SerialNumber>10586018</SerialNumber>
*
*       </Sensor>
*
*    </InternalSensors>
*
*    <ExternalSensors>
*
*       <Sensor id='volt 0'>
*
*          <type>pH</type>
*
*          <SerialNumber>27-0363</SerialNumber>
*
*       </Sensor>
*
*       <Sensor id='volt 1'>
*
*          <type>ORP</type>
*
*          <SerialNumber>27-0363</SerialNumber>
*
*       </Sensor>
*
*       <Sensor id='volt 2'>
*
*          <type>OXY</type>
*
*          <SerialNumber>43-0434</SerialNumber>
*
*       </Sensor>
*
*       <Sensor id='volt 3'>
*
*          <type>PAR</type>
*
*          <SerialNumber>1122</SerialNumber>
*
*       </Sensor>
*
*       <Sensor id='volt 4'>
*
*          <type>ECO AFL/FL</type>
*
*          <SerialNumber>FLNTURT-2496</SerialNumber>
*
*       </Sensor>
*
*       <Sensor id='volt 5'>
*
*          <type>ECO-NTU</type>
*
*          <SerialNumber>FLNTURT-2496</SerialNumber>
*
*       </Sensor>
*
*       <Sensor id='serial'>
*
*          <type>not assigned</type>
*
*          <SerialNumber>not assigned</SerialNumber>
*
*       </Sensor>
*
*    </ExternalSensors>
*
* </HardwareData>
* <StatusData DeviceType='SBE19plus' SerialNumber='01907809'>
*
*    <DateTime>2018-10-29T20:36:07</DateTime>
*
*    <LoggingState>not logging</LoggingState>
*
*    <EventSummary numEvents='0'/>
*
*    <Power>
*
*       <vMain>12.7</vMain>
*
*       <vLith>8.4</vLith>
*
*       <iMain>63.3</iMain>
*
*       <iPump>138.1</iPump>
*
*       <iExt01>14.7</iExt01>
*
*       <iExt2345>45.2</iExt2345>
*
*    </Power>
*
*    <MemorySummary>
*
*       <Bytes>262706</Bytes>
*
*       <Samples>11422</Samples>
*
*       <SamplesFree>2849366</SamplesFree>
*
*       <SampleLength>23</SampleLength>
*
*       <Profiles>17</Profiles>
*
*    </MemorySummary>
*
* </StatusData>
* <ConfigurationData DeviceType='SBE19plus' SerialNumber='01907809'>
*
*    <ProfileMode>
*
*       <ScansToAverage>1</ScansToAverage>
*
*       <MinimumCondFreq>5</MinimumCondFreq>
*
*       <PumpDelay>45</PumpDelay>
*
*       <AutoRun>no</AutoRun>
*
*       <IgnoreSwitch>no</IgnoreSwitch>
*
*    </ProfileMode>
*
*    <Battery>
*
*       <Type>alkaline</Type>
*
*       <CutOff>7.5</CutOff>
*
*    </Battery>
*
*    <DataChannels>
*
*       <ExtVolt0>yes</ExtVolt0>
*
*       <ExtVolt1>yes</ExtVolt1>
*
*       <ExtVolt2>yes</ExtVolt2>
*
*       <ExtVolt3>yes</ExtVolt3>
*
*       <ExtVolt4>yes</ExtVolt4>
*
*       <ExtVolt5>yes</ExtVolt5>
*
*       <SBE38>no</SBE38>
*
*       <WETLABS>no</WETLABS>
*
*       <OPTODE>no</OPTODE>
*
*       <SBE63>no</SBE63>
*
*       <SeaFET>no</SeaFET>
*
*       <GTD>no</GTD>
*
*    </DataChannels>
*
*    <EchoCharacters>yes</EchoCharacters>
*
*    <OutputExecutedTag>yes</OutputExecutedTag>
*
*    <OutputFormat>raw HEX</OutputFormat>
*
* </ConfigurationData>
* <CalibrationCoefficients DeviceType='SBE19plus' SerialNumber='01907809'>
*
*    <Calibration format='TEMP1' id='Main Temperature'>
*
*       <SerialNum>01907809</SerialNum>
*
*       <CalDate>09-Mar-18</CalDate>
*
*       <TA0>1.210932e-03</TA0>
*
*       <TA1>2.843566e-04</TA1>
*
*       <TA2>-1.945074e-06</TA2>
*
*       <TA3>2.128067e-07</TA3>
*
*       <TOFFSET>0.000000e+00</TOFFSET>
*
*    </Calibration>
*
*    <Calibration format='WBCOND0' id='Main Conductivity'>
*
*       <SerialNum>01907809</SerialNum>
*
*       <CalDate>09-Mar-18</CalDate>
*
*       <G>-1.006721e+00</G>
*
*       <H>1.269065e-01</H>
*
*       <I>-1.405844e-04</I>
*
*       <J>2.478371e-05</J>
*
*       <CPCOR>-9.570000e-08</CPCOR>
*
*       <CTCOR>3.250000e-06</CTCOR>
*
*       <CSLOPE>1.000000e+00</CSLOPE>
*
*    </Calibration>
*
*    <Calibration format='STRAIN0' id='Main Pressure'>
*
*       <SerialNum>10586018</SerialNum>
*
*       <CalDate>07-Mar-18</CalDate>
*
*       <PA0>-4.081764e-02</PA0>
*
*       <PA1>4.851884e-04</PA1>
*
*       <PA2>-3.511682e-12</PA2>
*
*       <PTCA0>5.252134e+05</PTCA0>
*
*       <PTCA1>1.795324e+00</PTCA1>
*
*       <PTCA2>-2.843535e-01</PTCA2>
*
*       <PTCB0>2.516687e+01</PTCB0>
*
*       <PTCB1>3.750000e-04</PTCB1>
*
*       <PTCB2>0.000000e+00</PTCB2>
*
*       <PTEMPA0>-5.378069e+01</PTEMPA0>
*
*       <PTEMPA1>5.366207e+01</PTEMPA1>
*
*       <PTEMPA2>4.872143e-02</PTEMPA2>
*
*       <POFFSET>5.000000e-01</POFFSET>
*
*       <PRANGE>1.600000e+02</PRANGE>
*
*    </Calibration>
*
*    <Calibration format='VOLT0' id='Volt 0'>
*
*       <OFFSET>-4.920000e-02</OFFSET>
*
*       <SLOPE>1.248122e+00</SLOPE>
*
*    </Calibration>
*
*    <Calibration format='VOLT0' id='Volt 1'>
*
*       <OFFSET>-4.784000e-02</OFFSET>
*
*       <SLOPE>1.248871e+00</SLOPE>
*
*    </Calibration>
*
*    <Calibration format='VOLT0' id='Volt 2'>
*
*       <OFFSET>-4.864632e-02</OFFSET>
*
*       <SLOPE>1.248714e+00</SLOPE>
*
*    </Calibration>
*
*    <Calibration format='VOLT0' id='Volt 3'>
*
*       <OFFSET>-4.743790e-02</OFFSET>
*
*       <SLOPE>1.248571e+00</SLOPE>
*
*    </Calibration>
*
*    <Calibration format='VOLT0' id='Volt 4'>
*
*       <OFFSET>-4.671263e-02</OFFSET>
*
*       <SLOPE>1.248951e+00</SLOPE>
*
*    </Calibration>
*
*    <Calibration format='VOLT0' id='Volt 5'>
*
*       <OFFSET>-4.871053e-02</OFFSET>
*
*       <SLOPE>1.249136e+00</SLOPE>
*
*    </Calibration>
*
*    <Calibration format='FREQ0' id='external frequency channel'>
*
*       <EXTFREQSF>1.000014e+00</EXTFREQSF>
*
*    </Calibration>
*
* </CalibrationCoefficients>
* <EventCounters DeviceType='SBE19plus' SerialNumber='01907809'>
*
*    <EventSummary numEvents='0'/>
*
* </EventCounters></InstrumentState>
* <Headers>
*
* cast  12 22 Oct 2018 15:47:38 samples 7796 to 8664, avg = 1, stop = mag switch
*
# nquan = 17
# nvalues = 636                         
# units = specified
# name 0 = depFM: Depth [fresh water, m]
# name 1 = tv290C: Temperature [ITS-90, deg C]
# name 2 = sbeox0Mg/L: Oxygen, SBE 43 [mg/l]
# name 3 = sbeox0PS: Oxygen, SBE 43 [% saturation]
# name 4 = c0uS/cm: Conductivity [uS/cm]
# name 5 = specc: Specific Conductance [uS/cm]
# name 6 = ph: pH
# name 7 = orp: Oxidation Reduction Potential [mV]
# name 8 = flECO-AFL: Fluorescence, WET Labs ECO-AFL/FL [mg/m^3]
# name 9 = turbWETntu0: Turbidity, WET Labs ECO [NTU]
# name 10 = sal00: Salinity, Practical [PSU]
# name 11 = dz/dtM: Descent Rate [m/s]
# name 12 = prdM: Pressure, Strain Gauge [db]
# name 13 = prdE: Pressure, Strain Gauge [psi]
# name 14 = scan: Scan Count
# name 15 = par/sat/log: PAR/Logarithmic, Satlantic
# name 16 = flag:  0.000e+00
# span 0 =     -0.514,      9.759       
# span 1 =    12.6999,    14.5465       
# span 2 =    -0.1066,    10.5691       
# span 3 =     -1.030,    103.543       
# span 4 =   0.143645, 319.654887       
# span 5 =      0.192,    424.339       
# span 6 =      6.268,     12.428       
# span 7 = -1240.7455,   285.0532       
# span 8 =    -0.4205,   257.8145       
# span 9 =    -2.4533,   854.7192       
# span 10 =     0.0068,     0.2023      
# span 11 =     -0.229,      0.182      
# span 12 =     -0.504,      9.569      
# span 13 =     -0.731,     13.879      
# span 14 =          1,        636      
# span 15 = 1.2551e-01, 1.9757e+03      
# span 16 = 0.0000e+00, 0.0000e+00      
# interval = seconds: 0.25
# start_time = Oct 22 2018 15:47:38 [Instrument's time stamp, header]
# bad_flag = -9.990e-29
# <Sensors count="9" >
#   <sensor Channel="1" >
#     <!-- Count, Temperature -->
#     <TemperatureSensor SensorID="58" >
#       <SerialNumber>7809</SerialNumber>
#       <CalibrationDate>09-Mar-18</CalibrationDate>
#       <A0>1.21093245e-003</A0>
#       <A1>2.84356597e-004</A1>
#       <A2>-1.94507398e-006</A2>
#       <A3>2.12806664e-007</A3>
#       <Slope>1.00000000</Slope>
#       <Offset>0.0000</Offset>
#     </TemperatureSensor>
#   </sensor>
#   <sensor Channel="2" >
#     <!-- Frequency 0, Conductivity -->
#     <ConductivitySensor SensorID="3" >
#       <SerialNumber>7809</SerialNumber>
#       <CalibrationDate>09-Mar-18</CalibrationDate>
#       <UseG_J>1</UseG_J>
#       <!-- Cell const and series R are applicable only for wide range sensors. -->
#       <SeriesR>0.0000</SeriesR>
#       <CellConst>2000.0000</CellConst>
#       <ConductivityType>0</ConductivityType>
#       <Coefficients equation="0" >
#         <A>0.00000000e+000</A>
#         <B>0.00000000e+000</B>
#         <C>0.00000000e+000</C>
#         <D>0.00000000e+000</D>
#         <M>0.0</M>
#         <CPcor>-9.57000000e-008</CPcor>
#       </Coefficients>
#       <Coefficients equation="1" >
#         <G>-1.00672082e+000</G>
#         <H>1.26906489e-001</H>
#         <I>-1.40584351e-004</I>
#         <J>2.47837121e-005</J>
#         <CPcor>-9.57000000e-008</CPcor>
#         <CTcor>3.2500e-006</CTcor>
#         <!-- WBOTC not applicable unless ConductivityType = 1. -->
#         <WBOTC>0.00000000e+000</WBOTC>
#       </Coefficients>
#       <Slope>1.00000000</Slope>
#       <Offset>0.00000</Offset>
#     </ConductivitySensor>
#   </sensor>
#   <sensor Channel="3" >
#     <!-- Count, Pressure, Strain Gauge -->
#     <PressureSensor SensorID="46" >
#       <SerialNumber>7809</SerialNumber>
#       <CalibrationDate>07-Mar-18</CalibrationDate>
#       <PA0>-4.08176359e-002</PA0>
#       <PA1>4.85188419e-004</PA1>
#       <PA2>-3.51168169e-012</PA2>
#       <PTEMPA0>-5.37806900e+001</PTEMPA0>
#       <PTEMPA1>5.36620721e+001</PTEMPA1>
#       <PTEMPA2>4.87214332e-002</PTEMPA2>
#       <PTCA0>5.25213435e+005</PTCA0>
#       <PTCA1>1.79532409e+000</PTCA1>
#       <PTCA2>-2.84353509e-001</PTCA2>
#       <PTCB0>2.51668750e+001</PTCB0>
#       <PTCB1>3.75000000e-004</PTCB1>
#       <PTCB2>0.00000000e+000</PTCB2>
#       <Offset>0.000000</Offset>
#     </PressureSensor>
#   </sensor>
#   <sensor Channel="4" >
#     <!-- A/D voltage 0, pH -->
#     <pH_Sensor SensorID="43" >
#       <SerialNumber>0363</SerialNumber>
#       <CalibrationDate>16-Mar-18</CalibrationDate>
#       <Slope>4.6194</Slope>
#       <Offset>2.5947</Offset>
#     </pH_Sensor>
#   </sensor>
#   <sensor Channel="5" >
#     <!-- A/D voltage 1, Oxidation Reduction Potential -->
#     <OxidationReductionPotentialSensor SensorID="41" >
#       <SerialNumber>0363</SerialNumber>
#       <CalibrationDate>16-Mar-18</CalibrationDate>
#       <B>2.499480</B>
#       <M>-0.496195</M>
#       <Offset>0.0</Offset>
#     </OxidationReductionPotentialSensor>
#   </sensor>
#   <sensor Channel="6" >
#     <!-- A/D voltage 2, Oxygen, SBE 43 -->
#     <OxygenSensor SensorID="38" >
#       <SerialNumber>0434</SerialNumber>
#       <CalibrationDate>13-Mar-18</CalibrationDate>
#       <Use2007Equation>1</Use2007Equation>
#       <CalibrationCoefficients equation="0" >
#         <!-- Coefficients for Owens-Millard equation. -->
#         <Boc>0.0000</Boc>
#         <Soc>0.0000e+000</Soc>
#         <offset>0.0000</offset>
#         <Pcor>0.00e+000</Pcor>
#         <Tcor>0.0000</Tcor>
#         <Tau>0.0</Tau>
#       </CalibrationCoefficients>
#       <CalibrationCoefficients equation="1" >
#         <!-- Coefficients for Sea-Bird equation - SBE calibration in 2007 and later. -->
#         <Soc>4.5718e-001</Soc>
#         <offset>-0.6113</offset>
#         <A>-4.0649e-003</A>
#         <B> 2.0945e-004</B>
#         <C>-3.3182e-006</C>
#         <D0> 2.5826e+000</D0>
#         <D1> 1.92634e-004</D1>
#         <D2>-4.64803e-002</D2>
#         <E> 3.6000e-002</E>
#         <Tau20> 1.2200</Tau20>
#         <H1>-3.3000e-002</H1>
#         <H2> 5.0000e+003</H2>
#         <H3> 1.4500e+003</H3>
#       </CalibrationCoefficients>
#     </OxygenSensor>
#   </sensor>
#   <sensor Channel="7" >
#     <!-- A/D voltage 3, PAR/Logarithmic, Satlantic -->
#     <PARLog_SatlanticSensor SensorID="76" >
#       <SerialNumber>1122</SerialNumber>
#       <CalibrationDate>22-Jun-2017</CalibrationDate>
#       <a0>9.6090e-001</a0>
#       <a1>8.0780e-001</a1>
#       <Im>1.3589e+000</Im>
#       <Multiplier>1.0000e+000</Multiplier>
#     </PARLog_SatlanticSensor>
#   </sensor>
#   <sensor Channel="8" >
#     <!-- A/D voltage 4, Fluorometer, WET Labs ECO-AFL/FL -->
#     <FluoroWetlabECO_AFL_FL_Sensor SensorID="20" >
#       <SerialNumber>FLNTURT-2496</SerialNumber>
#       <CalibrationDate>25-Jan-2017</CalibrationDate>
#       <ScaleFactor>5.30000000e+001</ScaleFactor>
#       <!-- Dark output -->
#       <Vblank>0.0560</Vblank>
#     </FluoroWetlabECO_AFL_FL_Sensor>
#   </sensor>
#   <sensor Channel="9" >
#     <!-- A/D voltage 5, Turbidity Meter, WET Labs, ECO-NTU -->
#     <TurbidityMeter SensorID="67" >
#       <SerialNumber>FLNTURT-2496</SerialNumber>
#       <CalibrationDate>25-Jan-2017</CalibrationDate>
#       <ScaleFactor>176.000000</ScaleFactor>
#       <!-- Dark output -->
#       <DarkVoltage>0.072000</DarkVoltage>
#     </TurbidityMeter>
#   </sensor>
# </Sensors>
# datcnv_date = Oct 29 2018 16:48:38, 7.26.7.114 [datcnv_vars = 16]
# datcnv_in = C:\DATA\102218_fcr50.hex C:\DATA\SBE19plusV2_7809.xmlcon
# datcnv_skipover = 0
# datcnv_ox_hysteresis_correction = yes
# datcnv_ox_tau_correction = yes
# filter_date = Oct 29 2018 16:49:04, 7.26.7.114
# filter_in = C:\DATA\102218_fcr50.cnv
# filter_low_pass_tc_A = 0.030
# filter_low_pass_tc_B = 0.150
# filter_low_pass_A_vars = tv290C c0uS/cm par/sat/log
# filter_low_pass_B_vars = prdM prdE
# alignctd_date = Oct 29 2018 16:49:26, 7.26.7.114
# alignctd_in = C:\DATA\102218_fcr50.cnv
# alignctd_adv = tv290C 0.500, sbeox0Mg/L 3.000, sbeox0PS 3.000                                                                                                                                                                      
# file_type = ascii
*END*
     -0.514    13.1936    10.2952     98.150   0.233225      0.300      8.469  -829.8051   257.7821     0.2188     0.0069 2.1053e-16     -0.504     -0.730          1 1.4571e+02 0.0000e+00
     -0.514    13.1677    10.2907     98.129   0.314890      0.411      9.232  -647.6738   257.8145     0.1114     0.0069      0.000     -0.504     -0.730          2 1.4694e+02 0.0000e+00
     -0.514    13.1530    10.2893     98.137   0.245635      0.338     10.893  -839.8372   257.7983     0.1785     0.0068     -0.000     -0.504     -0.730          3 1.4786e+02 0.0000e+00
     -0.513    13.1512    10.2893     98.158   0.171377      0.192     11.537  -785.2471     0.4610    -0.7346     0.0068     -0.000     -0.504     -0.730          4 1.4947e+02 0.0000e+00
     -0.514    13.1501    10.2830     98.117   0.229663      0.339     11.834  -794.3328     0.4448    -0.6137     0.0068     -0.000     -0.504     -0.730          5 1.5078e+02 0.0000e+00
     -0.513    13.1545    10.2801     98.105   0.173100      0.192     12.072  -756.9298     0.4287    -0.7614     0.0068      0.000     -0.504     -0.730          6 1.5361e+02 0.0000e+00
     -0.514    13.1617    10.2823     98.138   0.182556      0.266     12.176  -768.1356     0.4529    -0.7480     0.0068      0.000     -0.504     -0.730          7 1.6538e+02 0.0000e+00
     -0.514    13.1714    10.2735     98.126   0.217894      0.265     12.276  -827.6850     0.4448    -0.6943     0.0068      0.000     -0.504     -0.730          8 1.6866e+02 0.0000e+00
     -0.514    13.1808    10.2349     98.174   0.188334      0.265     12.369  -848.0901    -0.1253     2.0316     0.0068      0.000     -0.504     -0.730          9 1.6223e+02 0.0000e+00
     -0.514    13.1915    10.1847     98.163   0.160130      0.192     12.428  -861.6051    -0.1577     2.1256     0.0069      0.000     -0.504     -0.730         10 1.6305e+02 0.0000e+00
     -0.514    13.2015    10.1362     98.148   0.193781      0.265     12.366  -866.1480    -0.1496     2.1659     0.0068     -0.000     -0.504     -0.731         11 1.6455e+02 0.0000e+00
     -0.514    13.2121    10.0981     98.128   0.205668      0.265     12.363  -871.4102    -0.1334     2.1793     0.0068     -0.000     -0.504     -0.731         12 1.6690e+02 0.0000e+00
     -0.513    13.2211    10.0738     98.149   0.204549      0.265     12.361  -865.3152     6.1019     1.9107     0.0068     -0.000     -0.504     -0.731         13 1.7235e+02 0.0000e+00
     -0.514    13.2319    10.0592     98.144   0.254388      0.338     12.317  -874.4388     6.1342     1.8033     0.0068     -0.000     -0.504     -0.731         14 1.7703e+02 0.0000e+00
     -0.514    13.2380    10.0490     98.167   0.143645      0.192     12.311  -872.7352     6.1221     1.8705     0.0069     -0.000     -0.504     -0.731         15 1.8116e+02 0.0000e+00
     -0.514    13.2493    10.0285     98.078   0.164727      0.192     12.236  -534.2156     6.1261     1.8570     0.0069     -0.000     -0.504     -0.731         16 1.7847e+02 0.0000e+00
     -0.513    13.2488    10.0213     98.112   0.168938      0.265     12.156  -547.9578    -0.4084    11.7266     0.0069     -0.000     -0.504     -0.731         17 1.7379e+02 0.0000e+00
     -0.514    13.2933    10.0114     98.100   0.256830      0.265     12.114  -542.0521    -0.3841    11.8474     0.0069     -0.000     -0.501     -0.726         18 1.7390e+02 0.0000e+00
     -0.502    13.4727    10.0103     98.158   0.173776      0.338     12.089  -561.2457    -0.4205    11.7266     0.0069      0.003     -0.492     -0.713         19 1.7400e+02 0.0000e+00
     -0.491    13.6974    10.0075     98.155   0.775619      0.811     12.033  -539.7428    -0.4124    11.7400     0.0069      0.009     -0.482     -0.698         20 1.7208e+02 0.0000e+00
     -0.482    13.8998    10.0068     98.171   0.159202      0.590     12.009  -595.8472     0.0041    -0.0229     0.0070      0.014     -0.471     -0.683         21 1.7215e+02 0.0000e+00
     -0.468    14.0659     9.9997     98.145   0.852073      0.442     12.023  -537.6606     0.0081    -0.0229     0.0071      0.022     -0.458     -0.663         22 1.7552e+02 0.0000e+00
     -0.450    14.1786     9.9987     98.145   6.072603      8.401     12.020  -589.9794    -0.0121    -0.0363     0.0094      0.031     -0.439     -0.637         23 1.7713e+02 0.0000e+00
     -0.426    14.2474    10.0025     98.176  15.548443     19.049     10.146 -1240.7455    -0.0404    -0.0229     0.0135      0.043     -0.417     -0.605         24 1.7647e+02 0.0000e+00
     -0.402    14.3018     9.9984     98.154  27.010377     35.422      8.731 -1240.7455    -0.0404    -0.1169     0.0203      0.055     -0.395     -0.573         25 1.7242e+02 0.0000e+00
     -0.381    14.3560     9.9998     98.200  30.393040     38.247      8.168 -1240.7455     0.5702   854.6655     0.0216      0.065     -0.374     -0.542         26 1.8530e+02 0.0000e+00
     -0.359    14.4025    10.0083     98.290  29.597344     37.942      7.972 -1240.7455     0.5823   854.5983     0.0215      0.072     -0.354     -0.514         27 2.0786e+02 0.0000e+00
     -0.343    14.4436    10.0275     98.459  29.987040     37.892      7.902 -1240.7455     0.5864   854.5715     0.0214      0.077     -0.341     -0.495         28 1.9267e+02 0.0000e+00
     -0.343    14.4744    10.0532     98.687  29.908050     38.094      7.862 -1240.7455     0.5742   854.7192     0.0216      0.076     -0.339     -0.492         29 1.7537e+02 0.0000e+00
     -0.352    14.4874    10.0831     98.965  30.021780     37.949      7.801 -1240.7455     2.0057    -2.4533     0.0215      0.065     -0.344     -0.500         30 1.8278e+02 0.0000e+00
     -0.358    14.4981    10.1165     99.267  29.815836     37.848      7.762 -1240.7455     2.0421    -2.4533     0.0215      0.048     -0.349     -0.506         31 1.8797e+02 0.0000e+00
     -0.358    14.5175    10.1565     99.628  29.600978     37.412      7.758 -1240.7455     2.0178    -2.4533     0.0213      0.031     -0.347     -0.503         32 1.9204e+02 0.0000e+00
     -0.344    14.5227    10.2042    100.070  29.429308     37.296      7.754 -1240.7455     2.0016    -2.4131     0.0213      0.019     -0.333     -0.483         33 2.3497e+02 0.0000e+00
     -0.318    14.5199    10.2497    100.504  29.644020     37.453      7.733   223.2323     1.9652     1.0648     0.0213      0.017     -0.306     -0.445         34 3.5503e+02 0.0000e+00
     -0.276    14.5286    10.3218    101.190  29.986070     37.979      7.697   220.2415     1.9612     1.1588     0.0216      0.026     -0.266     -0.386         35 5.2681e+02 0.0000e+00
     -0.220    14.5429    10.3493    101.434  30.100688     38.053      7.666   218.4623     1.9774     0.9842     0.0216      0.051     -0.216     -0.313         36 7.6383e+02 0.0000e+00
     -0.165    14.5465    10.4389    102.295  30.124038     38.115      7.630   218.7273     2.0016     1.0648     0.0216      0.086     -0.162     -0.236         37 1.0557e+03 0.0000e+00
     -0.111    14.5372    10.5184    103.057  30.194215     38.171      7.598   220.0901     1.3142     4.7575     0.0216      0.123     -0.112     -0.163         38 1.2592e+03 0.0000e+00
     -0.067    14.5263    10.5691    103.543  30.191255     38.168      7.563   220.6580     1.3668     4.8246     0.0216      0.154     -0.070     -0.101         39 1.5263e+03 0.0000e+00
     -0.034    14.5181    10.4715    102.580  30.187024     38.177      7.539   221.7180     1.3223     4.7709     0.0216      0.173     -0.035     -0.050         40 1.6993e+03 0.0000e+00
     -0.005    14.5069    10.2255    100.166  30.140182     38.117      7.517   223.3080     1.3304     4.6769     0.0216      0.179      0.003      0.004         41 1.1304e+03 0.0000e+00
      0.051    14.4918     9.8461     96.444  30.190251     38.195      7.487   224.7844     1.5407     5.0126     0.0216      0.181      0.053      0.077         42 2.5024e+02 0.0000e+00
      0.118    14.4806     9.3260     91.349  30.124717     38.136      7.460   224.9358     1.5124     4.9857     0.0216      0.182      0.105      0.153         43 2.1087e+02 0.0000e+00
      0.149    14.4747     8.7997     86.196  29.954887     37.903      7.438   225.6551     1.5245     5.0126     0.0215      0.177      0.139      0.203         44 7.5299e+02 0.0000e+00
      0.161    14.4648     8.2650     80.962  30.016150     38.020      7.421   225.9958     1.5568     5.0932     0.0216      0.166      0.159      0.231         45 7.5102e+02 0.0000e+00
      0.182    14.4533     7.7747     76.161  30.137434     38.167      7.408   227.0180     1.5124     4.9589     0.0216      0.153      0.174      0.253         46 3.5195e+02 0.0000e+00
      0.190    14.4457     7.3702     72.205  30.130112     38.176      7.398   226.9801     1.6458     4.7172     0.0216      0.138      0.184      0.267         47 3.4038e+02 0.0000e+00
      0.192    14.4385     7.0620     69.193  30.143867     38.188      7.387   227.3966     1.6539     4.9186     0.0216      0.117      0.189      0.274         48 3.7895e+02 0.0000e+00
      0.199    14.4333     6.8187     66.816  30.179622     38.266      7.379   227.5101     1.6701     4.7977     0.0216      0.092      0.193      0.280         49 3.0730e+02 0.0000e+00
      0.198    14.4308     6.6572     65.237  30.144920     38.202      7.369   228.1159     1.6701     4.8649     0.0216      0.062      0.195      0.283         50 3.9209e+02 0.0000e+00
      0.200    14.4285     6.5396     64.082  30.127753     38.207      7.360   228.4944     1.5083     4.8112     0.0216      0.037      0.195      0.283         51 2.5246e+02 0.0000e+00
      0.199    14.4263     6.4489     63.195  30.141687     38.209      7.352   229.2516     1.5124     4.8783     0.0216      0.024      0.195      0.282         52 2.2887e+02 0.0000e+00
      0.196    14.4256     6.3816     62.539  30.186883     38.282      7.345   229.4030     1.5204     4.7843     0.0216      0.014      0.193      0.279         53 2.8662e+02 0.0000e+00
      0.194    14.4272     6.3386     62.128  30.249413     38.355      7.336   229.9330     1.5407     4.7306     0.0217      0.006      0.193      0.278         54 3.3835e+02 0.0000e+00
      0.199    14.4289     6.3066     61.821  30.241775     38.356      7.328   232.2423     1.6054     4.8112     0.0217      0.003      0.196      0.283         55 2.5301e+02 0.0000e+00
      0.205    14.4306     6.2805     61.569  30.196389     38.284      7.319   232.1666     1.5932     4.7038     0.0216      0.003      0.199      0.288         56 3.0142e+02 0.0000e+00
      0.203    14.4343     6.2868     61.630  30.187292     38.282      7.312   232.5073     1.5811     4.8112     0.0216      0.002      0.198      0.287         57 6.4946e+02 0.0000e+00
      0.198    14.4391     6.2718     61.482  30.193795     38.280      7.305   232.0151     1.5730     4.8246     0.0216      0.001      0.194      0.282         58 4.6147e+02 0.0000e+00
      0.193    14.4438     6.2688     61.450  30.128994     38.206      7.300   232.1666     1.6377     4.7977     0.0216     -0.000      0.192      0.279         59 2.8208e+02 0.0000e+00
      0.197    14.4456     6.2765     61.525  30.149330     38.201      7.292   232.5830     1.6498     4.7038     0.0216     -0.000      0.195      0.282         60 5.0673e+02 0.0000e+00
      0.205    14.4451     6.2860     61.620  30.168484     38.267      7.282   233.4916     1.6458     4.7709     0.0216      0.002      0.200      0.290         61 7.2403e+02 0.0000e+00
      0.209    14.4455     6.2820     61.582  30.105156     38.124      7.273   234.1352     1.6418     4.9052     0.0216      0.003      0.204      0.296         62 6.4802e+02 0.0000e+00
      0.212    14.4488     6.2975     61.735  30.168839     38.266      7.264   235.0816     1.5164     4.8112     0.0216      0.004      0.208      0.301         63 3.9893e+02 0.0000e+00
      0.214    14.4553     6.2955     61.719  30.207833     38.266      7.261   235.2709     1.5002     4.7038     0.0216      0.006      0.209      0.303         64 3.0484e+02 0.0000e+00
      0.213    14.4606     6.2800     61.570  30.234533     38.334      7.255   235.4223     1.5245     4.8380     0.0217      0.009      0.208      0.302         65 4.5860e+02 0.0000e+00
      0.209    14.4630     6.2647     61.422  30.194912     38.256      7.249   235.8387     1.5245     4.7709     0.0216      0.010      0.206      0.299         66 5.6360e+02 0.0000e+00
      0.208    14.4636     6.2329     61.108  30.197837     38.251      7.241   236.4444     1.5124     4.8112     0.0216      0.008      0.207      0.300         67 6.8308e+02 0.0000e+00
      0.217    14.4621     6.1885     60.675  30.290193     38.390      7.237   236.5580     1.6458     4.8246     0.0217      0.006      0.213      0.310         68 5.3000e+02 0.0000e+00
      0.228    14.4603     6.1456     60.258  30.257880     38.319      7.229   237.1259     1.6620     4.7306     0.0217      0.007      0.221      0.320         69 2.5267e+02 0.0000e+00
      0.231    14.4600     6.1166     59.977  30.238050     38.321      7.224   237.2016     1.6458     4.8380     0.0217      0.009      0.224      0.325         70 2.7490e+02 0.0000e+00
      0.228    14.4611     6.0911     59.729  30.196269     38.252      7.218   237.4666     1.6539     4.7709     0.0216      0.010      0.222      0.322         71 3.1074e+02 0.0000e+00
      0.221    14.4623     6.0748     59.569  30.191273     38.252      7.213   237.3530     1.6418     4.7977     0.0216      0.009      0.217      0.315         72 6.3879e+02 0.0000e+00
      0.216    14.4636     6.0668     59.488  30.244268     38.322      7.205   238.1102     1.6498     4.7709     0.0217      0.006      0.214      0.310         73 7.0410e+02 0.0000e+00
      0.217    14.4656     6.0457     59.277  30.248920     38.320      7.201   236.9744     1.6862     4.7440     0.0217      0.004      0.215      0.311         74 4.1241e+02 0.0000e+00
      0.222    14.4680     6.0380     59.198  30.244784     38.319      7.195   237.9587     1.6539     4.7843     0.0217      0.002      0.220      0.319         75 2.6053e+02 0.0000e+00
      0.233    14.4689     6.0375     59.191  30.249414     38.317      7.188   238.9430     1.5164     4.5963     0.0217      0.001      0.228      0.331         76 3.2452e+02 0.0000e+00
      0.242    14.4681     6.0261     59.081  30.243156     38.315      7.185   238.8295     1.5447     4.6098     0.0217      0.003      0.235      0.341         77 5.5177e+02 0.0000e+00
      0.242    14.4696     6.0242     59.064  30.193269     38.243      7.177   239.7380     1.5083     4.5158     0.0216      0.008      0.237      0.344         78 2.8626e+02 0.0000e+00
      0.242    14.4724     6.0270     59.093  30.192894     38.244      7.175   239.8895     1.5002     4.6232     0.0216      0.012      0.236      0.343         79 2.6058e+02 0.0000e+00
      0.239    14.4747     6.0297     59.117  30.243623     38.313      7.166   239.3973     1.6741     4.8112     0.0217      0.014      0.234      0.339         80 4.4318e+02 0.0000e+00
      0.234    14.4763     6.0248     59.067  30.248742     38.311      7.163   239.3216     1.6701     4.8515     0.0217      0.012      0.231      0.336         81 3.1098e+02 0.0000e+00
      0.235    14.4763     6.0153     58.967  30.245825     38.308      7.158   239.6245     1.6620     4.7575     0.0217      0.008      0.233      0.337         82 2.8962e+02 0.0000e+00
      0.242    14.4745     5.9979     58.791  30.247253     38.307      7.155   239.9652     1.6094     4.8649     0.0217      0.004      0.239      0.346         83 3.6194e+02 0.0000e+00
      0.253    14.4712     5.9634     58.453  30.246963     38.307      7.150   240.5330     1.7267     4.7843     0.0217      0.004      0.246      0.357         84 5.2909e+02 0.0000e+00
      0.257    14.4682     5.9215     58.042  30.246185     38.308      7.145   241.1009     1.7226     4.7440     0.0217      0.006      0.250      0.363         85 5.4979e+02 0.0000e+00
      0.257    14.4670     5.8784     57.617  30.248224     38.312      7.137   240.5709     1.7105     4.7575     0.0217      0.009      0.249      0.361         86 5.0833e+02 0.0000e+00
      0.246    14.4677     5.8494     57.329  30.244427     38.315      7.136   240.5330     1.7226     4.7843     0.0217      0.009      0.242      0.351         87 2.7199e+02 0.0000e+00
      0.237    14.4694     5.8275     57.111  30.250910     38.316      7.131   240.6087     1.7145     4.7843     0.0217      0.006      0.235      0.341         88 1.8223e+02 0.0000e+00
      0.236    14.4702     5.8211     57.047  30.240156     38.315      7.123   241.1387     1.7105     4.8380     0.0217      0.002      0.233      0.339         89 2.0643e+02 0.0000e+00
      0.241    14.4693     5.8206     57.042  30.198508     38.243      7.118   242.0095     1.7509     4.8515     0.0216     -0.002      0.237      0.344         90 2.4931e+02 0.0000e+00
      0.249    14.4666     5.8172     57.008  30.243438     38.313      7.112   242.8045     1.7145     4.8380     0.0217     -0.004      0.244      0.354         91 2.5720e+02 0.0000e+00
      0.258    14.4614     5.8129     56.967  30.302846     38.384      7.100   243.2966     1.7145     4.8917     0.0217     -0.003      0.251      0.364         92 4.0056e+02 0.0000e+00
      0.262    14.4578     5.8078     56.916  30.183878     38.245      7.088   243.6373     1.7873     4.7575     0.0216      0.002      0.253      0.367         93 3.8351e+02 0.0000e+00
      0.254    14.4579     5.8101     56.936  30.094984     38.109      7.079   243.7888     1.7792     4.8246     0.0216      0.006      0.250      0.362         94 4.8936e+02 0.0000e+00
      0.248    14.4578     5.7999     56.829  30.176268     38.254      7.069   244.0159     1.7792     4.7038     0.0216      0.008      0.247      0.358         95 9.8480e+02 0.0000e+00
      0.253    14.4556     5.7940     56.766  30.260626     38.325      7.063   243.7130     1.7711     4.8112     0.0217      0.009      0.250      0.363         96 6.8469e+02 0.0000e+00
      0.266    14.4524     5.7880     56.705  30.286511     38.395      7.059   243.9023     1.9248     4.8380     0.0217      0.010      0.260      0.378         97 6.6206e+02 0.0000e+00
      0.277    14.4498     5.7755     56.583  30.262661     38.327      7.050   244.3188     1.9410     4.7709     0.0217      0.011      0.271      0.393         98 1.1255e+03 0.0000e+00
      0.286    14.4487     5.7466     56.301  30.231007     38.330      7.041   245.0002     1.9208     4.7977     0.0217      0.014      0.278      0.403         99 1.1788e+03 0.0000e+00
      0.286    14.4486     5.7154     55.995  30.207301     38.262      7.036   245.0002     1.9086     4.7440     0.0216      0.016      0.279      0.405        100 6.8021e+02 0.0000e+00
      0.282    14.4489     5.6773     55.621  30.232862     38.334      7.026   245.1138     1.9733     4.8380     0.0217      0.018      0.277      0.402        101 2.2365e+02 0.0000e+00
      0.281    14.4492     5.6341     55.197  30.258499     38.334      7.017   246.4009     1.9895     4.7977     0.0217      0.019      0.277      0.402        102 3.3747e+02 0.0000e+00
      0.286    14.4486     5.6018     54.878  30.234697     38.333      7.013   247.2716     2.0016     4.8649     0.0217      0.018      0.281      0.407        103 5.4668e+02 0.0000e+00
      0.293    14.4459     5.5732     54.596  30.203181     38.262      7.007   246.7038     1.9733     4.7843     0.0216      0.014      0.286      0.415        104 3.1733e+02 0.0000e+00
      0.298    14.4409     5.5449     54.319  30.238417     38.334      7.005   249.2781     1.9693     4.7843     0.0217      0.011      0.290      0.420        105 2.8889e+02 0.0000e+00
      0.296    14.4367     5.5198     54.073  30.190847     38.265      7.004   246.6659     1.9774     4.8380     0.0216      0.008      0.289      0.418        106 5.1567e+02 0.0000e+00
      0.289    14.4350     5.5031     53.907  30.143780     38.199      7.000   246.5145     2.0016     4.7575     0.0216      0.006      0.284      0.412        107 3.7105e+02 0.0000e+00
      0.286    14.4349     5.4842     53.721  30.178388     38.274      7.001   248.3316     1.9855     4.7709     0.0216      0.004      0.279      0.405        108 2.4823e+02 0.0000e+00
      0.279    14.4352     5.4596     53.479  30.147779     38.205      6.998   246.8173     2.0016     4.7306     0.0216      0.001      0.274      0.397        109 2.8443e+02 0.0000e+00
      0.273    14.4355     5.4318     53.206  30.181874     38.276      6.996   248.5209     2.0016     4.8649     0.0216     -0.005      0.270      0.392        110 2.2856e+02 0.0000e+00
      0.275    14.4357     5.4151     53.038  30.195260     38.276      6.993   249.3916     1.9733     4.8515     0.0216     -0.010      0.271      0.393        111 2.8113e+02 0.0000e+00
      0.282    14.4346     5.4133     53.006  30.190423     38.276      6.990   247.6880     1.9572     4.8112     0.0216     -0.011      0.276      0.401        112 3.8599e+02 0.0000e+00
      0.288    14.4323     5.4272     53.062  30.187894     38.275      6.985   247.8016     1.9895     4.7172     0.0216     -0.008      0.280      0.407        113 3.4512e+02 0.0000e+00
      0.287    14.4310     5.4451     53.150  30.139106     38.206      6.980   249.3538     1.9127     4.8783     0.0216     -0.003      0.278      0.405        114 4.1419e+02 0.0000e+00
      0.279    14.4312     5.4532     53.177  30.073236     38.137      6.983   247.3095     1.9046     4.8112     0.0216     -0.001      0.273      0.397        115 3.3984e+02 0.0000e+00
      0.271    14.4306     5.4732     53.352  30.032663     38.067      6.980   247.2716     1.9369     4.8112     0.0216     -0.001      0.267      0.388        116 2.5524e+02 0.0000e+00
      0.269    14.4298     5.4797     53.414  30.070995     38.138      6.979   247.4609     1.9127     4.7038     0.0216     -0.002      0.262      0.380        117 3.7251e+02 0.0000e+00
      0.260    14.4277     5.4841     53.463  30.084835     38.138      6.976   246.4009     1.9127     4.7575     0.0216     -0.006      0.256      0.372        118 7.0284e+02 0.0000e+00
      0.254    14.4276     5.4806     53.434  30.134042     38.210      6.973   248.8238     1.9127     4.7306     0.0216     -0.013      0.255      0.370        119 8.7705e+02 0.0000e+00
      0.267    14.4261     5.4829     53.460  30.187661     38.283      6.968   249.2402     1.9208     4.8649     0.0216     -0.015      0.267      0.388        120 4.9705e+02 0.0000e+00
      0.298    14.4247     5.4865     53.498  30.196012     38.284      6.958   249.3538     1.9046     4.8112     0.0216     -0.005      0.292      0.423        121 2.7715e+02 0.0000e+00
      0.329    14.4078     5.4981     53.616  30.182952     38.284      6.945   251.9281     1.7631     4.8246     0.0216      0.013      0.315      0.457        122 3.3417e+02 0.0000e+00
      0.336    14.3419     5.5103     53.738  30.085312     38.146      6.932   253.1774     1.7792     4.8112     0.0216      0.031      0.324      0.471        123 4.8015e+02 0.0000e+00
      0.328    14.2667     5.5180     53.817  30.021017     38.087      6.932   251.8145     1.7792     4.8380     0.0216      0.040      0.322      0.467        124 7.9596e+02 0.0000e+00
      0.322    14.2222     5.5152     53.794  30.025770     38.154      6.922   252.1931     1.7833     4.7575     0.0216      0.042      0.317      0.461        125 7.6262e+02 0.0000e+00
      0.321    14.2048     5.5046     53.695  30.020118     38.227      6.911   252.0795     1.8601     4.7172     0.0216      0.040      0.317      0.461        126 5.6714e+02 0.0000e+00
      0.328    14.2038     5.4888     53.544  30.028078     38.271      6.906   248.8995     1.8318     4.7306     0.0216      0.033      0.322      0.467        127 5.3974e+02 0.0000e+00
      0.333    14.2078     5.4611     53.277  30.075186     38.358      6.903   250.5273     1.8601     4.7843     0.0216      0.021      0.327      0.475        128 4.5839e+02 0.0000e+00
      0.340    14.2129     5.4239     52.915  30.080104     38.359      6.901   249.5809     1.8803     4.8112     0.0216      0.010      0.333      0.483        129 7.0375e+02 0.0000e+00
      0.347    14.2154     5.3818     52.506  30.081261     38.355      6.901   248.9373     1.8480     4.7977     0.0216      0.007      0.338      0.490        130 4.9548e+02 0.0000e+00
      0.348    14.2182     5.3419     52.118  30.073746     38.350      6.898   249.7323     2.0461     4.7575     0.0216      0.010      0.340      0.493        131 1.1478e+03 0.0000e+00
      0.345    14.2222     5.2968     51.680  30.030153     38.277      6.899   249.6188     2.0502     4.6366     0.0216      0.014      0.339      0.492        132 1.9757e+03 0.0000e+00
      0.345    14.2255     5.2586     51.308  30.016907     38.274      6.897   249.4673     2.0542     4.7843     0.0216      0.014      0.339      0.491        133 8.9667e+02 0.0000e+00
      0.345    14.2289     5.2219     50.951  30.030928     38.270      6.897   249.6566     2.0421     4.8112     0.0216      0.012      0.340      0.492        134 6.7008e+02 0.0000e+00
      0.349    14.2324     5.1865     50.606  30.072004     38.338      6.899   249.5809     2.0866     4.8246     0.0216      0.008      0.342      0.496        135 8.0188e+02 0.0000e+00
      0.353    14.2357     5.1448     50.200  30.084389     38.335      6.899   250.1866     2.1027     4.7709     0.0216      0.006      0.346      0.501        136 4.9930e+02 0.0000e+00
      0.356    14.2387     5.1183     49.940  30.074816     38.331      6.895   250.4138     2.0946     4.8917     0.0216      0.005      0.349      0.506        137 5.1423e+02 0.0000e+00
      0.358    14.2409     5.0852     49.617  30.083917     38.328      6.895   250.7545     2.0866     4.8380     0.0216      0.006      0.351      0.509        138 5.4289e+02 0.0000e+00
      0.358    14.2423     5.0663     49.433  30.073062     38.325      6.888   251.0573     2.1149     4.8649     0.0216      0.007      0.351      0.509        139 4.8623e+02 0.0000e+00
      0.357    14.2437     5.0375     49.153  30.029022     38.252      6.888   250.8681     2.1027     4.9320     0.0216      0.008      0.350      0.508        140 5.8958e+02 0.0000e+00
      0.357    14.2450     5.0146     48.931  30.020120     38.250      6.885   250.4516     2.1068     4.8112     0.0216      0.007      0.350      0.508        141 4.9680e+02 0.0000e+00
      0.358    14.2463     4.9942     48.735  30.024839     38.249      6.884   250.4516     2.1189     4.8649     0.0216      0.006      0.351      0.509        142 6.5169e+02 0.0000e+00
      0.359    14.2474     4.9902     48.699  30.023150     38.248      6.886   250.3759     2.0987     4.7575     0.0216      0.004      0.352      0.511        143 6.8065e+02 0.0000e+00
      0.359    14.2480     4.9677     48.481  30.022222     38.247      6.886   251.1709     2.1229     4.8112     0.0216      0.002      0.352      0.511        144 4.1379e+02 0.0000e+00
      0.359    14.2487     4.9513     48.320  30.025992     38.245      6.886   251.1709     2.0866     4.8515     0.0216      0.001      0.352      0.511        145 7.6295e+02 0.0000e+00
      0.359    14.2489     4.9389     48.200  30.018456     38.245      6.885   251.4359     2.0906     4.8246     0.0216      0.001      0.351      0.509        146 6.7743e+02 0.0000e+00
      0.355    14.2482     4.9171     47.987  29.942648     38.137      6.885   251.4359     2.1836     4.8649     0.0215      0.000      0.346      0.502        147 6.8539e+02 0.0000e+00
      0.345    14.2477     4.9029     47.849  29.942429     38.137      6.887   250.6409     2.1634     4.7709     0.0215     -0.003      0.338      0.491        148 6.9291e+02 0.0000e+00
      0.336    14.2482     4.8904     47.730  30.018728     38.245      6.887   251.0952     2.1796     4.7709     0.0216     -0.009      0.331      0.481        149 6.9212e+02 0.0000e+00
      0.334    14.2493     4.8696     47.532  30.084901     38.316      6.887   251.8523     2.1674     4.7709     0.0216     -0.013      0.329      0.477        150 7.9565e+02 0.0000e+00
      0.336    14.2513     4.8559     47.401  30.067635     38.316      6.888   252.2309     2.1149     4.8783     0.0216     -0.015      0.332      0.481        151 4.5567e+02 0.0000e+00
      0.343    14.2539     4.8450     47.294  30.040216     38.244      6.884   252.5716     2.0785     4.8112     0.0216     -0.013      0.337      0.488        152 6.7312e+02 0.0000e+00
      0.350    14.2565     4.8366     47.213  30.059719     38.313      6.883   253.0259     2.0946     4.8380     0.0216     -0.009      0.342      0.496        153 8.0855e+02 0.0000e+00
      0.353    14.2574     4.8305     47.152  30.043363     38.239      6.881   252.9124     2.0866     4.8112     0.0216     -0.003      0.345      0.500        154 5.6262e+02 0.0000e+00
      0.353    14.2572     4.8221     47.070  30.060571     38.308      6.879   253.5181     2.1108     4.8380     0.0216      0.004      0.345      0.500        155 7.8569e+02 0.0000e+00
      0.348    14.2573     4.8094     46.945  29.979002     38.165      6.880   253.6316     2.1310     4.7977     0.0215      0.008      0.340      0.494        156 5.2182e+02 0.0000e+00
      0.341    14.2575     4.7886     46.744  29.937319     38.129      6.879   254.0481     2.1068     4.7709     0.0215      0.007      0.335      0.487        157 5.5847e+02 0.0000e+00
      0.339    14.2584     4.7789     46.650  30.023492     38.236      6.878   253.2152     2.0825     4.7843     0.0216      0.003      0.334      0.485        158 9.4361e+02 0.0000e+00
      0.344    14.2611     4.7651     46.515  30.020014     38.236      6.876   253.7452     2.0785     4.7843     0.0216     -0.000      0.338      0.491        159 5.9028e+02 0.0000e+00
      0.354    14.2657     4.7532     46.398  30.030599     38.235      6.876   253.8588     2.1270     4.8380     0.0216     -0.001      0.346      0.503        160 6.2941e+02 0.0000e+00
      0.362    14.2686     4.7374     46.243  30.069621     38.303      6.874   254.3509     2.1027     4.7709     0.0216      0.002      0.353      0.513        161 7.8987e+02 0.0000e+00
      0.365    14.2687     4.7265     46.136  30.030754     38.228      6.871   254.5781     2.1068     4.7575     0.0216      0.006      0.356      0.517        162 5.9007e+02 0.0000e+00
      0.363    14.2680     4.7079     45.953  30.019665     38.225      6.871   253.8966     2.1108     4.6903     0.0216      0.010      0.356      0.516        163 4.0681e+02 0.0000e+00
      0.361    14.2673     4.6841     45.722  30.024116     38.225      6.869   255.4109     2.1351     4.8380     0.0216      0.013      0.354      0.514        164 3.3545e+02 0.0000e+00
      0.360    14.2667     4.6818     45.698  30.025214     38.225      6.869   254.3131     2.1270     4.7709     0.0216      0.013      0.354      0.513        165 3.8496e+02 0.0000e+00
      0.362    14.2670     4.6632     45.516  30.018299     38.226      6.866   254.5781     2.0785     4.8112     0.0216      0.010      0.356      0.516        166 4.2139e+02 0.0000e+00
      0.366    14.2685     4.6532     45.418  30.032721     38.227      6.865   255.3352     2.0946     4.7575     0.0216      0.007      0.361      0.522        167 4.0221e+02 0.0000e+00
      0.375    14.2692     4.6322     45.213  30.066567     38.298      6.865   255.6002     2.1715     4.9186     0.0216      0.006      0.366      0.531        168 3.6716e+02 0.0000e+00
      0.377    14.2689     4.6227     45.119  30.035480     38.225      6.861   254.9945     2.2038     4.8783     0.0216      0.006      0.369      0.536        169 3.5005e+02 0.0000e+00
      0.378    14.2682     4.6092     44.988  30.012108     38.224      6.863   255.4109     2.2079     4.7977     0.0216      0.008      0.370      0.537        170 3.0825e+02 0.0000e+00
      0.376    14.2671     4.6020     44.948  29.947401     38.118      6.860   255.3352     2.1715     4.8783     0.0215      0.010      0.369      0.535        171 4.3333e+02 0.0000e+00
      0.374    14.2662     4.6184     45.157  29.938103     38.119      6.860   255.4866     2.1715     4.7977     0.0215      0.009      0.368      0.533        172 5.2143e+02 0.0000e+00
      0.374    14.2657     4.6963     45.951  30.023678     38.226      6.857   255.9788     2.1715     4.8112     0.0216      0.008      0.368      0.533        173 3.7072e+02 0.0000e+00
      0.377    14.2656     4.8880     47.846  30.018808     38.227      6.858   256.0545     2.1674     4.8380     0.0216      0.005      0.369      0.536        174 3.1319e+02 0.0000e+00
      0.379    14.2652     5.1605     50.523  29.973815     38.156      6.854   255.6759     2.1755     4.9186     0.0215      0.003      0.370      0.537        175 3.3881e+02 0.0000e+00
      0.377    14.2646     5.5026     53.875  29.931418     38.121      6.854   255.7895     2.1715     4.7843     0.0215      0.001      0.369      0.536        176 3.6299e+02 0.0000e+00
      0.375    14.2639     5.8340     57.125  29.952969     38.121      6.853   255.9031     2.3090     4.9186     0.0215     -0.000      0.369      0.535        177 3.3657e+02 0.0000e+00
      0.378    14.2637     6.1398     60.124  30.006298     38.229      6.850   256.1302     2.2887     4.8917     0.0216      0.000      0.370      0.537        178 4.2601e+02 0.0000e+00
      0.379    14.2624     6.4057     62.731  29.954003     38.122      6.852   256.1681     2.3130     4.7843     0.0215      0.002      0.371      0.538        179 4.4424e+02 0.0000e+00
      0.377    14.2646     6.5979     64.616  29.929098     38.123      6.849   256.3195     2.2847     4.7172     0.0215      0.002      0.371      0.538        180 4.7384e+02 0.0000e+00
      0.378    14.2947     6.7158     65.773  30.037291     38.230      6.849   256.8116     2.3251     4.8112     0.0216      0.001      0.371      0.538        181 5.0533e+02 0.0000e+00
      0.379    14.3428     6.7658     66.267  30.234468     38.514      6.849   256.6224     2.3090     4.7843     0.0217      0.001      0.371      0.538        182 5.9832e+02 0.0000e+00
      0.378    14.3759     6.7632     66.246  30.306378     38.556      6.847   256.3574     2.3413     4.8380     0.0217      0.001      0.371      0.539        183 8.0195e+02 0.0000e+00
      0.380    14.3945     6.7365     65.987  30.303598     38.507      6.841   256.5466     2.3049     4.8380     0.0217      0.001      0.373      0.541        184 4.1193e+02 0.0000e+00
      0.384    14.4030     6.7002     65.631  30.297212     38.476      6.846   257.0388     2.2200     4.5695     0.0217      0.003      0.376      0.546        185 2.5335e+02 0.0000e+00
      0.388    14.4062     6.6640     65.274  30.255009     38.386      6.843   257.6824     2.2523     4.6635     0.0217      0.004      0.379      0.550        186 3.5960e+02 0.0000e+00
      0.389    14.4103     6.6119     64.760  30.296808     38.449      6.840   257.0388     2.2402     4.5426     0.0217      0.005      0.376      0.546        187 3.1932e+02 0.0000e+00
      0.374    14.4134     6.5735     64.383  30.334143     38.481      6.841   257.0766     2.2443     4.5560     0.0217      0.003      0.366      0.531        188 3.3303e+02 0.0000e+00
      0.357    14.4160     6.5342     64.000  30.297498     38.442      6.843   256.8495     2.1310     4.8380     0.0217     -0.005      0.353      0.511        189 4.1775e+02 0.0000e+00
      0.349    14.4180     6.5037     63.706  30.312759     38.439      6.840   256.8495     2.1836     4.7172     0.0217     -0.012      0.343      0.496        190 4.3154e+02 0.0000e+00
      0.340    14.4198     6.4773     63.454  30.344801     38.507      6.838   255.9788     2.1755     4.8380     0.0217     -0.020      0.335      0.486        191 4.4572e+02 0.0000e+00
      0.335    14.4228     6.4602     63.290  30.316924     38.434      6.835   256.1302     2.1674     4.7843     0.0217     -0.027      0.332      0.482        192 4.4140e+02 0.0000e+00
      0.343    14.4256     6.4393     63.083  30.347451     38.503      6.835   256.6224     2.1593     4.6635     0.0217     -0.029      0.336      0.488        193 3.8350e+02 0.0000e+00
      0.351    14.4271     6.4295     62.984  30.336461     38.465      6.835   257.4931     2.1068     4.8783     0.0217     -0.025      0.343      0.498        194 3.2162e+02 0.0000e+00
      0.356    14.4272     6.4230     62.915  30.300948     38.427      6.832   257.8338     2.0946     4.8112     0.0217     -0.016      0.346      0.503        195 4.6683e+02 0.0000e+00
      0.353    14.4253     6.4173     62.855  30.302692     38.425      6.828   257.2659     2.0946     4.8246     0.0217     -0.005      0.345      0.500        196 6.5276e+02 0.0000e+00
      0.346    14.4229     6.4079     62.762  30.304639     38.425      6.827   257.3795     2.1108     4.8380     0.0217      0.001      0.341      0.495        197 3.9304e+02 0.0000e+00
      0.344    14.4224     6.4001     62.694  30.298524     38.427      6.826   257.7202     2.0744     4.7440     0.0217      0.003      0.339      0.492        198 3.5475e+02 0.0000e+00
      0.347    14.4235     6.3974     62.681  30.310303     38.430      6.822   256.9631     2.1270     4.7575     0.0217      0.004      0.341      0.495        199 3.2498e+02 0.0000e+00
      0.352    14.4264     6.3890     62.613  30.349284     38.501      6.824   256.8874     2.0785     4.8380     0.0217      0.003      0.344      0.500        200 3.0928e+02 0.0000e+00
      0.355    14.4312     6.3851     62.583  30.309314     38.429      6.821   258.0231     2.1027     4.8649     0.0217      0.001      0.346      0.502        201 3.1514e+02 0.0000e+00
      0.352    14.4338     6.3810     62.548  30.300742     38.426      6.819   257.8338     2.0906     4.8783     0.0217     -0.000      0.343      0.497        202 3.2661e+02 0.0000e+00
      0.342    14.4327     6.3800     62.539  30.359950     38.492      6.819   257.8338     2.0785     4.8112     0.0217     -0.002      0.335      0.486        203 3.7730e+02 0.0000e+00
      0.333    14.4302     6.3870     62.605  30.354232     38.490      6.819   257.8338     2.1027     4.8917     0.0217     -0.005      0.326      0.473        204 2.8184e+02 0.0000e+00
      0.323    14.4265     6.3887     62.610  30.307858     38.420      6.817   257.4931     2.1108     4.7977     0.0217     -0.009      0.319      0.463        205 3.1535e+02 0.0000e+00
      0.322    14.4230     6.3901     62.601  30.299059     38.422      6.818   257.9095     2.1634     4.6232     0.0217     -0.014      0.318      0.461        206 3.0593e+02 0.0000e+00
      0.329    14.4234     6.3872     62.558  30.335532     38.462      6.815   258.4774     2.2321     4.4755     0.0217     -0.016      0.323      0.468        207 2.5695e+02 0.0000e+00
      0.337    14.4290     6.3861     62.538  30.351422     38.500      6.813   260.4459     2.2200     4.6366     0.0217     -0.014      0.330      0.478        208 2.6146e+02 0.0000e+00
      0.344    14.4389     6.3833     62.507  30.308936     38.429      6.813   259.2724     2.2362     4.6769     0.0217     -0.008      0.336      0.488        209 3.2825e+02 0.0000e+00
      0.348    14.4491     6.3840     62.520  30.358755     38.494      6.812   260.5974     2.1998     4.7977     0.0217      0.000      0.340      0.494        210 2.3788e+02 0.0000e+00
      0.349    14.4552     6.3773     62.472  30.348724     38.485      6.808   261.0138     2.1553     4.8112     0.0217      0.009      0.343      0.498        211 3.1552e+02 0.0000e+00
      0.353    14.4591     6.3862     62.577  30.321415     38.404      6.808   260.0674     2.1917     4.8380     0.0217      0.015      0.347      0.503        212 4.0772e+02 0.0000e+00
      0.360    14.4599     6.3783     62.513  30.363085     38.504      6.809   258.9317     2.1836     4.7977     0.0217      0.019      0.353      0.513        213 5.3062e+02 0.0000e+00
      0.368    14.4576     6.3728     62.474  30.326514     38.394      6.807   259.3859     2.2483     4.7843     0.0217      0.021      0.362      0.525        214 9.0252e+02 0.0000e+00
      0.378    14.4486     6.3688     62.458  30.337275     38.464      6.806   259.4238     2.2402     4.7440     0.0217      0.021      0.377      0.548        215 7.4451e+02 0.0000e+00
      0.411    14.4331     6.3706     62.497  30.320043     38.396      6.793   261.9224     2.2159     4.7575     0.0217      0.029      0.409      0.594        216 4.7909e+02 0.0000e+00
      0.464    14.4217     6.3782     62.581  30.288659     38.404      6.777   262.7931     2.2079     4.8515     0.0217      0.048      0.456      0.661        217 3.6759e+02 0.0000e+00
      0.521    14.4156     6.3794     62.593  30.257732     38.349      6.759   263.1338     2.2240     4.7709     0.0217      0.076      0.499      0.723        218 3.3993e+02 0.0000e+00
      0.538    14.4123     6.3876     62.665  30.299235     38.431      6.752   262.7174     2.1998     4.7575     0.0217      0.099      0.516      0.748        219 3.9074e+02 0.0000e+00
      0.520    14.4168     6.3918     62.699  30.325966     38.472      6.742   262.2252     2.2685     4.7709     0.0217      0.104      0.500      0.725        220 2.9129e+02 0.0000e+00
      0.474    14.4298     6.4035     62.812  30.254118     38.369      6.736   261.7331     2.2443     4.7575     0.0217      0.088      0.456      0.662        221 3.3760e+02 0.0000e+00
      0.404    14.4430     6.4094     62.868  30.299697     38.436      6.737   261.1652     2.2523     4.9320     0.0217      0.047      0.389      0.565        222 2.5088e+02 0.0000e+00
      0.313    14.4528     6.4105     62.879  30.358195     38.493      6.742   260.7109     1.9329     4.7977     0.0217     -0.017      0.310      0.450        223 2.8623e+02 0.0000e+00
      0.233    14.4639     6.4120     62.896  30.299917     38.410      6.746   260.7488     1.9127     4.7843     0.0217     -0.096      0.237      0.344        224 5.1309e+02 0.0000e+00
      0.179    14.4807     6.4127     62.904  30.312916     38.400      6.746   260.7488     1.9005     4.7843     0.0217     -0.168      0.182      0.264        225 6.2114e+02 0.0000e+00
      0.142    14.4961     6.4207     62.986  30.430966     38.567      6.745   260.3324     1.8803     4.7440     0.0218     -0.218      0.149      0.215        226 3.3856e+02 0.0000e+00
      0.135    14.5034     6.4172     62.958  30.419858     38.515      6.742   259.8024     1.7469     4.8649     0.0218     -0.229      0.136      0.196        227 4.6881e+02 0.0000e+00
      0.137    14.5035     6.4187     62.977  30.356383     38.429      6.744   259.6888     1.7186     4.7038     0.0217     -0.209      0.131      0.190        228 9.7157e+02 0.0000e+00
      0.127    14.4978     6.4170     62.964  30.361699     38.422      6.744   259.5374     1.6984     4.8380     0.0217     -0.172      0.118      0.172        229 7.6276e+02 0.0000e+00
      0.098    14.4926     6.4183     62.979  30.353937     38.422      6.749   259.3859     1.7064     4.8380     0.0217     -0.132      0.092      0.134        230 1.3085e+03 0.0000e+00
      0.057    14.4904     6.4248     63.045  30.366042     38.428      6.754   258.9695     1.6175     4.6366     0.0217     -0.100      0.055      0.081        231 1.5624e+03 0.0000e+00
      0.015    14.4892     6.4289     63.083  30.376288     38.468      6.757   260.3702     1.5851     4.6366     0.0217     -0.087      0.019      0.029        232 1.2766e+03 0.0000e+00
     -0.011    14.4896     6.4308     63.093  30.370839     38.434      6.757   259.8402     1.6013     4.5829     0.0217     -0.087     -0.006     -0.009        233 1.3598e+03 0.0000e+00
     -0.025    14.4910     6.4378     63.148  30.402474     38.507      6.763   259.7267     1.5649     4.5829     0.0218     -0.093     -0.019     -0.028        234 1.3269e+03 0.0000e+00
     -0.023    14.4921     6.4431     63.195  30.366570     38.435      6.763   259.8024     1.6539     4.7843     0.0217     -0.097     -0.021     -0.031        235 1.4084e+03 0.0000e+00
     -0.017    14.4948     6.4395     63.161  30.356218     38.434      6.765   260.1052     1.6377     4.8917     0.0217     -0.090     -0.017     -0.026        236 1.4355e+03 0.0000e+00
     -0.014    14.4986     6.4381     63.153  30.415356     38.504      6.767   259.9917     1.6377     4.8380     0.0218     -0.073     -0.014     -0.021        237 1.4552e+03 0.0000e+00
     -0.014    14.5023     6.4275     63.055  30.381927     38.466      6.766   261.5817     1.6418     4.8515     0.0217     -0.048     -0.014     -0.021        238 1.4525e+03 0.0000e+00
     -0.016    14.5051     6.4295     63.072  30.368168     38.427      6.766   260.5217     1.6660     4.7306     0.0217     -0.025     -0.016     -0.024        239 1.4412e+03 0.0000e+00
     -0.020    14.5068     6.4245     63.011  30.402827     38.494      6.771   260.3702     1.6701     4.7575     0.0218     -0.008     -0.018     -0.025        240 1.4243e+03 0.0000e+00
     -0.017    14.5081     6.4179     62.934  30.368445     38.420      6.770   260.4459     1.6539     4.7843     0.0217      0.000     -0.014     -0.020        241 1.4113e+03 0.0000e+00
     -0.004    14.5071     6.4135     62.883  30.351652     38.419      6.773   259.5374     1.6660     4.7172     0.0217      0.006     -0.005     -0.007        242 1.3984e+03 0.0000e+00
      0.007    14.5000     6.4119     62.863  30.364422     38.417      6.770   259.4617     1.6579     4.7843     0.0217      0.010      0.005      0.007        243 1.3895e+03 0.0000e+00
      0.012    14.4907     6.4086     62.831  30.352553     38.418      6.768   259.6888     1.5932     4.8246     0.0217      0.013      0.009      0.012        244 1.3786e+03 0.0000e+00
      0.007    14.4870     6.4002     62.752  30.336773     38.390      6.765   261.9602     1.6013     4.8515     0.0217      0.015      0.006      0.008        245 1.3746e+03 0.0000e+00
     -0.002    14.4877     6.4020     62.771  30.354412     38.435      6.762   261.9602     1.6175     4.7843     0.0217      0.013      0.001      0.001        246 1.3938e+03 0.0000e+00
     -0.002    14.4915     6.3979     62.732  30.360255     38.438      6.765   261.6574     1.5487     4.7575     0.0217      0.012      0.002      0.003        247 1.4086e+03 0.0000e+00
      0.010    14.4958     6.3964     62.716  30.359153     38.437      6.768   260.7109     1.5407     4.9052     0.0217      0.011      0.012      0.018        248 1.4444e+03 0.0000e+00
      0.028    14.4941     6.3944     62.695  30.355784     38.434      6.768   261.3167     1.5164     4.7977     0.0217      0.012      0.029      0.042        249 1.4448e+03 0.0000e+00
      0.051    14.4861     6.3956     62.705  30.364447     38.429      6.767   261.0517     1.5204     4.7977     0.0217      0.018      0.052      0.076        250 1.1999e+03 0.0000e+00
      0.081    14.4768     6.4018     62.766  30.378022     38.466      6.758   262.6038     1.5407     4.8783     0.0217      0.030      0.081      0.117        251 9.9974e+02 0.0000e+00
      0.116    14.4710     6.4034     62.785  30.368542     38.439      6.742   262.6417     1.8561     4.7977     0.0217      0.051      0.114      0.165        252 8.2145e+02 0.0000e+00
      0.152    14.4683     6.4043     62.801  30.346597     38.448      6.734   263.8531     1.8520     4.8246     0.0217      0.075      0.145      0.210        253 5.8873e+02 0.0000e+00
      0.176    14.4683     6.3996     62.763  30.316383     38.383      6.729   261.7331     1.8520     4.7038     0.0217      0.094      0.169      0.245        254 7.0440e+02 0.0000e+00
      0.189    14.4702     6.4013     62.785  30.346844     38.456      6.728   261.9602     1.8358     4.7843     0.0217      0.103      0.183      0.265        255 6.6571e+02 0.0000e+00
      0.194    14.4720     6.4034     62.813  30.367992     38.456      6.727   261.2031     1.8561     4.7440     0.0217      0.101      0.191      0.276        256 4.0485e+02 0.0000e+00
      0.201    14.4723     6.3948     62.732  30.379017     38.490      6.728   260.7867     1.7267     4.7306     0.0217      0.091      0.197      0.285        257 6.8597e+02 0.0000e+00
      0.207    14.4714     6.3899     62.677  30.362774     38.453      6.732   260.8245     1.7348     4.8515     0.0217      0.077      0.202      0.292        258 1.1500e+03 0.0000e+00
      0.210    14.4703     6.3872     62.643  30.358554     38.452      6.738   261.6195     1.7307     4.8783     0.0217      0.059      0.204      0.296        259 7.6977e+02 0.0000e+00
      0.208    14.4692     6.3910     62.676  30.354618     38.453      6.740   261.6574     1.7226     4.7038     0.0217      0.040      0.203      0.294        260 6.0695e+02 0.0000e+00
      0.203    14.4691     6.3977     62.737  30.367673     38.454      6.746   261.8845     1.7226     4.7843     0.0217      0.023      0.196      0.284        261 4.0786e+02 0.0000e+00
      0.189    14.4716     6.4019     62.775  30.401609     38.526      6.746   262.3009     1.7064     4.9052     0.0218      0.009      0.186      0.269        262 5.6208e+02 0.0000e+00
      0.178    14.4771     6.4024     62.775  30.371687     38.455      6.751   262.2252     1.7388     4.7575     0.0217     -0.004      0.177      0.256        263 1.2634e+03 0.0000e+00
      0.173    14.4824     6.4079     62.809  30.375259     38.488      6.752   260.7488     1.7226     4.8783     0.0217     -0.013      0.172      0.249        264 8.8790e+02 0.0000e+00
      0.172    14.4871     6.4100     62.807  30.367512     38.448      6.753   261.2031     1.7995     4.7843     0.0217     -0.020      0.172      0.250        265 7.1388e+02 0.0000e+00
      0.181    14.4924     6.4151     62.851  30.351676     38.442      6.752   260.9381     1.7388     4.8112     0.0217     -0.020      0.179      0.260        266 8.8093e+02 0.0000e+00
      0.193    14.4945     6.4080     62.787  30.365313     38.438      6.754   261.3545     1.7509     4.8112     0.0217     -0.015      0.191      0.276        267 9.7698e+02 0.0000e+00
      0.208    14.4895     6.4023     62.729  30.350538     38.433      6.749   262.0738     1.7873     4.9052     0.0217     -0.003      0.202      0.292        268 6.7072e+02 0.0000e+00
      0.215    14.4838     6.3969     62.675  30.370062     38.430      6.749   262.0359     1.7388     4.7977     0.0217      0.010      0.208      0.302        269 4.5534e+02 0.0000e+00
      0.212    14.4806     6.3895     62.599  30.370666     38.471      6.751   260.3702     1.7186     4.8246     0.0217      0.020      0.213      0.309        270 4.2452e+02 0.0000e+00
      0.224    14.4774     6.3743     62.447  30.320138     38.370      6.748   261.0517     1.7064     4.7440     0.0217      0.027      0.228      0.331        271 3.5517e+02 0.0000e+00
      0.264    14.4756     6.3699     62.416  30.343994     38.444      6.742   261.9981     1.7307     4.8112     0.0217      0.039      0.258      0.374        272 4.8270e+02 0.0000e+00
      0.298    14.4710     6.3616     62.379  30.370630     38.447      6.733   262.8688     1.7267     4.7306     0.0217      0.053      0.294      0.426        273 5.6617e+02 0.0000e+00
      0.340    14.4570     6.3648     62.453  30.346293     38.449      6.727   265.2160     1.7105     4.7843     0.0217      0.070      0.331      0.480        274 6.7368e+02 0.0000e+00
      0.376    14.4410     6.3611     62.419  30.314980     38.382      6.720   264.8374     1.7145     4.8112     0.0217      0.088      0.361      0.523        275 5.4335e+02 0.0000e+00
      0.386    14.4366     6.3722     62.494  30.320647     38.432      6.712   263.5881     1.7307     4.7172     0.0217      0.100      0.375      0.543        276 6.8485e+02 0.0000e+00
      0.384    14.4399     6.3792     62.535  30.309594     38.412      6.713   263.6638     1.7995     4.8246     0.0217      0.103      0.378      0.548        277 7.9094e+02 0.0000e+00
      0.387    14.4395     6.3944     62.667  30.299090     38.417      6.716   263.3610     1.7833     4.7709     0.0217      0.098      0.384      0.558        278 5.1937e+02 0.0000e+00
      0.404    14.4375     6.4006     62.709  30.304072     38.413      6.718   263.6638     1.7711     4.7843     0.0217      0.086      0.402      0.583        279 5.0197e+02 0.0000e+00
      0.438    14.4355     6.4059     62.744  30.303395     38.414      6.718   264.7238     1.7590     4.8380     0.0217      0.073      0.432      0.628        280 4.8857e+02 0.0000e+00
      0.481    14.4329     6.4048     62.713  30.359235     38.486      6.715   265.5567     1.7995     4.8515     0.0217      0.071      0.470      0.682        281 3.7851e+02 0.0000e+00
      0.518    14.4429     6.4043     62.695  30.353185     38.488      6.710   265.7838     1.9005     4.7440     0.0217      0.075      0.505      0.732        282 4.8846e+02 0.0000e+00
      0.545    14.4743     6.4017     62.661  30.340577     38.455      6.709   266.3138     1.8884     4.8380     0.0217      0.086      0.533      0.774        283 4.8092e+02 0.0000e+00
      0.569    14.5055     6.3940     62.582  30.404577     38.553      6.708   265.9731     1.9329     4.7843     0.0218      0.102      0.558      0.809        284 4.3345e+02 0.0000e+00
      0.592    14.5068     6.3785     62.429  30.421787     38.521      6.714   265.7838     1.9167     4.7843     0.0218      0.114      0.580      0.840        285 4.2736e+02 0.0000e+00
      0.613    14.4827     6.3701     62.346  30.408101     38.490      6.716   266.4274     2.0380     4.7977     0.0218      0.117      0.600      0.870        286 3.5906e+02 0.0000e+00
      0.630    14.4627     6.3531     62.178  30.362299     38.418      6.715   265.9731     2.0663     4.7709     0.0217      0.111      0.617      0.895        287 3.1560e+02 0.0000e+00
      0.644    14.4500     6.3399     62.049  30.360183     38.443      6.716   266.6924     2.0421     4.8112     0.0217      0.099      0.633      0.918        288 3.7281e+02 0.0000e+00
      0.662    14.4368     6.3308     61.959  30.321787     38.426      6.719   267.7524     2.0340     4.7575     0.0217      0.086      0.653      0.947        289 4.3117e+02 0.0000e+00
      0.690    14.4233     6.3244     61.896  30.261834     38.332      6.718   267.3360     2.1917     4.8380     0.0217      0.080      0.678      0.983        290 3.2534e+02 0.0000e+00
      0.720    14.4095     6.3140     61.794  30.286545     38.416      6.715   267.9795     2.1593     4.8380     0.0217      0.081      0.708      1.027        291 2.9989e+02 0.0000e+00
      0.756    14.3994     6.3079     61.733  30.261389     38.358      6.709   269.0774     2.1634     4.7172     0.0217      0.086      0.741      1.074        292 3.1263e+02 0.0000e+00
      0.789    14.3937     6.3017     61.673  30.293146     38.443      6.704   269.1910     2.1755     4.8783     0.0217      0.095      0.771      1.119        293 2.7424e+02 0.0000e+00
      0.814    14.3906     6.2981     61.637  30.306334     38.452      6.699   269.2288     2.3736     4.9992     0.0217      0.102      0.795      1.154        294 2.5510e+02 0.0000e+00
      0.831    14.3894     6.2978     61.633  30.304284     38.458      6.697   269.1910     2.3898     5.0395     0.0217      0.107      0.812      1.179        295 2.2722e+02 0.0000e+00
      0.840    14.3889     6.2907     61.563  30.295698     38.461      6.700   270.0238     2.3453     4.9320     0.0217      0.105      0.825      1.196        296 2.1449e+02 0.0000e+00
      0.852    14.3882     6.2928     61.583  30.257719     38.391      6.700   268.6610     2.3575     4.8917     0.0217      0.097      0.838      1.215        297 2.0995e+02 0.0000e+00
      0.871    14.3878     6.2936     61.590  30.351549     38.534      6.702   269.8345     2.3575     5.0260     0.0217      0.087      0.856      1.240        298 1.9742e+02 0.0000e+00
      0.893    14.3874     6.2938     61.591  30.356833     38.534      6.703   269.9103     2.3575     5.0797     0.0217      0.078      0.876      1.270        299 1.8635e+02 0.0000e+00
      0.915    14.3869     6.2884     61.537  30.251144     38.393      6.705   270.1374     2.3696     5.0260     0.0217      0.071      0.896      1.299        300 1.9339e+02 0.0000e+00
      0.932    14.3866     6.2826     61.478  30.305174     38.464      6.703   269.5317     2.3736     4.9320     0.0217      0.067      0.914      1.326        301 1.8236e+02 0.0000e+00
      0.950    14.3863     6.2759     61.412  30.378548     38.571      6.705   269.6453     2.3453     4.9320     0.0217      0.068      0.934      1.355        302 1.8011e+02 0.0000e+00
      0.975    14.3861     6.2784     61.435  30.308086     38.465      6.705   269.6074     2.3979     4.7306     0.0217      0.073      0.960      1.393        303 1.8678e+02 0.0000e+00
      1.014    14.3858     6.2718     61.370  30.303910     38.465      6.705   270.3267     2.3858     4.7843     0.0217      0.082      0.995      1.443        304 1.7285e+02 0.0000e+00
      1.055    14.3853     6.2672     61.326  30.354094     38.536      6.697   270.5160     2.3575     4.7575     0.0217      0.094      1.032      1.496        305 1.6000e+02 0.0000e+00
      1.088    14.3849     6.2787     61.438  30.304934     38.466      6.691   270.4781     2.3453     4.7575     0.0217      0.104      1.065      1.544        306 1.6106e+02 0.0000e+00
      1.114    14.3844     6.2801     61.451  30.305788     38.466      6.689   271.0460     2.5677     4.7575     0.0217      0.112      1.092      1.583        307 1.6261e+02 0.0000e+00
      1.137    14.3837     6.2868     61.516  30.323382     38.502      6.684   271.5003     2.5637     4.8783     0.0217      0.117      1.115      1.617        308 1.5271e+02 0.0000e+00
      1.159    14.3830     6.2902     61.548  30.312689     38.467      6.687   272.1438     2.5677     4.8917     0.0217      0.119      1.139      1.651        309 1.3865e+02 0.0000e+00
      1.186    14.3820     6.2892     61.538  30.348746     38.539      6.685   272.0303     2.5556     4.7709     0.0217      0.118      1.166      1.691        310 1.3202e+02 0.0000e+00
      1.221    14.3807     6.2917     61.562  30.367465     38.539      6.680   272.2953     2.5880     4.7575     0.0217      0.115      1.198      1.737        311 1.2608e+02 0.0000e+00
      1.254    14.3800     6.2988     61.630  30.348696     38.540      6.677   272.7874     2.5475     4.7575     0.0217      0.111      1.230      1.783        312 1.2116e+02 0.0000e+00
      1.285    14.3795     6.2809     61.455  30.312801     38.471      6.677   272.9767     2.5799     4.7575     0.0217      0.110      1.260      1.827        313 1.1633e+02 0.0000e+00
      1.315    14.3792     6.2951     61.593  30.323184     38.507      6.674   273.9610     2.5677     4.9320     0.0217      0.112      1.287      1.867        314 1.1101e+02 0.0000e+00
      1.337    14.3793     6.2873     61.517  30.365426     38.543      6.671   273.9610     2.5799     4.9857     0.0217      0.114      1.311      1.900        315 1.0850e+02 0.0000e+00
      1.357    14.3792     6.2952     61.594  30.289882     38.472      6.671   273.8474     2.5839     5.0395     0.0217      0.114      1.331      1.930        316 1.0518e+02 0.0000e+00
      1.377    14.3786     6.3025     61.666  30.268943     38.401      6.676   273.8474     2.5799     5.0395     0.0217      0.110      1.352      1.960        317 1.0146e+02 0.0000e+00
      1.401    14.3777     6.3011     61.652  30.332183     38.543      6.673   273.9231     2.5758     5.0663     0.0217      0.103      1.377      1.997        318 9.6486e+01 0.0000e+00
      1.437    14.3771     6.2766     61.411  30.270482     38.402      6.671   274.5667     2.5152     5.0663     0.0217      0.100      1.410      2.045        319 9.0985e+01 0.0000e+00
      1.476    14.3769     6.2995     61.634  30.286427     38.474      6.663   274.3396     2.5192     5.0126     0.0217      0.102      1.448      2.099        320 8.6371e+01 0.0000e+00
      1.515    14.3763     6.3051     61.688  30.312342     38.474      6.658   275.2103     2.5354     4.9992     0.0217      0.108      1.484      2.153        321 8.1426e+01 0.0000e+00
      1.550    14.3756     6.2954     61.593  30.297535     38.474      6.657   275.6267     2.4707     5.0395     0.0217      0.116      1.514      2.197        322 7.9684e+01 0.0000e+00
      1.568    14.3753     6.2941     61.581  30.304855     38.475      6.654   275.1724     2.4909     5.0126     0.0217      0.121      1.532      2.222        323 7.9375e+01 0.0000e+00
      1.569    14.3755     6.3196     61.830  30.303232     38.476      6.652   274.4910     2.4424     5.0395     0.0217      0.118      1.537      2.229        324 7.9385e+01 0.0000e+00
      1.566    14.3757     6.3014     61.651  30.299555     38.476      6.655   274.9453     2.4464     5.0797     0.0217      0.104      1.539      2.232        325 7.9323e+01 0.0000e+00
      1.575    14.3754     6.3065     61.701  30.250130     38.405      6.656   274.9831     2.4141     5.1066     0.0217      0.086      1.549      2.247        326 7.7128e+01 0.0000e+00
      1.597    14.3751     6.3064     61.700  30.305438     38.476      6.659   275.2103     2.4464     5.0126     0.0217      0.069      1.572      2.281        327 7.3467e+01 0.0000e+00
      1.636    14.3749     6.3141     61.775  30.290027     38.476      6.659   275.5131     2.3979     5.0260     0.0217      0.061      1.610      2.336        328 6.8166e+01 0.0000e+00
      1.693    14.3746     6.2989     61.626  30.210009     38.334      6.652   276.8381     2.4383     5.0260     0.0216      0.068      1.659      2.406        329 6.3128e+01 0.0000e+00
      1.744    14.3740     6.3100     61.734  30.286417     38.476      6.640   276.9138     2.4262     5.0663     0.0217      0.086      1.706      2.474        330 5.9959e+01 0.0000e+00
      1.780    14.3733     6.3230     61.862  30.254240     38.406      6.636   277.0653     2.4383     5.0529     0.0217      0.111      1.745      2.530        331 5.7223e+01 0.0000e+00
      1.813    14.3732     6.3207     61.839  30.250053     38.406      6.636   276.8381     2.5597     5.0260     0.0217      0.135      1.778      2.578        332 5.5243e+01 0.0000e+00
      1.846    14.3730     6.3207     61.839  30.291629     38.478      6.633   276.1567     2.5718     4.9723     0.0217      0.151      1.812      2.627        333 5.3048e+01 0.0000e+00
      1.882    14.3726     6.3232     61.862  30.261802     38.407      6.635   276.8381     2.5637     5.1200     0.0217      0.158      1.848      2.680        334 4.9446e+01 0.0000e+00
      1.925    14.3724     6.3137     61.769  30.287172     38.478      6.631   277.3681     2.5880     4.9723     0.0217      0.158      1.887      2.737        335 4.6720e+01 0.0000e+00
      1.965    14.3724     6.3156     61.787  30.260056     38.408      6.628   277.2924     2.4909     4.7575     0.0217      0.154      1.925      2.792        336 4.4990e+01 0.0000e+00
      2.000    14.3723     6.3213     61.843  30.236246     38.408      6.630   277.9360     2.4950     4.7306     0.0217      0.147      1.960      2.842        337 4.2724e+01 0.0000e+00
      2.031    14.3723     6.3163     61.795  30.257502     38.408      6.627   277.6710     2.5111     4.9320     0.0217      0.143      1.990      2.885        338 4.1130e+01 0.0000e+00
      2.055    14.3722     6.3126     61.758  30.292906     38.479      6.627   277.2167     2.4869     4.7843     0.0217      0.140      2.015      2.921        339 4.0481e+01 0.0000e+00
      2.076    14.3721     6.2964     61.599  30.251490     38.408      6.631   277.1410     2.5111     4.7038     0.0217      0.134      2.040      2.959        340 3.8830e+01 0.0000e+00
      2.111    14.3721     6.3053     61.685  30.249742     38.408      6.630   278.0874     2.5030     4.7440     0.0217      0.129      2.072      3.007        341 3.6009e+01 0.0000e+00
      2.154    14.3718     6.3218     61.845  30.295080     38.479      6.622   278.1253     2.5314     4.8112     0.0217      0.126      2.111      3.063        342 3.4102e+01 0.0000e+00
      2.194    14.3713     6.2957     61.590  30.254369     38.408      6.619   278.3903     2.5233     4.8783     0.0217      0.125      2.151      3.119        343 3.2675e+01 0.0000e+00
      2.232    14.3709     6.2922     61.555  30.241104     38.408      6.615   277.9739     2.5071     4.7977     0.0217      0.128      2.186      3.171        344 3.0941e+01 0.0000e+00
      2.262    14.3706     6.2877     61.511  30.311590     38.480      6.614   278.2767     2.4950     4.7306     0.0217      0.131      2.214      3.211        345 3.0189e+01 0.0000e+00
      2.279    14.3704     6.2902     61.535  30.285257     38.480      6.614   278.2010     2.4909     4.8246     0.0217      0.131      2.233      3.239        346 2.9873e+01 0.0000e+00
      2.292    14.3704     6.2804     61.439  30.214574     38.339      6.616   278.1253     2.5152     4.8515     0.0216      0.126      2.249      3.263        347 2.9106e+01 0.0000e+00
      2.312    14.3704     6.2691     61.328  30.280951     38.481      6.621   278.0117     2.5030     4.9052     0.0217      0.118      2.273      3.297        348 2.7728e+01 0.0000e+00
      2.352    14.3704     6.2631     61.269  30.261954     38.410      6.616   278.4660     2.3373     4.8649     0.0217      0.110      2.311      3.351        349 2.5828e+01 0.0000e+00
      2.404    14.3701     6.2656     61.293  30.238214     38.410      6.612   279.2610     2.3817     4.9320     0.0217      0.109      2.357      3.419        350 2.4032e+01 0.0000e+00
      2.453    14.3693     6.2680     61.316  30.310494     38.481      6.606   279.6017     2.3736     4.8515     0.0217      0.116      2.402      3.484        351 2.2676e+01 0.0000e+00
      2.490    14.3685     6.2744     61.380  30.320257     38.517      6.600   279.6774     2.3979     4.8649     0.0217      0.125      2.438      3.536        352 2.1742e+01 0.0000e+00
      2.516    14.3680     6.2742     61.377  30.255715     38.411      6.602   279.4503     2.5758     5.4289     0.0217      0.135      2.464      3.574        353 2.1216e+01 0.0000e+00
      2.533    14.3679     6.2760     61.394  30.242562     38.412      6.604   279.5639     2.5677     5.4154     0.0217      0.140      2.485      3.606        354 2.0770e+01 0.0000e+00
      2.557    14.3677     6.2828     61.460  30.247674     38.412      6.607   279.3746     2.5516     5.4960     0.0217      0.140      2.510      3.642        355 1.9773e+01 0.0000e+00
      2.592    14.3676     6.2951     61.581  30.249354     38.412      6.605   280.0181     2.5718     5.3886     0.0217      0.134      2.543      3.689        356 1.8656e+01 0.0000e+00
      2.633    14.3674     6.2879     61.509  30.299775     38.483      6.604   279.9424     2.6284     4.7843     0.0217      0.127      2.581      3.744        357 1.7694e+01 0.0000e+00
      2.672    14.3669     6.2906     61.536  30.333182     38.519      6.601   279.4503     2.6486     4.7843     0.0217      0.121      2.616      3.795        358 1.6857e+01 0.0000e+00
      2.699    14.3667     6.2962     61.591  30.296733     38.484      6.602   279.9424     2.6001     4.8112     0.0217      0.119      2.641      3.831        359 1.6572e+01 0.0000e+00
      2.708    14.3668     6.2886     61.517  30.256182     38.413      6.601   279.7910     2.6163     4.7709     0.0217      0.116      2.656      3.851        360 1.6563e+01 0.0000e+00
      2.715    14.3667     6.2866     61.496  30.294694     38.484      6.604   279.4881     2.5314     4.8112     0.0217      0.110      2.666      3.866        361 1.6207e+01 0.0000e+00
      2.730    14.3665     6.2877     61.508  30.308108     38.484      6.607   279.7531     2.4667     4.7306     0.0217      0.102      2.682      3.890        362 1.5677e+01 0.0000e+00
      2.758    14.3665     6.2832     61.463  30.298790     38.485      6.606   279.7531     2.4869     4.8112     0.0217      0.093      2.711      3.931        363 1.4859e+01 0.0000e+00
      2.805    14.3661     6.2842     61.472  30.306290     38.485      6.603   280.8510     2.5030     4.8380     0.0217      0.089      2.754      3.994        364 1.3666e+01 0.0000e+00
      2.862    14.3659     6.2845     61.474  30.328428     38.520      6.593   281.3810     2.4747     4.8380     0.0217      0.095      2.803      4.064        365 1.2725e+01 0.0000e+00
      2.905    14.3658     6.2919     61.547  30.300892     38.485      6.589   281.0781     2.5556     4.8112     0.0217      0.108      2.843      4.124        366 1.2274e+01 0.0000e+00
      2.931    14.3656     6.2887     61.515  30.251604     38.414      6.589   280.3967     2.5920     4.7977     0.0217      0.123      2.872      4.165        367 1.1954e+01 0.0000e+00
      2.952    14.3654     6.2965     61.592  30.241511     38.414      6.588   280.9267     2.5394     4.7709     0.0217      0.136      2.893      4.195        368 1.1621e+01 0.0000e+00
      2.967    14.3655     6.2923     61.550  30.254151     38.415      6.592   280.3589     2.5677     4.7306     0.0217      0.138      2.909      4.219        369 1.1446e+01 0.0000e+00
      2.980    14.3653     6.3148     61.770  30.295176     38.486      6.595   280.1317     2.4464     4.6769     0.0217      0.130      2.928      4.246        370 1.1115e+01 0.0000e+00
      3.009    14.3652     6.2861     61.488  30.309060     38.486      6.595   281.5703     2.4505     4.8380     0.0217      0.117      2.956      4.288        371 1.0399e+01 0.0000e+00
      3.056    14.3653     6.3084     61.704  30.296175     38.486      6.589   281.8353     2.4181     4.8380     0.0217      0.107      2.995      4.343        372 9.7853e+00 0.0000e+00
      3.096    14.3646     6.3066     61.685  30.251910     38.415      6.587   282.2139     2.4343     4.8112     0.0217      0.103      3.033      4.398        373 9.4006e+00 0.0000e+00
      3.126    14.3640     6.2879     61.502  30.245543     38.415      6.583   281.4567     2.7093     4.8380     0.0217      0.106      3.063      4.441        374 9.0680e+00 0.0000e+00
      3.148    14.3639     6.3033     61.652  30.244797     38.416      6.585   281.6081     2.6891     4.7306     0.0217      0.113      3.083      4.471        375 9.0078e+00 0.0000e+00
      3.156    14.3639     6.3100     61.717  30.252840     38.416      6.584   281.1539     2.6729     4.7977     0.0217      0.114      3.095      4.490        376 8.9152e+00 0.0000e+00
      3.168    14.3638     6.2910     61.531  30.294837     38.487      6.588   281.6839     2.7012     4.7038     0.0217      0.110      3.109      4.510        377 8.5678e+00 0.0000e+00
      3.190    14.3638     6.3087     61.702  30.251835     38.416      6.588   281.7217     2.7618     4.9992     0.0217      0.102      3.130      4.541        378 8.2546e+00 0.0000e+00
      3.219    14.3636     6.3140     61.754  30.247054     38.416      6.591   281.4567     2.7699     4.9857     0.0217      0.092      3.160      4.584        379 7.8699e+00 0.0000e+00
      3.260    14.3635     6.3051     61.668  30.300787     38.487      6.588   282.1003     2.7538     4.9723     0.0217      0.087      3.200      4.641        380 7.3171e+00 0.0000e+00
      3.313    14.3623     6.3109     61.725  30.303568     38.487      6.584   282.6682     2.7497     5.0395     0.0217      0.095      3.245      4.707        381 6.8762e+00 0.0000e+00
      3.354    14.3607     6.3344     61.955  30.243593     38.417      6.577   282.9332     2.6365     5.0395     0.0217      0.109      3.285      4.764        382 6.6159e+00 0.0000e+00
      3.382    14.3597     6.3083     61.699  30.256822     38.418      6.578   282.9710     2.6365     5.0529     0.0217      0.124      3.315      4.807        383 6.4478e+00 0.0000e+00
      3.404    14.3593     6.3170     61.783  30.287106     38.490      6.579   283.1982     2.6163     5.0126     0.0217      0.135      3.338      4.842        384 6.2388e+00 0.0000e+00
      3.426    14.3591     6.3099     61.713  30.205906     38.349      6.580   283.3117     2.6041     5.0395     0.0216      0.137      3.363      4.877        385 5.9203e+00 0.0000e+00
      3.457    14.3590     6.3078     61.691  30.239270     38.421      6.577   283.7282     2.6163     4.9723     0.0217      0.134      3.395      4.924        386 5.6108e+00 0.0000e+00
      3.503    14.3583     6.3218     61.826  30.245586     38.421      6.573   284.3717     2.7740     4.9992     0.0217      0.131      3.438      4.986        387 5.2063e+00 0.0000e+00
      3.557    14.3577     6.3134     61.741  30.198047     38.350      6.568   284.7124     2.7618     5.0395     0.0216      0.131      3.485      5.055        388 4.8400e+00 0.0000e+00
      3.602    14.3578     6.3145     61.752  30.239130     38.422      6.566   284.2582     2.7457     5.0126     0.0217      0.135      3.528      5.118        389 4.6386e+00 0.0000e+00
      3.636    14.3582     6.2977     61.587  30.253762     38.422      6.567   283.8039     2.7376     4.9857     0.0217      0.142      3.562      5.167        390 4.4728e+00 0.0000e+00
      3.660    14.3586     6.3038     61.645  30.239140     38.422      6.566   283.5010     2.7618     4.9589     0.0217      0.148      3.586      5.201        391 4.4135e+00 0.0000e+00
      3.673    14.3583     6.3014     61.617  30.198026     38.351      6.570   283.9932     2.7538     5.0126     0.0216      0.146      3.602      5.224        392 4.3661e+00 0.0000e+00
      3.685    14.3579     6.2782     61.385  30.245627     38.421      6.574   283.5010     2.7699     5.0260     0.0217      0.136      3.620      5.250        393 4.2073e+00 0.0000e+00
      3.717    14.3576     6.2819     61.416  30.239203     38.422      6.574   284.4474     2.7497     5.0797     0.0217      0.123      3.651      5.295        394 3.9669e+00 0.0000e+00
      3.767    14.3570     6.2647     61.243  30.206020     38.351      6.570   284.7882     2.7133     4.8783     0.0216      0.114      3.695      5.358        395 3.6486e+00 0.0000e+00
      3.817    14.3560     6.2544     61.139  30.286923     38.493      6.564   284.2960     2.7012     4.8112     0.0217      0.113      3.742      5.427        396 3.3779e+00 0.0000e+00
      3.864    14.3541     6.2343     60.941  30.316427     38.494      6.563   284.1446     2.6971     4.8515     0.0217      0.121      3.784      5.488        397 3.2393e+00 0.0000e+00
      3.893    14.3524     6.2171     60.772  30.347211     38.566      6.559   284.1824     2.6971     4.8246     0.0217      0.131      3.811      5.528        398 3.2165e+00 0.0000e+00
      3.902    14.3521     6.1848     60.455  30.367218     38.568      6.562   283.9932     2.6891     4.8380     0.0217      0.136      3.825      5.548        399 3.1999e+00 0.0000e+00
      3.907    14.3518     6.1657     60.267  30.350829     38.569      6.567   284.7882     2.7214     4.7306     0.0217      0.133      3.834      5.560        400 3.1641e+00 0.0000e+00
      3.917    14.3506     6.1452     60.064  30.367606     38.570      6.568   284.8639     2.7214     4.7977     0.0217      0.121      3.845      5.577        401 3.0996e+00 0.0000e+00
      3.938    14.3473     6.1261     59.875  30.494597     38.748      6.571   285.0532     2.7012     4.7306     0.0218      0.102      3.868      5.610        402 2.9682e+00 0.0000e+00
      3.979    14.3432     6.1227     59.841  30.607911     38.891      6.568   283.8796     2.6324     4.8246     0.0219      0.087      3.905      5.664        403 2.7528e+00 0.0000e+00
      4.031    14.3392     6.1125     59.740  30.552754     38.823      6.563   284.4853     2.6284     4.8112     0.0218      0.085      3.949      5.727        404 2.5744e+00 0.0000e+00
      4.069    14.3358     6.1087     59.702  30.563238     38.827      6.560   284.4853     2.6284     4.8649     0.0218      0.093      3.987      5.782        405 2.4853e+00 0.0000e+00
      4.096    14.3337     6.1080     59.694  30.654168     38.973      6.560   284.4474     2.6486     4.8380     0.0219      0.106      4.017      5.826        406 2.3937e+00 0.0000e+00
      4.124    14.3320     6.0966     59.584  30.617505     38.905      6.560   284.5610     2.6163     4.8380     0.0219      0.121      4.043      5.863        407 2.3531e+00 0.0000e+00
      4.146    14.3311     6.0885     59.504  30.608866     38.907      6.557   284.5610     3.0328     4.8380     0.0219      0.130      4.068      5.900        408 2.2598e+00 0.0000e+00
      4.174    14.3306     6.0780     59.397  30.664920     38.980      6.559   284.3717     3.0125     4.7575     0.0219      0.131      4.100      5.947        409 2.0941e+00 0.0000e+00
      4.225    14.3295     6.0607     59.225  30.607051     38.910      6.553   284.2582     3.0166     4.8783     0.0219      0.132      4.144      6.010        410 1.9444e+00 0.0000e+00
      4.276    14.3272     6.0449     59.067  30.621582     38.911      6.547   283.7282     3.0085     4.8246     0.0219      0.133      4.189      6.075        411 1.8621e+00 0.0000e+00
      4.314    14.3258     6.0300     58.920  30.765444     39.125      6.547   283.4253     2.8831     4.9857     0.0220      0.135      4.226      6.130        412 1.7844e+00 0.0000e+00
      4.340    14.3254     6.0107     58.730  30.783836     39.127      6.546   282.6682     2.8953     4.9992     0.0220      0.139      4.253      6.168        413 1.7299e+00 0.0000e+00
      4.356    14.3245     5.9995     58.618  30.776604     39.128      6.546   282.3653     2.8953     5.0126     0.0220      0.139      4.271      6.194        414 1.7421e+00 0.0000e+00
      4.368    14.3234     5.9850     58.473  30.774445     39.129      6.548   281.7974     2.8912     5.0797     0.0220      0.133      4.287      6.218        415 1.6918e+00 0.0000e+00
      4.391    14.3224     5.9641     58.263  30.905130     39.272      6.545   280.3210     2.5637     4.7575     0.0220      0.123      4.312      6.254        416 1.6284e+00 0.0000e+00
      4.432    14.3231     5.9485     58.107  30.940140     39.379      6.545   280.5481     2.5516     4.9455     0.0221      0.115      4.350      6.308        417 1.5098e+00 0.0000e+00
      4.483    14.3228     5.9411     58.034  30.760531     39.061      6.541   280.8889     2.5718     4.8112     0.0219      0.110      4.395      6.373        418 1.3889e+00 0.0000e+00
      4.527    14.3198     5.9351     57.975  30.950740     39.380      6.539   279.6017     2.5597     4.7977     0.0221      0.113      4.436      6.433        419 1.3505e+00 0.0000e+00
      4.558    14.3169     5.9307     57.929  31.148206     39.593      6.535   278.7310     2.4909     5.0395     0.0222      0.121      4.467      6.478        420 1.3133e+00 0.0000e+00
      4.580    14.3150     5.9300     57.914  31.137482     39.596      6.537   279.8667     2.4990     5.0395     0.0222      0.129      4.492      6.514        421 1.2897e+00 0.0000e+00
      4.602    14.3134     5.9356     57.959  31.142001     39.599      6.538   279.2231     2.4950     4.9857     0.0222      0.134      4.517      6.551        422 1.2325e+00 0.0000e+00
      4.636    14.3119     5.9389     57.985  31.142581     39.601      6.537   278.6553     2.5314     5.0797     0.0222      0.136      4.553      6.604        423 1.1185e+00 0.0000e+00
      4.693    14.3104     5.9446     58.038  31.136760     39.603      6.533   278.3146     2.3736     5.2006     0.0222      0.138      4.601      6.674        424 1.0172e+00 0.0000e+00
      4.747    14.3073     5.9376     57.968  31.089944     39.533      6.525   277.4060     2.3534     5.1469     0.0221      0.141      4.650      6.744        425 9.8357e-01 0.0000e+00
      4.784    14.3033     5.9321     57.914  31.141539     39.606      6.522   276.8003     2.3817     5.2140     0.0222      0.143      4.687      6.798        426 9.3010e-01 0.0000e+00
      4.807    14.3007     5.9182     57.778  31.250465     39.751      6.521   276.3460     2.3534     5.3080     0.0222      0.145      4.710      6.831        427 9.0102e-01 0.0000e+00
      4.817    14.2996     5.9027     57.627  31.250913     39.755      6.521   274.7181     2.3777     5.1872     0.0222      0.143      4.721      6.848        428 9.2966e-01 0.0000e+00
      4.819    14.2993     5.8972     57.572  31.259592     39.758      6.518   273.2796     2.1229     5.4826     0.0222      0.133      4.729      6.858        429 9.2724e-01 0.0000e+00
      4.829    14.2971     5.8860     57.461  31.180362     39.688      6.521   271.6895     2.0946     5.4289     0.0222      0.115      4.745      6.882        430 8.8289e-01 0.0000e+00
      4.870    14.2902     5.8797     57.398  31.290210     39.759      6.523   270.0995     2.1108     5.3752     0.0222      0.099      4.783      6.937        431 8.2638e-01 0.0000e+00
      4.933    14.2828     5.8755     57.356  31.626983     40.294      6.517   269.0774     2.1068     5.4826     0.0224      0.093      4.836      7.013        432 7.5581e-01 0.0000e+00
      4.988    14.2780     5.8760     57.362  31.650835     40.231      6.512   268.0174     2.0340     5.5363     0.0224      0.101      4.889      7.091        433 6.8505e-01 0.0000e+00
      5.037    14.2756     5.8645     57.249  31.675667     40.345      6.508   266.8438     2.0542     5.6571     0.0225      0.120      4.936      7.160        434 6.5870e-01 0.0000e+00
      5.076    14.2746     5.8636     57.239  31.685041     40.314      6.505   266.4274     2.0340     5.6169     0.0224      0.142      4.974      7.215        435 6.4926e-01 0.0000e+00
      5.105    14.2741     5.8521     57.127  31.609519     40.246      6.504   264.7617     2.0057     5.7511     0.0224      0.161      5.003      7.256        436 6.1832e-01 0.0000e+00
      5.124    14.2739     5.8380     56.989  31.562086     40.175      6.503   264.1181     2.1068     5.7511     0.0224      0.168      5.026      7.289        437 5.9993e-01 0.0000e+00
      5.146    14.2738     5.8348     56.952  31.566155     40.176      6.502   261.3545     2.1027     5.6437     0.0224      0.161      5.054      7.331        438 5.8556e-01 0.0000e+00
      5.194    14.2729     5.8407     57.004  31.604455     40.247      6.504   258.2124     2.1149     5.5766     0.0224      0.149      5.096      7.391        439 5.0958e-01 0.0000e+00
      5.249    14.2715     5.8239     56.841  31.662686     40.283      6.498   253.9345     2.1068     5.5900     0.0224      0.140      5.141      7.456        440 4.8153e-01 0.0000e+00
      5.282    14.2702     5.8226     56.830  31.760565     40.462      6.496   252.0795     2.1270     5.8048     0.0225      0.136      5.173      7.503        441 4.8769e-01 0.0000e+00
      5.294    14.2698     5.8176     56.783  31.749526     40.392      6.495   247.9152     2.1189     5.8317     0.0225      0.131      5.190      7.528        442 4.7745e-01 0.0000e+00
      5.303    14.2701     5.8103     56.711  31.765383     40.465      6.497   245.3030     2.0866     5.6974     0.0225      0.124      5.201      7.544        443 4.9054e-01 0.0000e+00
      5.315    14.2698     5.8075     56.683  31.800136     40.465      6.495   244.6216     2.1472     5.8586     0.0225      0.115      5.213      7.562        444 4.6922e-01 0.0000e+00
      5.329    14.2694     5.8070     56.676  31.824891     40.536      6.497   243.1452     2.0097     5.9660     0.0225      0.104      5.232      7.589        445 4.3791e-01 0.0000e+00
      5.363    14.2695     5.8034     56.636  31.823537     40.501      6.498   238.9809     2.0461     5.8183     0.0225      0.093      5.267      7.640        446 4.4409e-01 0.0000e+00
      5.424    14.2692     5.7976     56.570  31.772165     40.465      6.491   237.0880     1.9855     5.9123     0.0225      0.090      5.317      7.712        447 3.9839e-01 0.0000e+00
      5.478    14.2651     5.7911     56.499  31.799863     40.465      6.487   235.4980     1.9572     5.7646     0.0225      0.098      5.364      7.780        448 3.7542e-01 0.0000e+00
      5.507    14.2602     5.7846     56.433  32.085605     40.857      6.486   234.4759     1.9895     5.8451     0.0227      0.114      5.394      7.824        449 3.7761e-01 0.0000e+00
      5.517    14.2603     5.7737     56.325  32.187557     41.004      6.486   234.7030     2.1796     5.8451     0.0227      0.126      5.408      7.844        450 3.6175e-01 0.0000e+00
      5.520    14.2625     5.7605     56.195  31.999176     40.724      6.486   233.3023     2.1755     5.8317     0.0226      0.127      5.417      7.856        451 3.7691e-01 0.0000e+00
      5.533    14.2633     5.7409     56.004  31.934545     40.688      6.487   229.9709     2.1796     5.9123     0.0226      0.120      5.432      7.878        452 3.5429e-01 0.0000e+00
      5.564    14.2635     5.7215     55.812  32.001106     40.722      6.488   227.8887     2.1634     5.7780     0.0226      0.110      5.462      7.921        453 3.4876e-01 0.0000e+00
      5.610    14.2628     5.7073     55.670  32.123918     40.934      6.487   226.6016     2.0542     5.8451     0.0227      0.100      5.504      7.983        454 3.2858e-01 0.0000e+00
      5.664    14.2611     5.6931     55.527  32.167205     40.934      6.482   225.3523     2.0461     5.8586     0.0227      0.097      5.552      8.053        455 2.9229e-01 0.0000e+00
      5.711    14.2569     5.6830     55.421  32.303081     41.148      6.480   224.7466     2.0704     5.8048     0.0228      0.107      5.597      8.117        456 3.1018e-01 0.0000e+00
      5.746    14.2493     5.6756     55.342  32.577558     41.470      6.477   223.4973     2.0785     5.7914     0.0229      0.125      5.632      8.169        457 2.9294e-01 0.0000e+00
      5.774    14.2427     5.6735     55.321  32.863522     41.866      6.477   222.3237     2.2119     5.8183     0.0231      0.141      5.657      8.206        458 2.6991e-01 0.0000e+00
      5.787    14.2405     5.6898     55.478  33.044421     42.088      6.478   221.1501     2.2362     5.8317     0.0232      0.148      5.676      8.232        459 2.7595e-01 0.0000e+00
      5.801    14.2393     5.7187     55.760  32.975185     42.024      6.480   218.9544     2.2483     5.8720     0.0232      0.141      5.697      8.262        460 2.8442e-01 0.0000e+00
      5.840    14.2385     5.7536     56.105  32.890379     41.884      6.478   218.1215     2.2038     5.8183     0.0231      0.130      5.732      8.313        461 2.4603e-01 0.0000e+00
      5.892    14.2385     5.7854     56.418  33.031342     42.099      6.470   217.6672     2.3534     5.7914     0.0232      0.123      5.778      8.381        462 2.0337e-01 0.0000e+00
      5.943    14.2365     5.8283     56.838  32.977690     42.029      6.465   216.5694     2.3817     5.8854     0.0232      0.123      5.825      8.449        463 2.1408e-01 0.0000e+00
      5.984    14.2341     5.8555     57.103  32.838532     41.814      6.464   215.7744     2.3656     5.9123     0.0231      0.129      5.864      8.504        464 2.0614e-01 0.0000e+00
      6.010    14.2302     5.8727     57.262  32.700392     41.710      6.460   211.7237     2.3777     5.8854     0.0230      0.137      5.890      8.543        465 2.0716e-01 0.0000e+00
      6.025    14.2232     5.8882     57.391  32.348931     41.178      6.461   210.1337     2.0906     6.1003     0.0228      0.140      5.908      8.568        466 2.2015e-01 0.0000e+00
      6.037    14.2187     5.8835     57.325  32.178711     41.040      6.460   207.9758     2.1391     6.0600     0.0227      0.137      5.927      8.596        467 2.0358e-01 0.0000e+00
      6.070    14.2176     5.8865     57.340  32.111570     40.905      6.463   206.1965     2.1149     6.1540     0.0227      0.131      5.957      8.639        468 1.8318e-01 0.0000e+00
      6.115    14.2162     5.9106     57.567  32.017338     40.838      6.461   205.8558     2.1229     6.0868     0.0227      0.122      5.997      8.697        469 1.8677e-01 0.0000e+00
      6.160    14.2165     5.9692     58.136  32.029102     40.804      6.459   207.0294     2.1189     6.1271     0.0226      0.117      6.038      8.757        470 1.7741e-01 0.0000e+00
      6.196    14.2197     6.0664     59.086  32.126585     40.984      6.461   206.4615     2.2604     6.0465     0.0227      0.117      6.071      8.804        471 1.4027e-01 0.0000e+00
      6.215    14.2231     6.1988     60.378  32.162904     40.983      6.462   205.2879     2.2362     5.9928     0.0227      0.119      6.092      8.834        472 1.4322e-01 0.0000e+00
      6.225    14.2241     6.3403     61.756  32.250786     41.122      6.465   204.9851     2.2362     6.0868     0.0228      0.120      6.104      8.853        473 1.8890e-01 0.0000e+00
      6.233    14.2238     6.4790     63.105  32.195138     41.047      6.471   204.5686     2.2362     6.0197     0.0227      0.115      6.115      8.868        474 1.6138e-01 0.0000e+00
      6.246    14.2169     6.5900     64.184  32.232155     41.046      6.467   202.7893     2.2362     6.1674     0.0227      0.104      6.132      8.893        475 1.3187e-01 0.0000e+00
      6.280    14.1993     6.6726     64.984  31.611650     40.406      6.471   204.6822     2.2362     6.0197     0.0225      0.092      6.164      8.940        476 1.4915e-01 0.0000e+00
      6.334    14.1831     6.7381     65.614  30.417222     38.631      6.466   204.0386     2.2281     6.0197     0.0217      0.088      6.208      9.004        477 1.3640e-01 0.0000e+00
      6.377    14.1724     6.7581     65.805  30.219638     38.649      6.469   204.4929     2.2564     6.0331     0.0217      0.094      6.247      9.061        478 1.2582e-01 0.0000e+00
      6.401    14.1658     6.7646     65.866  30.197039     38.451      6.469   203.7736     2.0987     6.2614     0.0216      0.103      6.271      9.096        479 1.2575e-01 0.0000e+00
      6.409    14.1646     6.7617     65.836  30.208146     38.604      6.470   203.0543     2.0946     6.2614     0.0217      0.110      6.281      9.110        480 1.2553e-01 0.0000e+00
      6.405    14.1662     6.7653     65.869  30.324423     38.682      6.474   201.5401     2.1391     6.2883     0.0217      0.108      6.281      9.110        481 1.2595e-01 0.0000e+00
      6.402    14.1683     6.7792     66.001  30.408148     38.826      6.472   201.3508     2.1432     6.2614     0.0218      0.097      6.281      9.108        482 1.2759e-01 0.0000e+00
      6.405    14.1686     6.7943     66.145  30.489416     38.931      6.476   202.1458     1.9733     6.3554     0.0218      0.077      6.286      9.116        483 1.2597e-01 0.0000e+00
      6.420    14.1673     6.8207     66.398  30.430844     38.822      6.478   202.0701     1.9693     6.2883     0.0218      0.054      6.307      9.147        484 1.2557e-01 0.0000e+00
      6.470    14.1655     6.8511     66.677  30.332784     38.750      6.477   202.8651     1.9895     6.2614     0.0217      0.044      6.351      9.211        485 1.2637e-01 0.0000e+00
      6.535    14.1622     6.8794     66.931  30.166685     38.466      6.481   202.7893     1.9652     6.3151     0.0216      0.056      6.406      9.292        486 1.2574e-01 0.0000e+00
      6.591    14.1574     6.9070     67.197  30.103837     38.468      6.487   202.8651     1.9288     6.2883     0.0216      0.084      6.458      9.367        487 1.2585e-01 0.0000e+00
      6.631    14.1544     6.9355     67.483  30.055188     38.329      6.492   202.6758     1.9086     6.2883     0.0216      0.116      6.497      9.423        488 1.2582e-01 0.0000e+00
      6.654    14.1528     6.9575     67.703  30.049323     38.405      6.497   202.6001     1.9046     6.2614     0.0216      0.142      6.521      9.458        489 1.2569e-01 0.0000e+00
      6.664    14.1514     6.9850     67.961  29.962885     38.229      6.501   203.2436     1.9086     6.2614     0.0215      0.153      6.535      9.479        490 1.2575e-01 0.0000e+00
      6.676    14.1498     7.0038     68.106  29.866256     38.160      6.508   204.0008     1.9127     6.3420     0.0215      0.149      6.550      9.500        491 1.2574e-01 0.0000e+00
      6.698    14.1475     7.0163     68.185  29.843422     38.089      6.509   204.6444     2.1027     6.0600     0.0215      0.134      6.574      9.534        492 1.2558e-01 0.0000e+00
      6.737    14.1463     7.0223     68.216  29.872702     38.162      6.512   205.1744     2.1391     6.1003     0.0215      0.115      6.610      9.587        493 1.2562e-01 0.0000e+00
      6.787    14.1428     7.0063     68.044  29.770518     38.022      6.512   205.7801     2.1270     6.1137     0.0214      0.104      6.654      9.650        494 1.2571e-01 0.0000e+00
      6.832    14.1312     6.9866     67.848  29.763036     37.987      6.516   203.7736     2.1310     5.9928     0.0214      0.107      6.694      9.708        495 1.2566e-01 0.0000e+00
      6.859    14.1177     6.9481     67.468  30.178521     38.562      6.518   204.7958     2.3696     5.4289     0.0216      0.114      6.721      9.748        496 1.2564e-01 0.0000e+00
      6.870    14.1154     6.8889     66.887  30.350529     38.787      6.521   205.4772     2.3373     5.3483     0.0217      0.121      6.734      9.767        497 1.2568e-01 0.0000e+00
      6.871    14.1211     6.8230     66.243  30.023390     38.373      6.524   206.3479     2.3777     5.4691     0.0216      0.120      6.738      9.773        498 1.2578e-01 0.0000e+00
      6.872    14.1251     6.7446     65.476  29.903677     38.196      6.526   207.7486     2.3939     5.4289     0.0215      0.108      6.743      9.779        499 1.2560e-01 0.0000e+00
      6.883    14.1178     6.6815     64.859  29.906496     38.262      6.528   208.9601     2.5071     4.3009     0.0215      0.089      6.756      9.799        500 1.2568e-01 0.0000e+00
      6.914    14.0926     6.6202     64.260  30.494295     38.865      6.532   209.6037     2.4788     4.3815     0.0218      0.071      6.784      9.840        501 1.2582e-01 0.0000e+00
      6.958    14.0646     6.5654     63.727  31.840826     40.800      6.532   208.0136     2.5314     4.3412     0.0226      0.064      6.822      9.894        502 1.2573e-01 0.0000e+00
      6.997    14.0459     6.5154     63.243  32.856554     41.935      6.536   209.3008     2.4950     4.3546     0.0231      0.069      6.859      9.947        503 1.2586e-01 0.0000e+00
      7.028    14.0357     6.4821     62.921  33.381748     42.824      6.536   209.6415     2.4383     4.5560     0.0234      0.083      6.889      9.992        504 1.2588e-01 0.0000e+00
      7.051    14.0312     6.4571     62.682  33.411343     42.701      6.539   209.7551     2.4343     4.5829     0.0234      0.099      6.914     10.027        505 1.2567e-01 0.0000e+00
      7.071    14.0272     6.4335     62.455  33.294211     42.712      6.540   211.6858     2.4343     4.5695     0.0234      0.112      6.936     10.059        506 1.2568e-01 0.0000e+00
      7.095    14.0234     6.4293     62.412  33.408901     42.717      6.535   212.1022     2.4141     4.7038     0.0234      0.118      6.961     10.096        507 1.2584e-01 0.0000e+00
      7.128    14.0200     6.4185     62.296  33.743111     43.294      6.532   210.6258     2.4869     4.6232     0.0236      0.118      6.994     10.143        508 1.2589e-01 0.0000e+00
      7.171    14.0165     6.4247     62.341  34.034876     43.549      6.522   210.4744     2.5435     4.6769     0.0237      0.116      7.034     10.201        509 1.2580e-01 0.0000e+00
      7.218    14.0133     6.4243     62.328  34.321025     44.018      6.514   210.8151     2.5152     4.4889     0.0239      0.118      7.076     10.262        510 1.2570e-01 0.0000e+00
      7.258    14.0109     6.4280     62.363  34.484303     44.166      6.510   211.0801     2.5111     4.6769     0.0240      0.125      7.112     10.314        511 1.2574e-01 0.0000e+00
      7.279    14.0100     6.4301     62.386  34.454477     44.169      6.504   212.3672     2.5071     4.5292     0.0240      0.131      7.133     10.346        512 1.2569e-01 0.0000e+00
      7.284    14.0104     6.4245     62.330  34.476772     44.172      6.498   207.9001     2.3170     4.5023     0.0240      0.129      7.140     10.356        513 1.2570e-01 0.0000e+00
      7.279    14.0119     6.4158     62.239  34.367586     44.066      6.497   203.5465     2.3130     4.6098     0.0240      0.117      7.140     10.355        514 1.2573e-01 0.0000e+00
      7.278    14.0141     6.4033     62.107  34.115848     43.707      6.495   201.1615     2.3090     4.5426     0.0238      0.096      7.140     10.356        515 1.2571e-01 0.0000e+00
      7.284    14.0156     6.3930     62.000  34.048635     43.634      6.493   198.5493     2.3130     4.5560     0.0238      0.071      7.149     10.369        516 1.2573e-01 0.0000e+00
      7.306    14.0140     6.3758     61.831  34.095349     43.703      6.492   196.7700     2.3494     4.4218     0.0238      0.051      7.173     10.404        517 1.2562e-01 0.0000e+00
      7.353    14.0053     6.3113     61.206  34.324623     43.952      6.492   195.4450     2.3049     4.3949     0.0239      0.045      7.215     10.464        518 1.2562e-01 0.0000e+00
      7.411    13.9944     6.1859     59.994  34.979250     44.849      6.492   195.7858     2.3049     4.3815     0.0243      0.058      7.261     10.530        519 1.2576e-01 0.0000e+00
      7.444    13.9884     6.0195     58.381  35.297386     45.253      6.488   192.5300     2.2928     4.3949     0.0245      0.079      7.291     10.575        520 1.2573e-01 0.0000e+00
      7.449    13.9879     5.8418     56.659  35.263312     45.194      6.488   190.6750     2.3090     4.6366     0.0244      0.097      7.304     10.593        521 1.2574e-01 0.0000e+00
      7.452    13.9896     5.6703     54.995  34.962344     44.878      6.488   189.4636     2.3090     4.5829     0.0243      0.106      7.310     10.603        522 1.2563e-01 0.0000e+00
      7.463    13.9880     5.4943     53.286  35.078774     44.879      6.490   187.4950     2.3049     4.6098     0.0243      0.106      7.323     10.621        523 1.2570e-01 0.0000e+00
      7.488    13.9818     5.2916     51.319  35.118417     45.199      6.489   187.2300     2.3009     4.5695     0.0244      0.099      7.346     10.654        524 1.2574e-01 0.0000e+00
      7.521    13.9741     5.0568     49.042  38.383231     48.750      6.486   188.9715     2.2402     4.8246     0.0260      0.090      7.375     10.696        525 1.2572e-01 0.0000e+00
      7.550    13.9690     4.8238     46.784  44.691013     57.866      6.485   188.1764     2.2564     4.7709     0.0299      0.080      7.401     10.734        526 1.2585e-01 0.0000e+00
      7.569    13.9675     4.5824     44.443  45.127647     57.698      6.485   186.7757     2.2321     4.8112     0.0299      0.074      7.419     10.760        527 1.2566e-01 0.0000e+00
      7.576    13.9687     4.3750     42.433  43.387423     55.661      6.486   186.4729     2.2604     4.8112     0.0290      0.075      7.429     10.776        528 1.2565e-01 0.0000e+00
      7.584    13.9704     4.2346     41.071  40.863295     52.685      6.485   186.2079     2.1755     4.9992     0.0277      0.077      7.444     10.796        529 1.2570e-01 0.0000e+00
      7.613    13.9705     4.1593     40.342  40.881302     51.751      6.484   186.1322     2.1472     5.0663     0.0273      0.080      7.471     10.836        530 1.2565e-01 0.0000e+00
      7.659    13.9712     4.1752     40.496  47.964681     62.152      6.477   185.7536     2.1715     4.9723     0.0318      0.086      7.510     10.891        531 1.2570e-01 0.0000e+00
      7.700    13.9716     4.2348     41.074  51.840289     66.207      6.471   185.2614     2.1755     5.0663     0.0336      0.092      7.547     10.945        532 1.2571e-01 0.0000e+00
      7.728    13.9696     4.3443     42.137  51.608131     66.493      6.456   183.7093     2.1715     4.9992     0.0337      0.098      7.573     10.985        533 1.2576e-01 0.0000e+00
      7.743    13.9689     4.4567     43.227  50.390517     64.446      6.448   183.7093     2.0421     5.4020     0.0328      0.103      7.588     11.005        534 1.2575e-01 0.0000e+00
      7.741    13.9699     4.5433     44.069  50.387439     64.665      6.439   184.1636     2.0542     5.4826     0.0329      0.102      7.589     11.007        535 1.2571e-01 0.0000e+00
      7.733    13.9708     4.5884     44.510  48.376807     62.370      6.434   181.1729     2.0542     5.4154     0.0319      0.094      7.584     10.999        536 1.2569e-01 0.0000e+00
      7.726    13.9714     4.5840     44.475  44.998649     57.202      6.427   179.8100     2.1027     5.3617     0.0296      0.074      7.580     10.994        537 1.2575e-01 0.0000e+00
      7.731    13.9720     4.5361     44.019  46.015043     59.461      6.425   178.6743     1.8601     5.5900     0.0306      0.049      7.585     11.000        538 1.2579e-01 0.0000e+00
      7.746    13.9724     4.4232     42.931  46.340167     59.173      6.423   178.1821     1.8358     5.6571     0.0305      0.028      7.597     11.019        539 1.2582e-01 0.0000e+00
      7.764    13.9724     4.2005     40.773  46.107365     59.315      6.422   178.5607     1.8520     5.6169     0.0306      0.018      7.613     11.042        540 1.2594e-01 0.0000e+00
      7.779    13.9722     3.8906     37.768  47.640155     60.929      6.424   178.6743     1.8520     5.5900     0.0313      0.018      7.628     11.062        541 1.2576e-01 0.0000e+00
      7.790    13.9726     3.4818     33.799  48.557596     62.544      6.424   178.9771     1.9248     5.9257     0.0320      0.025      7.638     11.078        542 1.2571e-01 0.0000e+00
      7.797    13.9731     2.9598     28.730  48.704866     62.221      6.429   179.1286     1.9086     5.7377     0.0319      0.035      7.648     11.092        543 1.2582e-01 0.0000e+00
      7.808    13.9728     2.4146     23.436  48.614288     62.651      6.429   176.7057     1.9288     5.8854     0.0320      0.043      7.660     11.110        544 1.2572e-01 0.0000e+00
      7.829    13.9740     1.8853     18.298  49.590349     63.224      6.431   176.7814     1.8925     5.8048     0.0323      0.051      7.680     11.138        545 1.2571e-01 0.0000e+00
      7.856    13.9774     1.4236     13.819  53.218647     68.571      6.431   177.3493     1.8601     6.1137     0.0347      0.056      7.704     11.173        546 1.2576e-01 0.0000e+00
      7.882    13.9837     1.0551     10.243  57.515959     73.522      6.434   177.3871     1.8520     6.1405     0.0369      0.061      7.729     11.211        547 1.2577e-01 0.0000e+00
      7.908    13.9926     0.8540      8.291  62.976059     80.910      6.436   175.3050     1.8561     6.1674     0.0402      0.069      7.754     11.246        548 1.2567e-01 0.0000e+00
      7.929    14.0000     0.7815      7.587  68.487613     87.826      6.437   175.9864     1.8722     6.0868     0.0433      0.077      7.775     11.276        549 1.2564e-01 0.0000e+00
      7.948    14.0046     0.7644      7.420  72.814892     93.334      6.434   175.9486     1.9046     6.2480     0.0458      0.084      7.793     11.303        550 1.2571e-01 0.0000e+00
      7.964    14.0073     0.7739      7.509  75.237839     96.655      6.428   176.4786     1.9127     6.3017     0.0473      0.088      7.808     11.324        551 1.2568e-01 0.0000e+00
      7.973    14.0076     0.7275      7.054  74.207783     94.992      6.425   174.2071     1.9046     6.2211     0.0465      0.085      7.817     11.338        552 1.2573e-01 0.0000e+00
      7.978    14.0057     0.6469      6.266  72.640682     93.191      6.421   173.4500     1.9450     6.3420     0.0457      0.075      7.823     11.346        553 1.2574e-01 0.0000e+00
      7.981    14.0035     0.5341      5.169  70.591585     90.463      6.419   172.8821     1.8763     6.6911     0.0445      0.062      7.826     11.351        554 1.2575e-01 0.0000e+00
      7.981    14.0017     0.3618      3.499  67.933657     87.059      6.417   172.5035     1.8561     6.6642     0.0429      0.048      7.828     11.354        555 1.2582e-01 0.0000e+00
      7.984    14.0036     0.2079      2.010  66.798136     85.556      6.415   169.8157     1.8682     6.6642     0.0423      0.035      7.834     11.362        556 1.2559e-01 0.0000e+00
      7.999    14.0077     0.0487      0.470  71.321597     91.159      6.415   167.5442     1.8399     6.6642     0.0448      0.028      7.848     11.382        557 1.2558e-01 0.0000e+00
      8.022    14.0097    -0.0412     -0.398  78.943407    101.565      6.412   166.7492     1.8439     6.7582     0.0495      0.028      7.868     11.412        558 1.2565e-01 0.0000e+00
      8.049    14.0085    -0.0925     -0.894  83.077225    106.257      6.413   169.0585     1.8682     6.9731     0.0516      0.035      7.892     11.447        559 1.2563e-01 0.0000e+00
      8.072    14.0017    -0.1066     -1.030  86.953656    111.531      6.407   167.2414     1.8682     6.9194     0.0540      0.047      7.916     11.481        560 1.2569e-01 0.0000e+00
      8.095    13.9855    -0.0912     -0.881  90.679604    116.275      6.398   167.5064     1.8439     6.9328     0.0562      0.060      7.940     11.516        561 1.2575e-01 0.0000e+00
      8.123    13.9508    -0.0660     -0.638  94.349478    120.751      6.386   169.3614     1.8520     6.9462     0.0582      0.074      7.966     11.553        562 1.2572e-01 0.0000e+00
      8.150    13.9046    -0.0227     -0.219  99.548487    127.882      6.376   168.7557     2.2200     6.0197     0.0615      0.087      7.993     11.593        563 1.2573e-01 0.0000e+00
      8.178    13.8635     0.0177      0.171 102.356113    131.308      6.358   169.4371     2.2321     6.0331     0.0631      0.097      8.020     11.632        564 1.2570e-01 0.0000e+00
      8.205    13.8332     0.0494      0.475 103.351454    132.871      6.337   169.0585     2.2604     6.0734     0.0638      0.101      8.045     11.668        565 1.2555e-01 0.0000e+00
      8.226    13.8143     0.0757      0.729 104.171887    133.985      6.317   168.6043     2.2483     6.0868     0.0643      0.101      8.064     11.696        566 1.2569e-01 0.0000e+00
      8.238    13.8054     0.0938      0.902 104.162200    134.163      6.302   167.5442     2.1149     6.3151     0.0643      0.098      8.076     11.714        567 1.2572e-01 0.0000e+00
      8.243    13.8031     0.1306      1.255 103.542106    133.324      6.299   165.3485     2.1229     6.2614     0.0639      0.090      8.084     11.725        568 1.2568e-01 0.0000e+00
      8.250    13.8019     0.1437      1.378 103.515177    133.356      6.295   156.8306     2.1149     6.3285     0.0640      0.079      8.096     11.743        569 1.2577e-01 0.0000e+00
      8.276    13.7919     0.1638      1.571 104.225486    134.302      6.289   148.2749     2.1229     6.3151     0.0644      0.070      8.121     11.778        570 1.2567e-01 0.0000e+00
      8.317    13.7735     0.1769      1.696 105.009140    135.282      6.278   143.4292     2.1108     6.0600     0.0648      0.070      8.158     11.832        571 1.2559e-01 0.0000e+00
      8.362    13.7443     0.1879      1.800 106.081423    136.725      6.270   138.2806     2.0866     6.0868     0.0655      0.078      8.197     11.888        572 1.2566e-01 0.0000e+00
      8.395    13.7054     0.1993      1.908 108.188744    139.433      6.268   135.0249     2.0866     6.0197     0.0668      0.089      8.229     11.934        573 1.2578e-01 0.0000e+00
      8.415    13.6636     0.2037      1.951 110.184908    142.321      6.273   118.4055     2.1149     6.0734     0.0681      0.100      8.252     11.968        574 1.2591e-01 0.0000e+00
      8.434    13.6249     0.2129      2.039 112.259398    144.791      6.277   103.4141     2.1149     6.7179     0.0692      0.110      8.272     11.997        575 1.2562e-01 0.0000e+00
      8.455    13.5968     0.2119      2.027 113.883116    147.587      6.285    95.6533     2.1351     6.6642     0.0705      0.115      8.294     12.030        576 1.2558e-01 0.0000e+00
      8.483    13.5635     0.2131      2.034 115.130941    148.617      6.296    88.3847     2.1027     6.8657     0.0709      0.115      8.324     12.074        577 1.2578e-01 0.0000e+00
      8.528    13.5156     0.2187      2.084 117.673991    152.822      6.302    83.5390     2.1270     6.7448     0.0729      0.113      8.364     12.131        578 1.2566e-01 0.0000e+00
      8.577    13.4614     0.2221      2.113 121.081285    156.529      6.313    79.3369     2.2321     7.0939     0.0746      0.115      8.404     12.189        579 1.2567e-01 0.0000e+00
      8.603    13.4359     0.2246      2.135 123.309644    160.650      6.327    73.9611     2.2443     7.0268     0.0765      0.117      8.432     12.229        580 1.2568e-01 0.0000e+00
      8.614    13.4286     0.2271      2.158 122.406512    158.624      6.335    67.9040     2.2523     7.1074     0.0755      0.118      8.447     12.251        581 1.2572e-01 0.0000e+00
      8.626    13.4015     0.2294      2.181 122.949848    160.223      6.345    62.5661     2.2443     7.0939     0.0763      0.116      8.458     12.267        582 1.2575e-01 0.0000e+00
      8.635    13.3847     0.2313      2.198 125.165489    162.621      6.359    61.6197     2.3817     6.2614     0.0774      0.108      8.466     12.279        583 1.2560e-01 0.0000e+00
      8.639    13.3939     0.2285      2.169 124.981313    163.036      6.368    59.8025     2.3575     6.2883     0.0776      0.093      8.472     12.289        584 1.2555e-01 0.0000e+00
      8.645    13.3857     0.2238      2.124 123.953587    161.096      6.381    55.2218     2.3656     6.2883     0.0767      0.073      8.480     12.300        585 1.2569e-01 0.0000e+00
      8.658    13.3292     0.2208      2.093 128.351397    167.124      6.388    52.5718     2.3898     6.3554     0.0795      0.053      8.496     12.323        586 1.2571e-01 0.0000e+00
      8.689    13.2452     0.2216      2.101 137.744299    179.407      6.398    46.5146     2.3656     5.3349     0.0852      0.045      8.524     12.364        587 1.2566e-01 0.0000e+00
      8.731    13.1593     0.2083      1.976 145.047846    189.354      6.408    44.6975     2.3736     5.2274     0.0898      0.053      8.564     12.421        588 1.2582e-01 0.0000e+00
      8.779    13.0934     0.2055      1.950 149.938439    195.867      6.420    40.8360     2.3494     5.3080     0.0929      0.072      8.607     12.483        589 1.2578e-01 0.0000e+00
      8.819    13.0541     0.2060      1.955 153.785445    201.688      6.426    40.4196     2.3736     5.2140     0.0956      0.094      8.643     12.535        590 1.2556e-01 0.0000e+00
      8.841    13.0425     0.2010      1.907 155.472615    203.958      6.437    38.5646     2.5799     3.7504     0.0966      0.111      8.665     12.567        591 1.2575e-01 0.0000e+00
      8.847    13.0505     0.1927      1.827 153.924346    202.465      6.453    33.2267     2.5758     3.6967     0.0959      0.120      8.680     12.589        592 1.2574e-01 0.0000e+00
      8.866    13.0360     0.1950      1.847 153.146715    200.835      6.463    28.7974     2.5718     3.6832     0.0951      0.121      8.704     12.624        593 1.2569e-01 0.0000e+00
      8.912    12.9989     0.1898      1.798 155.754341    205.027      6.475    27.1317     2.5839     3.7235     0.0971      0.121      8.749     12.689        594 1.2576e-01 0.0000e+00
      8.987    12.9634     0.1895      1.795 156.765282    205.851      6.495    24.5953     2.5718     3.6967     0.0975      0.127      8.810     12.778        595 1.2577e-01 0.0000e+00
      9.052    12.9376     0.1911      1.811 157.437839    207.200      6.519    23.4595     2.6324     2.7567     0.0981      0.138      8.863     12.855        596 1.2589e-01 0.0000e+00
      9.074    12.9349     0.1877      1.779 158.229344    208.467      6.541    16.6452     2.6607     2.7164     0.0987      0.146      8.888     12.891        597 1.2581e-01 0.0000e+00
      9.064    12.9488     0.1818      1.724 156.884343    206.685      6.564     6.2724     2.6769     2.6224     0.0978      0.144      8.886     12.889        598 1.2572e-01 0.0000e+00
      9.047    12.9628     0.1823      1.729 155.799812    205.364      6.582     1.8052     2.6082     2.6896     0.0972      0.133      8.877     12.875        599 1.2572e-01 0.0000e+00
      9.045    12.9664     0.1832      1.737 155.491434    204.805      6.595    -2.6620     2.6122     2.2330     0.0970      0.113      8.881     12.880        600 1.2568e-01 0.0000e+00
      9.073    12.9498     0.1904      1.804 156.044829    205.508      6.611    -3.1541     2.6163     2.2733     0.0973      0.089      8.912     12.926        601 1.2567e-01 0.0000e+00
      9.146    12.9223     0.1857      1.759 158.781032    208.966      6.630    -4.2898     2.6163     2.2196     0.0989      0.075      8.976     13.018        602 1.2569e-01 0.0000e+00
      9.240    12.9014     0.1844      1.746 161.933110    213.543      6.658    -7.9620     2.6486     2.1927     0.1011      0.083      9.053     13.130        603 1.2573e-01 0.0000e+00
      9.306    12.8886     0.1828      1.731 162.745498    214.441      6.678    -8.7191     2.6244     2.5016     0.1015      0.112      9.114     13.218        604 1.2562e-01 0.0000e+00
      9.336    12.8864     0.1816      1.720 162.992575    215.079      6.699   -12.7320     2.6163     2.3404     0.1018      0.148      9.141     13.258        605 1.2564e-01 0.0000e+00
      9.323    12.8953     0.1826      1.730 162.252423    214.149      6.710   -23.1427     2.6324     2.4747     0.1013      0.169      9.136     13.249        606 1.2575e-01 0.0000e+00
      9.288    12.9130     0.1739      1.648 161.100018    212.457      6.729   -25.0734     2.6163     2.4747     0.1005      0.162      9.111     13.214        607 1.2573e-01 0.0000e+00
      9.261    12.9348     0.1720      1.629 159.233999    210.361      6.739   -23.3699     2.7376     2.5284     0.0995      0.128      9.094     13.189        608 1.2582e-01 0.0000e+00
      9.271    12.9403     0.1695      1.605 157.084590    206.746      6.754   -24.0134     2.7538     2.4613     0.0979      0.082      9.105     13.205        609 1.2583e-01 0.0000e+00
      9.320    12.9248     0.1641      1.553 159.090058    209.880      6.765   -24.6192     2.7821     2.3539     0.0993      0.042      9.147     13.267        610 1.2572e-01 0.0000e+00
      9.392    12.9011     0.1683      1.592 162.497446    214.004      6.782   -26.7013     2.7699     2.4747     0.1013      0.030      9.210     13.358        611 1.2577e-01 0.0000e+00
      9.462    12.8791     0.1677      1.587 164.631898    217.168      6.797   -27.7613     2.5920     2.9984     0.1028      0.050      9.271     13.447        612 1.2565e-01 0.0000e+00
      9.508    12.8688     0.1638      1.550 165.506743    218.272      6.810   -27.1935     2.6163     2.8776     0.1033      0.090      9.310     13.503        613 1.2551e-01 0.0000e+00
      9.509    12.8732     0.1628      1.540 164.960577    217.803      6.820   -30.6763     2.6405     2.9447     0.1031      0.126      9.316     13.512        614 1.2574e-01 0.0000e+00
      9.481    12.8858     0.1595      1.508 163.908779    216.343      6.833   -33.0235     2.6324     2.8910     0.1024      0.140      9.302     13.492        615 1.2584e-01 0.0000e+00
      9.469    12.8971     0.1613      1.523 162.726609    214.865      6.838   -32.3042     2.6405     2.6896     0.1017      0.128      9.297     13.484        616 1.2574e-01 0.0000e+00
      9.489    12.8965     0.1636      1.545 162.044352    213.758      6.850   -33.3642     2.6527     2.6896     0.1011      0.101      9.318     13.514        617 1.2562e-01 0.0000e+00
      9.545    12.8856     0.1574      1.486 163.683388    215.879      6.859   -37.2635     2.6567     2.6761     0.1022      0.077      9.366     13.585        618 1.2572e-01 0.0000e+00
      9.618    12.8692     0.1591      1.501 164.626535    217.444      6.868   -39.1185     2.6527     2.6761     0.1029      0.070      9.426     13.672        619 1.2580e-01 0.0000e+00
      9.672    12.8466     0.1593      1.504 165.049143    217.394      6.881   -38.8535     2.5718     2.9850     0.1029      0.082      9.474     13.741        620 1.2570e-01 0.0000e+00
      9.693    12.8303     0.1569      1.481 169.605328    224.174      6.895   -40.8221     2.5960     2.9313     0.1061      0.103      9.499     13.776        621 1.2566e-01 0.0000e+00
      9.693    12.8378     0.1563      1.476 176.421763    232.784      6.898   -44.4942     2.5880     2.9715     0.1101      0.125      9.505     13.786        622 1.2571e-01 0.0000e+00
      9.693    12.8450     0.1607      1.518 167.016186    222.251      6.904   -46.4628     2.5677     2.9178     0.1051      0.134      9.508     13.790        623 1.2578e-01 0.0000e+00
      9.701    12.8195     0.1567      1.480 173.875418    225.738      6.908   -47.4849     2.7942     2.6761     0.1068      0.125      9.515     13.800        624 1.2574e-01 0.0000e+00
      9.713    12.7783 -9.990e-29 -9.990e-29 228.407780    304.601      6.912   -49.3021     2.7740     2.7433     0.1444      0.100      9.525     13.815        625 1.2561e-01 0.0000e+00
      9.723    12.7443 -9.990e-29 -9.990e-29 278.380737    366.630      6.915   -49.7942     2.7618     2.7433     0.1743      0.069      9.534     13.828        626 1.2557e-01 0.0000e+00
      9.729    12.7230 -9.990e-29 -9.990e-29 303.463743    403.394      6.919   -49.1128     2.7659     2.6493     0.1921      0.042      9.541     13.838        627 1.2568e-01 0.0000e+00
      9.735    12.7097 -9.990e-29 -9.990e-29 312.883941    413.445      6.920   -50.0971     2.6971     2.5956     0.1970      0.029      9.547     13.847        628 1.2559e-01 0.0000e+00
      9.742    12.7016 -9.990e-29 -9.990e-29 319.176317    423.474      6.924   -50.6650     2.6971     2.6493     0.2018      0.027      9.552     13.855        629 1.2568e-01 0.0000e+00
      9.746    12.6999 -9.990e-29 -9.990e-29 319.654887    424.339      6.927   -50.2485     2.6931     2.6896     0.2023      0.029      9.556     13.860        630 1.2575e-01 0.0000e+00
      9.747    12.7060 -9.990e-29 -9.990e-29 312.048155    412.896      6.926   -49.8699     2.7214     2.5956     0.1967      0.027      9.558     13.863        631 1.2573e-01 0.0000e+00
      9.748    12.7120 -9.990e-29 -9.990e-29 308.648248    410.282      6.926   -49.3778     2.7093     2.5821     0.1954      0.023      9.559     13.865        632 1.2584e-01 0.0000e+00
      9.750    12.7178 -9.990e-29 -9.990e-29 302.452532    400.231      6.931   -49.7564     2.6769     2.5016     0.1905      0.018      9.562     13.868        633 1.2585e-01 0.0000e+00
      9.753    12.7236 -9.990e-29 -9.990e-29 302.627562    401.356      6.935   -50.0214     2.7012     2.4210     0.1911      0.014      9.565     13.873        634 1.2572e-01 0.0000e+00
      9.758 -9.990e-29 -9.990e-29 -9.990e-29 299.264478    397.449      6.937   -51.7628     2.6971     2.4747     0.1892      0.012      9.568     13.877        635 1.2564e-01 0.0000e+00
      9.759 -9.990e-29 -9.990e-29 -9.990e-29 291.587172    385.093      6.939   -51.0435     2.6810     2.4479     0.1832      0.010      9.569     13.879        636 1.2568e-01 0.0000e+00
