* Sea-Bird SBE19plus  Data File:
* FileName = C:\DATA\102319_fcr_0001.hex
* Software version 2.8.0.119 SB_Terminal.dll
* Temperature SN = 7809
* Conductivity SN = 7809
* System UpLoad Time = Oct 23 2019 15:55:40
* <ApplicationData>
* <Seaterm232>
* <SoftwareVersion>2.8.0.119</SoftwareVersion>
* <BuildDate>07-Nov-2018</BuildDate>
* </Seaterm232>
* </ApplicationData>
* cast   1 23 Oct 2019 10:45:48 samples 1 to 398, avg = 1, stop = mag switch
# nquan = 16
# nvalues = 214                         
# units = specified
# name 0 = depFM: Depth [fresh water, m]
# name 1 = dz/dtM: Descent Rate [m/s]
# name 2 = sbeox0ML/L: Oxygen, SBE 43 [ml/l]
# name 3 = sbeox0PS: Oxygen, SBE 43 [% saturation]
# name 4 = specc: Specific Conductance [uS/cm]
# name 5 = c0uS/cm: Conductivity [uS/cm]
# name 6 = flECO-AFL: Fluorescence, WET Labs ECO-AFL/FL [mg/m^3]
# name 7 = ph: pH
# name 8 = orp: Oxidation Reduction Potential [mV]
# name 9 = par/sat/log: PAR/Logarithmic, Satlantic
# name 10 = turbWETntu0: Turbidity, WET Labs ECO [NTU]
# name 11 = prdM: Pressure, Strain Gauge [db]
# name 12 = prdE: Pressure, Strain Gauge [psi]
# name 13 = tv290C: Temperature [ITS-90, deg C]
# name 14 = density00: Density [density, kg/m^3]
# name 15 = flag:  0.000e+00
# span 0 =     -0.560,      2.310       
# span 1 =     -0.003,      0.189       
# span 2 =     4.4016,     7.2280       
# span 3 =     61.541,    100.799       
# span 4 =     27.394,     42.243       
# span 5 =  21.341949,  33.273047       
# span 6 =    -0.2041,     4.2041       
# span 7 =      7.469,      8.765       
# span 8 =   193.5921,   287.4376       
# span 9 = 9.8338e+00, 1.3127e+03       
# span 10 =    -4.7896,     9.0479      
# span 11 =     -0.551,      2.266      
# span 12 =     -0.800,      3.286      
# span 13 =    13.7969,    14.3812      
# span 14 =   999.2107,   999.2780      
# span 15 = 0.0000e+00, 0.0000e+00      
# interval = seconds: 0.25
# start_time = Oct 23 2019 10:45:48 [Instrument's time stamp, header]
# bad_flag = -9.990e-29
# <Sensors count="9" >
#   <sensor Channel="1" >
#     <!-- Count, Temperature -->
#     <TemperatureSensor SensorID="58" >
#       <SerialNumber>7809</SerialNumber>
#       <CalibrationDate>24-Mar-19</CalibrationDate>
#       <A0>1.21792325e-003</A0>
#       <A1>2.81669265e-004</A1>
#       <A2>-1.60333336e-006</A2>
#       <A3>1.98414625e-007</A3>
#       <Slope>1.00000000</Slope>
#       <Offset>0.0000</Offset>
#     </TemperatureSensor>
#   </sensor>
#   <sensor Channel="2" >
#     <!-- Frequency 0, Conductivity -->
#     <ConductivitySensor SensorID="3" >
#       <SerialNumber>7809</SerialNumber>
#       <CalibrationDate>24-Mar-19</CalibrationDate>
#       <UseG_J>1</UseG_J>
#       <!-- Cell const and series R are applicable only for wide range sensors. -->
#       <SeriesR>0.0000</SeriesR>
#       <CellConst>2000.0000</CellConst>
#       <ConductivityType>0</ConductivityType>
#       <Coefficients equation="0" >
#         <A>0.00000000e+000</A>
#         <B>0.00000000e+000</B>
#         <C>0.00000000e+000</C>
#         <D>0.00000000e+000</D>
#         <M>0.0</M>
#         <CPcor>-9.57000000e-008</CPcor>
#       </Coefficients>
#       <Coefficients equation="1" >
#         <G>-1.00589325e+000</G>
#         <H>1.26816302e-001</H>
#         <I>-1.51560448e-004</I>
#         <J>2.67137274e-005</J>
#         <CPcor>-9.57000000e-008</CPcor>
#         <CTcor>3.2500e-006</CTcor>
#         <!-- WBOTC not applicable unless ConductivityType = 1. -->
#         <WBOTC>0.00000000e+000</WBOTC>
#       </Coefficients>
#       <Slope>1.00000000</Slope>
#       <Offset>0.00000</Offset>
#     </ConductivitySensor>
#   </sensor>
#   <sensor Channel="3" >
#     <!-- Count, Pressure, Strain Gauge -->
#     <PressureSensor SensorID="46" >
#       <SerialNumber>7809</SerialNumber>
#       <CalibrationDate>11-Mar-19</CalibrationDate>
#       <PA0>4.56561833e-002</PA0>
#       <PA1>4.85095118e-004</PA1>
#       <PA2>-2.88327090e-012</PA2>
#       <PTEMPA0>-5.48784562e+001</PTEMPA0>
#       <PTEMPA1>5.53756816e+001</PTEMPA1>
#       <PTEMPA2>-5.86727098e-001</PTEMPA2>
#       <PTCA0>5.25246745e+005</PTCA0>
#       <PTCA1>1.22304214e+001</PTCA1>
#       <PTCA2>-3.56745036e-001</PTCA2>
#       <PTCB0>2.51668750e+001</PTCB0>
#       <PTCB1>3.75000000e-004</PTCB1>
#       <PTCB2>0.00000000e+000</PTCB2>
#       <Offset>0.000000</Offset>
#     </PressureSensor>
#   </sensor>
#   <sensor Channel="4" >
#     <!-- A/D voltage 0, Oxygen, SBE 43 -->
#     <OxygenSensor SensorID="38" >
#       <SerialNumber>0434</SerialNumber>
#       <CalibrationDate>13-Apr-19</CalibrationDate>
#       <Use2007Equation>1</Use2007Equation>
#       <CalibrationCoefficients equation="0" >
#         <!-- Coefficients for Owens-Millard equation. -->
#         <Boc>0.0000</Boc>
#         <Soc>0.0000e+000</Soc>
#         <offset>0.0000</offset>
#         <Pcor>0.00e+000</Pcor>
#         <Tcor>0.0000</Tcor>
#         <Tau>0.0</Tau>
#       </CalibrationCoefficients>
#       <CalibrationCoefficients equation="1" >
#         <!-- Coefficients for Sea-Bird equation - SBE calibration in 2007 and later. -->
#         <Soc>4.2007e-001</Soc>
#         <offset>-0.6109</offset>
#         <A>-4.3656e-003</A>
#         <B> 1.7017e-004</B>
#         <C>-2.5341e-006</C>
#         <D0> 2.5826e+000</D0>
#         <D1> 1.92634e-004</D1>
#         <D2>-4.64803e-002</D2>
#         <E> 3.6000e-002</E>
#         <Tau20> 1.1800</Tau20>
#         <H1>-3.3000e-002</H1>
#         <H2> 5.0000e+003</H2>
#         <H3> 1.4500e+003</H3>
#       </CalibrationCoefficients>
#     </OxygenSensor>
#   </sensor>
#   <sensor Channel="5" >
#     <!-- A/D voltage 1, PAR/Logarithmic, Satlantic -->
#     <PARLog_SatlanticSensor SensorID="76" >
#       <SerialNumber>1122</SerialNumber>
#       <CalibrationDate>08-May-2019</CalibrationDate>
#       <a0>9.7456e-001</a0>
#       <a1>8.1640e-001</a1>
#       <Im>1.3589e+000</Im>
#       <Multiplier>1.0000e+000</Multiplier>
#     </PARLog_SatlanticSensor>
#   </sensor>
#   <sensor Channel="6" >
#     <!-- A/D voltage 2, pH -->
#     <pH_Sensor SensorID="43" >
#       <SerialNumber>0363</SerialNumber>
#       <CalibrationDate>15-Apr-19</CalibrationDate>
#       <Slope>4.5952</Slope>
#       <Offset>2.5370</Offset>
#     </pH_Sensor>
#   </sensor>
#   <sensor Channel="7" >
#     <!-- A/D voltage 3, Oxidation Reduction Potential -->
#     <OxidationReductionPotentialSensor SensorID="41" >
#       <SerialNumber>0363</SerialNumber>
#       <CalibrationDate>15-Apr-19</CalibrationDate>
#       <B>2.499480</B>
#       <M>-0.496195</M>
#       <Offset>0.0</Offset>
#     </OxidationReductionPotentialSensor>
#   </sensor>
#   <sensor Channel="8" >
#     <!-- A/D voltage 4, Fluorometer, WET Labs ECO-AFL/FL -->
#     <FluoroWetlabECO_AFL_FL_Sensor SensorID="20" >
#       <SerialNumber>FLNTURT-2496</SerialNumber>
#       <CalibrationDate>08-May-2019</CalibrationDate>
#       <ScaleFactor>5.00000000e+001</ScaleFactor>
#       <!-- Dark output -->
#       <Vblank>0.0550</Vblank>
#     </FluoroWetlabECO_AFL_FL_Sensor>
#   </sensor>
#   <sensor Channel="9" >
#     <!-- A/D voltage 5, Turbidity Meter, WET Labs, ECO-NTU -->
#     <TurbidityMeter SensorID="67" >
#       <SerialNumber>FLNTURT-2496</SerialNumber>
#       <CalibrationDate>08-May-2019</CalibrationDate>
#       <ScaleFactor>189.000000</ScaleFactor>
#       <!-- Dark output -->
#       <DarkVoltage>0.071000</DarkVoltage>
#     </TurbidityMeter>
#   </sensor>
# </Sensors>
# datcnv_date = Oct 23 2019 16:06:15, 7.26.7.129 [datcnv_vars = 15]
# datcnv_in = C:\DATA\102319_fcr10.hex C:\DATA\SBE19plusV2_7809.xmlcon
# datcnv_skipover = 0
# datcnv_ox_hysteresis_correction = yes
# datcnv_ox_tau_correction = yes
# filter_date = Oct 23 2019 16:06:38, 7.26.7.129
# filter_in = C:\DATA\102319_fcr10.cnv
# filter_low_pass_tc_A = 0.030
# filter_low_pass_tc_B = 0.150
# filter_low_pass_A_vars = sbeox0ML/L prdM prdE tv290C density00
# filter_low_pass_B_vars = depFM dz/dtM sbeox0PS specc c0uS/cm flECO-AFL ph orp par/sat/log turbWETntu0
# alignctd_date = Oct 23 2019 16:06:56, 7.26.7.129
# alignctd_in = C:\DATA\102319_fcr10.cnv
# alignctd_adv = dz/dtM 1.000, sbeox0PS 1.000, specc 1.000, c0uS/cm 1.000, flECO-AFL 1.000, ph 1.000, orp 1.000, turbWETntu0 1.000                                                                                                   
# file_type = ascii
*END*
     -0.560      0.062     6.9850     96.475     27.394  21.341949    -0.2041      7.698   287.4376 6.8895e+02    -4.7896     -0.551     -0.800    13.7969   999.2770 0.0000e+00
     -0.550      0.093     6.9816     96.475     37.170  29.020444    -0.1970      7.955   257.5961 6.6023e+02    -4.6960     -0.548     -0.795    13.7994   999.2765 0.0000e+00
     -0.520      0.122     6.9845     96.474     40.620  31.776556    -0.0772      8.137   247.2751 6.8761e+02    -2.4477     -0.518     -0.751    13.7975   999.2772 0.0000e+00
     -0.470      0.146     6.9867     96.495     40.942  32.079617     0.1518      8.282   241.2871 8.3018e+02     1.7475     -0.463     -0.670    13.8144   999.2780 0.0000e+00
     -0.415      0.164     6.9701     96.549     41.019  32.177112     0.2827      8.402   237.4222 9.7778e+02     4.0473     -0.402     -0.583    13.9080   999.2704 0.0000e+00
     -0.370      0.176     6.9524     96.596     41.083  32.257324     0.3008      8.486   234.0145 1.0617e+03     4.2202     -0.360     -0.523    14.0292   999.2576 0.0000e+00
     -0.332      0.182     6.9378     96.663     41.090  32.287964     0.3277      8.559   230.8001 1.0964e+03     4.2639     -0.327     -0.475    14.1191   999.2455 0.0000e+00
     -0.291      0.186     6.9285     96.820     40.993  32.230308     0.6247      8.629   228.9288 1.0824e+03     5.2959     -0.287     -0.416    14.1796   999.2370 0.0000e+00
     -0.245      0.189     6.9295     97.083     40.851  32.131375     1.1695      8.682   228.3388 1.0565e+03     7.1949     -0.243     -0.353    14.2207   999.2316 0.0000e+00
     -0.193      0.188     6.9258     97.438     40.809  32.107145     1.4617      8.715   227.7967 1.0611e+03     8.1839     -0.192     -0.277    14.2571   999.2267 0.0000e+00
     -0.135      0.180     6.9231     97.878     40.826  32.127737     1.4877      8.739   226.8489 1.0919e+03     8.2743     -0.134     -0.193    14.2888   999.2224 0.0000e+00
     -0.078      0.165     6.9310     98.379     40.821  32.126518     1.5099      8.755   225.4828 1.1186e+03     8.4852     -0.070     -0.102    14.3116   999.2195 0.0000e+00
     -0.035      0.145     6.9484     98.870     40.858  32.155870     1.5387      8.765   223.9261 1.1461e+03     8.7993     -0.025     -0.035    14.3255   999.2176 0.0000e+00
     -0.010      0.124     6.9723     99.314     40.953  32.228787     1.5506      8.765   222.7397 1.1981e+03     8.9590     -0.008     -0.011    14.3359   999.2162 0.0000e+00
      0.009      0.104     7.0022     99.719     41.060  32.310092     1.5493      8.747   222.1518 1.1142e+03     9.0063      0.006      0.009    14.3448   999.2151 0.0000e+00
      0.030      0.085     7.0406    100.123     41.148  32.377385     1.5747      8.717   221.6360 8.9378e+02     9.0434      0.029      0.042    14.3484   999.2146 0.0000e+00
      0.053      0.071     7.0766    100.545     41.188  32.407820     1.6322      8.687   221.0627 7.8006e+02     9.0479      0.053      0.077    14.3471   999.2149 0.0000e+00
      0.075      0.060     7.1079    100.799     41.208  32.424226     1.6632      8.663   220.3826 7.2459e+02     8.9947      0.076      0.110    14.3450   999.2153 0.0000e+00
      0.091      0.049     7.1376    100.545     41.238  32.448833     1.6642      8.646   219.5223 7.6913e+02     8.9249      0.094      0.136    14.3420   999.2159 0.0000e+00
      0.099      0.036     7.1636     99.495     41.238  32.451497     1.6356      8.633   218.9205 1.1351e+03     8.5974      0.099      0.144    14.3383   999.2165 0.0000e+00
      0.102      0.025     7.1998     97.524     41.239  32.456442     1.5768      8.623   218.6982 1.3127e+03     7.9838      0.100      0.145    14.3369   999.2167 0.0000e+00
      0.105      0.015     7.2280     94.757     41.299  32.508626     1.5513      8.617   218.5561 9.3328e+02     7.6668      0.102      0.148    14.3376   999.2166 0.0000e+00
      0.108      0.009     7.2166     91.482     41.378  32.574759     1.5617      8.611   218.2347 6.3248e+02     7.6491      0.106      0.153    14.3395   999.2164 0.0000e+00
      0.111      0.005     7.1452     87.968     41.434  32.621429     1.5632      8.606   217.7373 8.3221e+02     7.5735      0.109      0.158    14.3428   999.2160 0.0000e+00
      0.112      0.003     6.9995     84.522     41.441  32.628688     1.5443      8.602   217.1886 1.1769e+03     7.4739      0.111      0.160    14.3481   999.2152 0.0000e+00
      0.112      0.001     6.7915     81.497     41.404  32.599059     1.5332      8.598   216.7633 1.1839e+03     7.4600      0.111      0.161    14.3547   999.2143 0.0000e+00
      0.111      0.000     6.5505     79.078     41.380  32.580507     1.5410      8.593   216.5527 9.6676e+02     7.5044      0.109      0.158    14.3600   999.2135 0.0000e+00
      0.109     -0.002     6.2924     77.252     41.397  32.594765     1.5428      8.588   216.2765 7.8243e+02     7.4860      0.107      0.155    14.3632   999.2131 0.0000e+00
      0.109     -0.003     6.0339     75.914     41.458  32.644529     1.5556      8.583   215.7471 7.1521e+02     7.4013      0.106      0.154    14.3645   999.2129 0.0000e+00
      0.110     -0.003     5.8133     74.885     41.574  32.737966     1.5911      8.576   215.3145 7.2749e+02     7.3652      0.108      0.156    14.3637   999.2130 0.0000e+00
      0.110     -0.002     5.6422     74.030     41.697  32.836034     1.6168      8.569   215.2608 7.1518e+02     7.3771      0.109      0.158    14.3637   999.2130 0.0000e+00
      0.109     -0.002     5.5131     73.354     41.750  32.878327     1.6246      8.561   215.4419 7.3253e+02     7.4143      0.106      0.155    14.3655   999.2127 0.0000e+00
      0.107     -0.003     5.4223     72.813     41.738  32.868554     1.6328      8.553   215.4391 7.6972e+02     7.5532      0.104      0.151    14.3676   999.2124 0.0000e+00
      0.106     -0.003     5.3538     72.327     41.708  32.844798     1.6468      8.546   214.9696 8.0528e+02     7.7462      0.104      0.151    14.3698   999.2122 0.0000e+00
      0.106     -0.003     5.2893     71.923     41.708  32.844946     1.6637      8.540   214.1528 8.2693e+02     7.8458      0.105      0.152    14.3716   999.2120 0.0000e+00
      0.105     -0.003     5.2424     71.669     41.739  32.870346     1.6811      8.535   213.6509 7.9398e+02     7.8406      0.104      0.151    14.3726   999.2118 0.0000e+00
      0.104     -0.002     5.2077     71.604     41.774  32.898050     1.6752      8.529   213.8915 8.4186e+02     7.7817      0.102      0.148    14.3724   999.2118 0.0000e+00
      0.103     -0.001     5.1708     71.754     41.809  32.926068     1.6358      8.522   214.1365 9.9952e+02     7.6907      0.101      0.146    14.3720   999.2119 0.0000e+00
      0.103     -0.000     5.1400     72.106     41.845  32.955259     1.6032      8.514   213.9460 9.9660e+02     7.6255      0.100      0.145    14.3718   999.2119 0.0000e+00
      0.104      0.001     5.1212     72.576     41.897  32.997149     1.6022      8.509   213.7385 7.9534e+02     7.6160      0.101      0.147    14.3720   999.2119 0.0000e+00
      0.105      0.001     5.1157     73.090     41.965  33.051773     1.6150      8.504   213.6939 6.3351e+02     7.6079      0.103      0.149    14.3731   999.2118 0.0000e+00
      0.106      0.001     5.1255     73.567     42.035  33.108009     1.6194      8.497   213.6642 6.2867e+02     7.5939      0.105      0.151    14.3743   999.2116 0.0000e+00
      0.106      0.000     5.1544     73.911     42.111  33.169394     1.6119      8.490   213.4660 6.2541e+02     7.6098      0.105      0.152    14.3751   999.2115 0.0000e+00
      0.105     -0.001     5.1892     74.111     42.178  33.222807     1.6104      8.485   213.1897 5.4216e+02     7.6692      0.103      0.149    14.3757   999.2114 0.0000e+00
      0.104     -0.001     5.2270     74.171     42.207  33.246110     1.6446      8.479   213.0772 5.8171e+02     7.8853      0.102      0.147    14.3766   999.2113 0.0000e+00
      0.104     -0.001     5.2655     74.085     42.227  33.260763     1.7046      8.473   213.0525 8.2570e+02     8.1583      0.101      0.147    14.3781   999.2111 0.0000e+00
      0.104     -0.001     5.2886     73.908     42.243  33.273047     1.7289      8.466   212.9770 1.0177e+03     8.2502      0.102      0.147    14.3797   999.2109 0.0000e+00
      0.104      0.000     5.3026     73.703     42.238  33.267703     1.7216      8.461   212.7667 9.9263e+02     8.2762      0.102      0.148    14.3807   999.2108 0.0000e+00
      0.104      0.000     5.3081     73.498     42.228  33.259611     1.7214      8.456   212.4885 9.1806e+02     8.3086      0.102      0.148    14.3812   999.2107 0.0000e+00
      0.104     -0.001     5.2997     73.309     42.202  33.238678     1.7086      8.451   212.3666 8.9458e+02     8.2149      0.103      0.149    14.3807   999.2108 0.0000e+00
      0.104     -0.001     5.2855     73.149     42.160  33.204996     1.6794      8.447   212.2381 8.5047e+02     8.0282      0.102      0.148    14.3797   999.2110 0.0000e+00
      0.103     -0.000     5.2705     72.995     42.117  33.169674     1.6629      8.443   211.8814 7.7191e+02     7.8862      0.101      0.146    14.3790   999.2110 0.0000e+00
      0.103      0.001     5.2554     72.816     42.066  33.128922     1.6651      8.438   211.4094 7.2690e+02     7.8424      0.100      0.145    14.3784   999.2111 0.0000e+00
      0.103      0.003     5.2417     72.614     42.021  33.093041     1.6541      8.433   211.1781 7.2422e+02     7.9244      0.101      0.146    14.3776   999.2112 0.0000e+00
      0.103      0.005     5.2307     72.405     41.971  33.053159     1.6255      8.428   211.3211 7.9236e+02     8.0586      0.101      0.147    14.3764   999.2114 0.0000e+00
      0.105      0.006     5.2214     72.204     41.940  33.027486     1.6144      8.423   211.5039 9.3075e+02     8.0883      0.102      0.149    14.3750   999.2116 0.0000e+00
      0.108      0.006     5.2080     71.999     41.952  33.036491     1.6150      8.418   211.4094 9.3496e+02     8.0221      0.107      0.156    14.3742   999.2117 0.0000e+00
      0.111      0.005     5.1935     71.785     41.950  33.035106     1.5981      8.417   211.1258 8.7508e+02     7.8807      0.110      0.160    14.3736   999.2118 0.0000e+00
      0.112      0.003     5.1780     71.588     41.919  33.010739     1.5663      8.418   210.9139 9.0884e+02     7.6897      0.111      0.161    14.3727   999.2119 0.0000e+00
      0.112      0.001     5.1639     71.393     41.902  32.995728     1.5518      8.418   210.8255 8.9117e+02     7.6131      0.111      0.161    14.3719   999.2120 0.0000e+00
      0.111     -0.001     5.1506     71.200     41.884  32.980528     1.5606      8.417   210.8320 8.6565e+02     7.6422      0.109      0.158    14.3711   999.2121 0.0000e+00
      0.109     -0.002     5.1327     71.015     41.851  32.953884     1.5951      8.415   210.8210 8.6848e+02     7.6487      0.107      0.156    14.3708   999.2122 0.0000e+00
      0.109     -0.002     5.1208     70.812     41.818  32.927439     1.6565      8.411   210.6921 8.5067e+02     7.6584      0.106      0.154    14.3705   999.2122 0.0000e+00
      0.109     -0.002     5.1065     70.592     41.802  32.914631     1.6868      8.406   210.4777 8.5319e+02     7.6617      0.107      0.155    14.3695   999.2123 0.0000e+00
      0.109     -0.001     5.0916     70.374     41.816  32.925942     1.6761      8.401   210.3788 8.3825e+02     7.6225      0.108      0.156    14.3685   999.2125 0.0000e+00
      0.109     -0.001     5.0808     70.170     41.831  32.937270     1.6825      8.393   210.3571 7.9948e+02     7.7089      0.107      0.155    14.3675   999.2126 0.0000e+00
      0.109     -0.001     5.0652     70.010     41.815  32.924672     1.7125      8.384   210.1301 8.4030e+02     7.9208      0.107      0.155    14.3665   999.2127 0.0000e+00
      0.108     -0.001     5.0494     69.911     41.785  32.900545     1.7269      8.376   209.8707 9.1989e+02     8.0209      0.106      0.153    14.3662   999.2127 0.0000e+00
      0.108     -0.001     5.0338     69.846     41.785  32.899400     1.7269      8.368   209.7161 8.9689e+02     8.0339      0.106      0.153    14.3660   999.2128 0.0000e+00
      0.108     -0.001     5.0182     69.783     41.800  32.910835     1.7292      8.360   209.5513 8.3543e+02     8.0461      0.106      0.153    14.3659   999.2128 0.0000e+00
      0.107     -0.000     5.0058     69.688     41.802  32.911874     1.7113      8.352   209.5131 8.3083e+02     7.8409      0.105      0.152    14.3657   999.2128 0.0000e+00
      0.107      0.001     5.0000     69.531     41.802  32.911959     1.6842      8.343   209.6837 8.4624e+02     7.4526      0.105      0.152    14.3652   999.2129 0.0000e+00
      0.107      0.001     4.9963     69.311     41.803  32.911862     1.6785      8.336   209.8073 8.3326e+02     7.2506      0.105      0.153    14.3649   999.2129 0.0000e+00
      0.108      0.002     4.9923     69.006     41.803  32.910710     1.6765      8.328   209.8028 7.8926e+02     7.2346      0.106      0.154    14.3643   999.2130 0.0000e+00
      0.109      0.002     4.9872     68.617     41.788  32.898027     1.6521      8.320   209.8016 7.5244e+02     7.3903      0.107      0.155    14.3636   999.2131 0.0000e+00
      0.110      0.001     4.9749     68.189     41.773  32.885439     1.6186      8.314   209.7068 7.8589e+02     7.7235      0.108      0.156    14.3630   999.2132 0.0000e+00
      0.110      0.001     4.9606     67.739     41.774  32.885439     1.6082      8.309   209.6037 8.3946e+02     7.9205      0.108      0.157    14.3622   999.2133 0.0000e+00
      0.110      0.000     4.9393     67.284     41.792  32.898016     1.6140      8.305   209.6731 8.3309e+02     7.9374      0.108      0.156    14.3611   999.2135 0.0000e+00
      0.110      0.000     4.9091     66.857     41.810  32.910587     1.6279      8.302   209.6861 8.1292e+02     7.8951      0.107      0.156    14.3600   999.2136 0.0000e+00
      0.110     -0.001     4.8791     66.451     41.811  32.910501     1.6455      8.300   209.6738 8.3933e+02     7.7693      0.108      0.156    14.3587   999.2138 0.0000e+00
      0.110     -0.001     4.8468     66.055     41.796  32.896967     1.6536      8.299   209.6968 8.2766e+02     7.6613      0.108      0.156    14.3574   999.2140 0.0000e+00
      0.109     -0.001     4.8126     65.674     41.768  32.873880     1.6656      8.297   209.5336 7.6645e+02     7.6713      0.107      0.156    14.3560   999.2143 0.0000e+00
      0.108      0.000     4.7831     65.297     41.784  32.885201     1.6775      8.294   209.3353 7.8759e+02     7.6935      0.106      0.154    14.3543   999.2145 0.0000e+00
      0.108      0.001     4.7545     64.906     41.813  32.906925     1.6766      8.289   209.2784 8.3043e+02     7.6678      0.106      0.154    14.3527   999.2147 0.0000e+00
      0.108      0.003     4.7259     64.519     41.782  32.882695     1.6726      8.287   209.3616 8.3131e+02     7.6556      0.105      0.153    14.3509   999.2150 0.0000e+00
      0.108      0.005     4.6991     64.156     41.736  32.846085     1.6726      8.285   209.2232 8.1688e+02     7.6431      0.105      0.152    14.3494   999.2151 0.0000e+00
      0.110      0.006     4.6734     63.821     41.736  32.845053     1.6674      8.280   206.8311 7.8492e+02     7.5831      0.107      0.155    14.3480   999.2153 0.0000e+00
      0.115      0.006     4.6446     63.518     41.770  32.870219     1.6609      8.275   202.2065 7.7083e+02     7.4879      0.113      0.163    14.3467   999.2156 0.0000e+00
      0.118      0.009     4.6161     63.246     41.805  32.896518     1.6639      8.272   198.9938 7.8427e+02     7.4090      0.117      0.170    14.3462   999.2157 0.0000e+00
      0.118      0.016     4.5907     62.977     41.822  32.909181     1.6693      8.265   198.0151 7.9785e+02     7.3837      0.117      0.169    14.3459   999.2157 0.0000e+00
      0.118      0.026     4.5662     62.702     41.808  32.896392     1.6743      8.249   197.5144 7.9460e+02     7.4116      0.115      0.166    14.3448   999.2159 0.0000e+00
      0.120      0.038     4.5449     62.486     41.776  32.868815     1.6723      8.231   196.8118 7.7590e+02     7.6480      0.114      0.166    14.3434   999.2161 0.0000e+00
      0.130      0.051     4.5259     62.385     41.727  32.829585     1.6622      8.215   196.1450 7.3828e+02     8.0781      0.121      0.175    14.3418   999.2164 0.0000e+00
      0.150      0.062     4.5085     62.390     41.691  32.802848     1.6638      8.189   195.7324 7.0627e+02     8.3190      0.147      0.213    14.3411   999.2166 0.0000e+00
      0.175      0.067     4.4858     62.457     41.684  32.799387     1.6749      8.153   195.3514 6.7452e+02     8.3646      0.174      0.253    14.3397   999.2169 0.0000e+00
      0.197      0.064     4.4693     62.534     41.667  32.787732     1.7018      8.120   194.8933 5.7844e+02     8.3680      0.192      0.278    14.3349   999.2176 0.0000e+00
      0.216      0.055     4.4628     62.591     41.667  32.788865     1.7553      8.097   194.4955 4.9534e+02     8.3268      0.215      0.312    14.3341   999.2178 0.0000e+00
      0.230      0.043     4.4639     62.591     41.697  32.813095     1.7919      8.089   194.1558 4.9191e+02     8.3261      0.230      0.334    14.3371   999.2174 0.0000e+00
      0.234      0.033     4.4704     62.510     41.715  32.826836     1.8145      8.095   193.7965 4.8137e+02     8.3594      0.231      0.335    14.3389   999.2172 0.0000e+00
      0.235      0.029     4.4756     62.338     41.718  32.828084     1.9684      8.111   193.5933 4.9487e+02     8.2376      0.229      0.333    14.3412   999.2169 0.0000e+00
      0.238      0.032     4.4810     62.094     41.718  32.828189     2.2398      8.129   193.5921 5.4284e+02     7.9672      0.232      0.337    14.3435   999.2166 0.0000e+00
      0.243      0.042     4.4813     61.832     41.718  32.828095     2.3818      8.140   193.6947 5.4899e+02     7.8422      0.237      0.344    14.3442   999.2165 0.0000e+00
      0.253      0.055     4.4762     61.629     41.717  32.826942     2.3948      8.141   193.8884 5.8609e+02     7.8741      0.244      0.355    14.3435   999.2166 0.0000e+00
      0.270      0.066     4.4632     61.541     41.702  32.814249     2.4999      8.132   193.9558 6.0055e+02     8.0582      0.262      0.381    14.3422   999.2168 0.0000e+00
      0.295      0.072     4.4448     61.576     41.690  32.801555     2.6991      8.117   193.8205 4.8434e+02     8.3642      0.290      0.420    14.3415   999.2171 0.0000e+00
      0.321      0.072     4.4235     61.709     41.691  32.800382     2.8100      8.099   193.8018 3.6227e+02     8.4926      0.317      0.460    14.3419   999.2172 0.0000e+00
      0.343      0.069     4.4074     61.847     41.691  32.800057     2.8256      8.088   193.9868 3.0579e+02     8.4640      0.339      0.492    14.3422   999.2173 0.0000e+00
      0.357      0.065     4.4016     61.908     41.688  32.797636     2.8443      8.087   194.2513 2.9350e+02     8.4117      0.353      0.511    14.3408   999.2175 0.0000e+00
      0.366      0.064     4.4042     61.908     41.657  32.771097     2.8802      8.089   194.5903 3.3602e+02     8.3518      0.360      0.523    14.3360   999.2182 0.0000e+00
      0.376      0.068     4.4173     61.887     41.611  32.733029     2.9042      8.086   194.9886 3.9493e+02     8.3292      0.365      0.530    14.3323   999.2188 0.0000e+00
      0.392      0.077     4.4299     61.853     41.591  32.718134     2.9002      8.080   195.3673 3.8914e+02     8.3347      0.380      0.551    14.3334   999.2187 0.0000e+00
      0.416      0.090     4.4330     61.819     41.590  32.717914     2.9013      8.073   195.6423 3.3328e+02     8.3535      0.408      0.594    14.3341   999.2187 0.0000e+00
      0.443      0.101     4.4318     61.837     41.606  32.730373     3.0215      8.063   195.8180 2.9523e+02     8.4581      0.434      0.629    14.3305   999.2193 0.0000e+00
      0.472      0.108     4.4310     61.963     41.623  32.741850     3.2526      8.050   195.9421 2.7335e+02     8.6496      0.461      0.667    14.3278   999.2198 0.0000e+00
      0.504      0.107     4.4280     62.208     41.612  32.729756     3.3811      8.036   196.0253 2.4608e+02     8.7344      0.495      0.718    14.3293   999.2199 0.0000e+00
      0.536      0.100     4.4243     62.542     41.592  32.711067     3.3871      8.027   196.1358 2.1893e+02     8.6971      0.528      0.765    14.3306   999.2198 0.0000e+00
      0.564      0.091     4.4235     62.899     41.506  32.642797     3.4288      8.025   196.3305 2.0251e+02     8.5592      0.556      0.806    14.3305   999.2199 0.0000e+00
      0.584      0.082     4.4328     63.257     41.295  32.475471     3.5208      8.027   196.5729 1.9299e+02     8.3128      0.576      0.835    14.3287   999.2203 0.0000e+00
      0.597      0.077     4.4515     63.725     41.129  32.337937     3.5724      8.026   196.8294 1.8524e+02     8.1430      0.586      0.849    14.3233   999.2211 0.0000e+00
      0.610      0.076     4.4777     64.529     41.115  32.312563     3.5664      8.021   197.1093 1.7739e+02     8.1112      0.596      0.864    14.3193   999.2216 0.0000e+00
      0.629      0.079     4.5050     65.960     41.117  32.295582     3.4575      8.015   197.2902 1.6889e+02     7.9943      0.616      0.893    14.3202   999.2217 0.0000e+00
      0.651      0.085     4.5267     68.150     41.093  32.259521     3.2615      8.010   197.2950 1.6096e+02     7.7448      0.638      0.925    14.3210   999.2215 0.0000e+00
      0.676      0.091     4.5564     70.940     41.108  32.257293     3.1555      8.005   197.2536 1.5311e+02     7.6192      0.661      0.960    14.3137   999.2227 0.0000e+00
      0.702      0.094     4.6063     73.997     41.134  32.268631     3.1646      8.000   197.3061 1.4529e+02     7.6219      0.688      1.000    14.2939   999.2256 0.0000e+00
      0.728      0.095     4.7070     76.970     41.143  32.269672     3.4321      7.995   197.5853 1.3782e+02     7.7115      0.714      1.036    14.2679   999.2294 0.0000e+00
      0.753      0.093     4.8721     79.552     41.150  32.269870     3.9361      7.986   197.9631 1.3060e+02     7.9163      0.739      1.071    14.2458   999.2326 0.0000e+00
      0.776      0.088     5.0825     81.487     41.158  32.271024     4.2041      7.976   198.1736 1.2454e+02     8.0670      0.763      1.105    14.2303   999.2349 0.0000e+00
      0.798      0.082     5.3130     82.658     41.182  32.283613     4.2011      7.970   198.2377 1.1985e+02     8.0911      0.782      1.134    14.2190   999.2367 0.0000e+00
      0.818      0.077     5.5336     83.106     41.204  32.295162     3.9791      7.963   198.2221 1.1655e+02     8.0446      0.803      1.164    14.2114   999.2378 0.0000e+00
      0.838      0.071     5.7273     82.974     41.195  32.283730     3.5652      7.953   198.1568 1.1461e+02     7.9635      0.824      1.194    14.2068   999.2385 0.0000e+00
      0.855      0.065     5.8700     82.501     41.185  32.272297     3.3321      7.943   198.1365 1.1280e+02     7.8643      0.838      1.216    14.2001   999.2396 0.0000e+00
      0.870      0.059     5.9533     81.900     41.203  32.283845     3.3106      7.938   198.2353 1.1005e+02     7.7952      0.851      1.235    14.1917   999.2408 0.0000e+00
      0.886      0.056     5.9838     81.265     41.219  32.296432     3.3145      7.937   198.4047 1.0762e+02     7.8162      0.870      1.262    14.1853   999.2418 0.0000e+00
      0.899      0.057     5.9673     80.657     41.220  32.297567     3.2837      7.937   198.4638 1.0611e+02     7.8562      0.884      1.282    14.1802   999.2426 0.0000e+00
      0.908      0.062     5.9280     80.136     41.219  32.297566     3.2243      7.933   198.4339 1.0417e+02     7.8849      0.888      1.289    14.1757   999.2433 0.0000e+00
      0.920      0.071     5.8840     79.687     41.217  32.296422     3.1941      7.925   198.5590 1.0114e+02     7.9345      0.899      1.304    14.1730   999.2437 0.0000e+00
      0.938      0.080     5.8372     79.284     41.202  32.283731     3.1879      7.914   198.7722 9.7183e+01     7.9319      0.918      1.331    14.1727   999.2438 0.0000e+00
      0.962      0.087     5.7907     78.962     41.186  32.271036     3.1405      7.904   198.8607 9.2571e+01     7.9186      0.942      1.366    14.1735   999.2438 0.0000e+00
      0.991      0.093     5.7543     78.732     41.186  32.269859     3.0536      7.895   198.9410 8.7708e+01     8.0032      0.972      1.410    14.1745   999.2438 0.0000e+00
      1.021      0.096     5.7238     78.566     41.187  32.269504     3.0048      7.887   199.1398 8.3798e+01     8.1028      1.004      1.456    14.1745   999.2440 0.0000e+00
      1.045      0.095     5.6925     78.434     41.186  32.266739     3.0014      7.881   199.2858 8.1323e+01     8.1398      1.028      1.491    14.1739   999.2442 0.0000e+00
      1.065      0.090     5.6694     78.324     41.150  32.236415     3.0036      7.877   199.2440 7.8681e+01     8.2206      1.043      1.512    14.1732   999.2443 0.0000e+00
      1.086      0.085     5.6540     78.244     41.130  32.220156     2.9974      7.873   199.2370 7.5358e+01     8.3925      1.065      1.543    14.1728   999.2445 0.0000e+00
      1.110      0.083     5.6431     78.193     41.183  32.260540     2.9953      7.864   199.4581 7.2492e+01     8.4807      1.091      1.581    14.1710   999.2448 0.0000e+00
      1.131      0.083     5.6346     78.150     41.208  32.280460     3.0047      7.850   199.6804 7.0247e+01     8.4682      1.110      1.610    14.1681   999.2454 0.0000e+00
      1.148      0.084     5.6261     78.110     41.196  32.270629     3.0155      7.837   199.7739 6.7946e+01     8.5022      1.126      1.633    14.1658   999.2458 0.0000e+00
      1.168      0.084     5.6206     78.068     41.194  32.268601     3.0216      7.825   199.9874 6.5229e+01     8.5313      1.144      1.660    14.1646   999.2460 0.0000e+00
      1.192      0.083     5.6180     78.000     41.179  32.255934     3.0173      7.811   200.1961 6.2558e+01     8.4927      1.170      1.697    14.1642   999.2462 0.0000e+00
      1.216      0.079     5.6149     77.925     41.166  32.244389     3.0156      7.797   200.2322 6.0278e+01     8.4615      1.194      1.731    14.1642   999.2463 0.0000e+00
      1.237      0.074     5.6114     77.856     41.182  32.255935     3.0963      7.787   200.2513 5.8182e+01     8.3185      1.214      1.761    14.1638   999.2465 0.0000e+00
      1.257      0.066     5.6104     77.772     41.199  32.268615     3.2474      7.781   200.1703 5.6494e+01     8.0418      1.235      1.791    14.1627   999.2467 0.0000e+00
      1.273      0.060     5.6044     77.682     41.201  32.270785     3.3173      7.780   200.1125 5.5404e+01     7.9009      1.250      1.814    14.1617   999.2469 0.0000e+00
      1.284      0.059     5.5984     77.608     41.216  32.282167     3.3084      7.778   200.2405 5.4692e+01     7.8938      1.260      1.828    14.1605   999.2471 0.0000e+00
      1.293      0.062     5.5952     77.546     41.214  32.279306     3.2964      7.773   200.4282 5.3923e+01     7.8902      1.268      1.839    14.1594   999.2473 0.0000e+00
      1.304      0.068     5.5885     77.502     41.160  32.236196     3.1894      7.766   200.5751 5.2482e+01     7.8581      1.277      1.851    14.1584   999.2475 0.0000e+00
      1.324      0.076     5.5811     77.488     41.121  32.205148     2.9851      7.759   200.5532 5.0293e+01     7.8326      1.295      1.878    14.1584   999.2476 0.0000e+00
      1.350      0.087     5.5764     77.486     41.142  32.221207     2.8638      7.750   200.5067 4.8026e+01     7.8437      1.324      1.920    14.1585   999.2477 0.0000e+00
      1.376      0.097     5.5721     77.501     41.167  32.239984     2.8499      7.742   200.6163 4.6213e+01     7.8612      1.351      1.960    14.1573   999.2481 0.0000e+00
      1.400      0.104     5.5677     77.538     41.171  32.241795     2.9559      7.735   200.7598 4.4483e+01     8.0442      1.370      1.989    14.1562   999.2483 0.0000e+00
      1.425      0.105     5.5686     77.573     41.174  32.243104     3.1565      7.729   200.8650 4.2294e+01     8.3859      1.395      2.023    14.1560   999.2484 0.0000e+00
      1.455      0.101     5.5678     77.607     41.192  32.255808     3.2558      7.726   200.9422 3.9894e+01     8.5506      1.427      2.070    14.1556   999.2486 0.0000e+00
      1.486      0.095     5.5682     77.639     41.211  32.268478     3.2458      7.723   201.0050 3.7867e+01     8.5279      1.460      2.116    14.1538   999.2490 0.0000e+00
      1.511      0.087     5.5730     77.643     41.214  32.269372     3.1405      7.719   201.1079 3.6512e+01     8.4064      1.485      2.155    14.1527   999.2493 0.0000e+00
      1.530      0.078     5.5749     77.613     41.213  32.266607     2.9531      7.715   201.2400 3.5612e+01     8.2289      1.503      2.180    14.1516   999.2495 0.0000e+00
      1.545      0.070     5.5772     77.553     41.175  32.235044     2.8535      7.709   201.3120 3.4795e+01     8.1515      1.516      2.198    14.1489   999.2500 0.0000e+00
      1.559      0.065     5.5817     77.477     41.139  32.205045     2.8374      7.702   201.3751 3.4045e+01     8.1258      1.529      2.217    14.1464   999.2504 0.0000e+00
      1.573      0.065     5.5813     77.390     41.163  32.221200     2.8017      7.693   201.4874 3.3234e+01     8.1147      1.541      2.236    14.1447   999.2507 0.0000e+00
      1.589      0.070     5.5799     77.298     41.189  32.239986     2.7678      7.683   201.5513 3.2230e+01     8.1483      1.557      2.258    14.1429   999.2511 0.0000e+00
      1.607      0.078     5.5752     77.234     41.194  32.241797     2.7661      7.671   201.6310 3.1272e+01     8.1719      1.576      2.288    14.1409   999.2514 0.0000e+00
      1.627      0.088     5.5695     77.189     41.197  32.243097     2.7815      7.660   201.8488 3.0253e+01     8.1703      1.594      2.312    14.1375   999.2519 0.0000e+00
      1.650      0.096     5.5651     77.157     41.215  32.255698     2.8318      7.648   202.0337 2.8978e+01     8.2605      1.616      2.343    14.1343   999.2525 0.0000e+00
      1.678      0.101     5.5558     77.159     41.233  32.267237     2.9149      7.636   202.0603 2.7573e+01     8.4427      1.646      2.386    14.1323   999.2529 0.0000e+00
      1.708      0.101     5.5529     77.166     41.223  32.255685     2.9638      7.626   202.0846 2.6158e+01     8.5383      1.675      2.429    14.1305   999.2533 0.0000e+00
      1.738      0.099     5.5502     77.155     41.209  32.242941     2.9717      7.618   202.1548 2.4925e+01     8.5646      1.706      2.474    14.1291   999.2536 0.0000e+00
      1.764      0.096     5.5463     77.148     41.206  32.240066     2.9670      7.612   202.2211 2.3971e+01     8.5636      1.731      2.512    14.1278   999.2540 0.0000e+00
      1.785      0.092     5.5483     77.138     41.184  32.220925     2.9421      7.605   202.2843 2.3161e+01     8.4290      1.750      2.539    14.1249   999.2545 0.0000e+00
      1.804      0.090     5.5508     77.089     41.163  32.201892     2.9132      7.599   202.3161 2.2343e+01     8.2153      1.768      2.564    14.1195   999.2552 0.0000e+00
      1.825      0.089     5.5484     77.009     41.164  32.200318     2.9033      7.596   202.3471 2.1438e+01     8.0761      1.789      2.594    14.1171   999.2557 0.0000e+00
      1.849      0.089     5.5482     76.924     41.170  32.201891     2.9001      7.594   202.4013 2.0480e+01     8.0240      1.813      2.629    14.1170   999.2558 0.0000e+00
      1.874      0.090     5.5499     76.853     41.198  32.220901     2.8838      7.592   202.5414 1.9589e+01     8.0123      1.838      2.667    14.1149   999.2563 0.0000e+00
      1.898      0.090     5.5453     76.788     41.227  32.239782     2.8538      7.588   202.7510 1.8864e+01     8.0327      1.863      2.703    14.1121   999.2568 0.0000e+00
      1.920      0.090     5.5399     76.725     41.232  32.239796     2.8406      7.583   202.8696 1.8237e+01     8.0737      1.883      2.731    14.1087   999.2573 0.0000e+00
      1.941      0.090     5.5333     76.675     41.212  32.221061     2.8458      7.577   202.8572 1.7592e+01     8.1156      1.903      2.760    14.1051   999.2579 0.0000e+00
      1.963      0.091     5.5290     76.639     41.194  32.203641     2.8382      7.570   202.7732 1.6917e+01     8.2436      1.926      2.793    14.1010   999.2586 0.0000e+00
      1.986      0.094     5.5254     76.621     41.220  32.219546     2.8267      7.561   202.7145 1.6218e+01     8.4414      1.946      2.823    14.0969   999.2593 0.0000e+00
      2.010      0.099     5.5202     76.601     41.229  32.222978     2.8277      7.552   202.7499 1.5513e+01     8.5409      1.970      2.858    14.0928   999.2600 0.0000e+00
      2.036      0.103     5.5181     76.545     41.181  32.181673     2.8426      7.546   202.7709 1.4831e+01     8.5623      1.997      2.897    14.0888   999.2607 0.0000e+00
      2.064      0.106     5.5150     76.462     41.165  32.164353     2.9112      7.540   202.6241 1.4160e+01     8.5683      2.024      2.935    14.0846   999.2613 0.0000e+00
      2.092      0.108     5.5151     76.363     41.225  32.203928     3.0237      7.533   202.4378 1.3487e+01     8.5483      2.051      2.974    14.0787   999.2624 0.0000e+00
      2.121      0.108     5.5160     76.198     41.255  32.215945     3.0857      7.525   202.4113 1.2843e+01     8.5499      2.080      3.016    14.0736   999.2632 0.0000e+00
      2.149      0.107     5.5118     75.961     41.226  32.182725     3.0880      7.518   202.4749 1.2266e+01     8.5547      2.108      3.057    14.0701   999.2638 0.0000e+00
      2.176      0.105     5.5049     75.692     41.236  32.183006     3.0427      7.509   202.4334 1.1749e+01     8.3777      2.134      3.094    14.0651   999.2646 0.0000e+00
      2.201      0.100     5.5015     75.365     41.289  32.219333     2.9544      7.499   202.3389 1.1275e+01     8.0809      2.159      3.131    14.0572   999.2658 0.0000e+00
      2.227      0.091     5.4920     74.979     41.323  32.241181     2.8957      7.492   202.2792 1.0808e+01     7.9153      2.183      3.166    14.0429   999.2679 0.0000e+00
      2.253      0.078     5.4732     74.559     41.348  32.256786     2.8791      7.488   202.2275 1.0349e+01     7.8500      2.211      3.206    14.0268   999.2702 0.0000e+00
      2.277      0.063     5.4580     74.130     41.383  32.281083     2.8758      7.486   202.2303 1.0038e+01     7.8155      2.238      3.245    14.0184   999.2716 0.0000e+00
      2.291      0.047     5.4342     73.737     41.384  32.281110     2.8554      7.486   202.1407 9.9302e+00     7.6945      2.250      3.264    14.0129   999.2724 0.0000e+00
      2.296      0.032     5.4062     73.400     41.353  32.257110     2.8055      7.486   202.0047 9.9222e+00     7.4689      2.252      3.267    14.0064   999.2734 0.0000e+00
      2.298      0.020     5.3767     73.116     41.337  32.244740     2.7755      7.487   202.0482 9.9266e+00     7.3488      2.253      3.268    14.0017   999.2741 0.0000e+00
      2.299      0.011     5.3439     72.886     41.356  32.258472     2.7784      7.487   202.1512 9.9153e+00     7.3567      2.255      3.270    13.9990   999.2744 0.0000e+00
      2.300      0.007     5.3156     72.709     41.406  32.296215     2.8414      7.487   202.2179 9.9065e+00     7.3352      2.256      3.272    13.9982   999.2745 0.0000e+00
      2.302      0.006     5.2914     72.590     41.436  32.320330     2.9557      7.484   202.2524 9.9215e+00     7.2206      2.258      3.274    13.9986   999.2745 0.0000e+00
      2.304      0.006     5.2709     72.550     41.402  32.296204     3.0161      7.481   202.2239 9.9428e+00     7.1505      2.260      3.277    13.9987   999.2745 0.0000e+00
      2.306      0.005     5.2543     72.590     41.348  32.258345     3.0163      7.479   202.2164 9.9407e+00     7.1761      2.261      3.280    13.9979   999.2746 0.0000e+00
      2.307      0.004     5.2420     72.674     41.321  32.243350     2.9754      7.476   202.2485 9.9247e+00     7.3005      2.263      3.282    13.9966   999.2748 0.0000e+00
      2.308      0.003     5.2326     72.776     41.311  32.241830     2.9030      7.474   202.1821 9.9287e+00     7.5077      2.263      3.283    13.9955   999.2750 0.0000e+00
      2.309      0.002     5.2289     72.890     41.302  32.239975     2.8610      7.472   202.1017 9.9353e+00     7.6157      2.264      3.284    13.9986   999.2745 0.0000e+00
      2.309      0.002     5.2326     73.016     41.272  32.220926     2.8487      7.471   202.1371 9.9174e+00     7.6241      2.264      3.284    14.0049   999.2736 0.0000e+00
      2.309      0.001     5.2386     73.170     41.242  32.201901     2.8498      7.470   202.1794 9.9009e+00     7.5433      2.265      3.284    14.0129   999.2724 0.0000e+00
      2.309      0.001     5.2444     73.255     41.237  32.200327     2.8563      7.469   202.1829 9.8964e+00     7.4580      2.265      3.284    14.0205   999.2714 0.0000e+00
      2.310 -9.990e-29     5.2533 -9.990e-29 -9.990e-29 -9.990e-29 -9.990e-29 -9.990e-29 -9.990e-29 9.8876e+00 -9.990e-29      2.265      3.285    14.0268   999.2706 0.0000e+00
      2.310 -9.990e-29     5.2594 -9.990e-29 -9.990e-29 -9.990e-29 -9.990e-29 -9.990e-29 -9.990e-29 9.8673e+00 -9.990e-29      2.265      3.285    14.0313   999.2700 0.0000e+00
      2.310 -9.990e-29     5.2724 -9.990e-29 -9.990e-29 -9.990e-29 -9.990e-29 -9.990e-29 -9.990e-29 9.8437e+00 -9.990e-29      2.265      3.285    14.0376   999.2690 0.0000e+00
      2.310 -9.990e-29     5.2845 -9.990e-29 -9.990e-29 -9.990e-29 -9.990e-29 -9.990e-29 -9.990e-29 9.8338e+00 -9.990e-29      2.266      3.286    14.0431   999.2683 0.0000e+00
