* Sea-Bird SBE19plus  Data File:
* FileName = C:\DATA\102319_fcr_0003.hex
* Software version 2.8.0.119 SB_Terminal.dll
* Temperature SN = 7809
* Conductivity SN = 7809
* System UpLoad Time = Oct 23 2019 15:56:09
* <ApplicationData>
* <Seaterm232>
* <SoftwareVersion>2.8.0.119</SoftwareVersion>
* <BuildDate>07-Nov-2018</BuildDate>
* </Seaterm232>
* </ApplicationData>
* cast   3 23 Oct 2019 11:20:51 samples 886 to 1336, avg = 1, stop = mag switch
# nquan = 16
# nvalues = 299                         
# units = specified
# name 0 = depFM: Depth [fresh water, m]
# name 1 = dz/dtM: Descent Rate [m/s]
# name 2 = sbeox0ML/L: Oxygen, SBE 43 [ml/l]
# name 3 = sbeox0PS: Oxygen, SBE 43 [% saturation]
# name 4 = specc: Specific Conductance [uS/cm]
# name 5 = c0uS/cm: Conductivity [uS/cm]
# name 6 = flECO-AFL: Fluorescence, WET Labs ECO-AFL/FL [mg/m^3]
# name 7 = ph: pH
# name 8 = orp: Oxidation Reduction Potential [mV]
# name 9 = par/sat/log: PAR/Logarithmic, Satlantic
# name 10 = turbWETntu0: Turbidity, WET Labs ECO [NTU]
# name 11 = prdM: Pressure, Strain Gauge [db]
# name 12 = prdE: Pressure, Strain Gauge [psi]
# name 13 = tv290C: Temperature [ITS-90, deg C]
# name 14 = density00: Density [density, kg/m^3]
# name 15 = flag:  0.000e+00
# span 0 =     -0.375,      5.406       
# span 1 =     -0.017,      0.211       
# span 2 =     1.8528,     7.0761       
# span 3 =     25.718,     99.424       
# span 4 =     40.735,     55.468       
# span 5 =  32.257156,  43.083843       
# span 6 =     0.6647,     3.0313       
# span 7 =      6.776,      7.775       
# span 8 =   272.6958,   306.8771       
# span 9 = 1.2359e-01, 1.2992e+03       
# span 10 =     7.4163,    12.3540      
# span 11 =     -0.381,      5.302      
# span 12 =     -0.551,      7.691      
# span 13 =    13.8176,    14.7194      
# span 14 =   999.1612,   999.3183      
# span 15 = 0.0000e+00, 0.0000e+00      
# interval = seconds: 0.25
# start_time = Oct 23 2019 11:20:51 [Instrument's time stamp, header]
# bad_flag = -9.990e-29
# <Sensors count="9" >
#   <sensor Channel="1" >
#     <!-- Count, Temperature -->
#     <TemperatureSensor SensorID="58" >
#       <SerialNumber>7809</SerialNumber>
#       <CalibrationDate>24-Mar-19</CalibrationDate>
#       <A0>1.21792325e-003</A0>
#       <A1>2.81669265e-004</A1>
#       <A2>-1.60333336e-006</A2>
#       <A3>1.98414625e-007</A3>
#       <Slope>1.00000000</Slope>
#       <Offset>0.0000</Offset>
#     </TemperatureSensor>
#   </sensor>
#   <sensor Channel="2" >
#     <!-- Frequency 0, Conductivity -->
#     <ConductivitySensor SensorID="3" >
#       <SerialNumber>7809</SerialNumber>
#       <CalibrationDate>24-Mar-19</CalibrationDate>
#       <UseG_J>1</UseG_J>
#       <!-- Cell const and series R are applicable only for wide range sensors. -->
#       <SeriesR>0.0000</SeriesR>
#       <CellConst>2000.0000</CellConst>
#       <ConductivityType>0</ConductivityType>
#       <Coefficients equation="0" >
#         <A>0.00000000e+000</A>
#         <B>0.00000000e+000</B>
#         <C>0.00000000e+000</C>
#         <D>0.00000000e+000</D>
#         <M>0.0</M>
#         <CPcor>-9.57000000e-008</CPcor>
#       </Coefficients>
#       <Coefficients equation="1" >
#         <G>-1.00589325e+000</G>
#         <H>1.26816302e-001</H>
#         <I>-1.51560448e-004</I>
#         <J>2.67137274e-005</J>
#         <CPcor>-9.57000000e-008</CPcor>
#         <CTcor>3.2500e-006</CTcor>
#         <!-- WBOTC not applicable unless ConductivityType = 1. -->
#         <WBOTC>0.00000000e+000</WBOTC>
#       </Coefficients>
#       <Slope>1.00000000</Slope>
#       <Offset>0.00000</Offset>
#     </ConductivitySensor>
#   </sensor>
#   <sensor Channel="3" >
#     <!-- Count, Pressure, Strain Gauge -->
#     <PressureSensor SensorID="46" >
#       <SerialNumber>7809</SerialNumber>
#       <CalibrationDate>11-Mar-19</CalibrationDate>
#       <PA0>4.56561833e-002</PA0>
#       <PA1>4.85095118e-004</PA1>
#       <PA2>-2.88327090e-012</PA2>
#       <PTEMPA0>-5.48784562e+001</PTEMPA0>
#       <PTEMPA1>5.53756816e+001</PTEMPA1>
#       <PTEMPA2>-5.86727098e-001</PTEMPA2>
#       <PTCA0>5.25246745e+005</PTCA0>
#       <PTCA1>1.22304214e+001</PTCA1>
#       <PTCA2>-3.56745036e-001</PTCA2>
#       <PTCB0>2.51668750e+001</PTCB0>
#       <PTCB1>3.75000000e-004</PTCB1>
#       <PTCB2>0.00000000e+000</PTCB2>
#       <Offset>0.000000</Offset>
#     </PressureSensor>
#   </sensor>
#   <sensor Channel="4" >
#     <!-- A/D voltage 0, Oxygen, SBE 43 -->
#     <OxygenSensor SensorID="38" >
#       <SerialNumber>0434</SerialNumber>
#       <CalibrationDate>13-Apr-19</CalibrationDate>
#       <Use2007Equation>1</Use2007Equation>
#       <CalibrationCoefficients equation="0" >
#         <!-- Coefficients for Owens-Millard equation. -->
#         <Boc>0.0000</Boc>
#         <Soc>0.0000e+000</Soc>
#         <offset>0.0000</offset>
#         <Pcor>0.00e+000</Pcor>
#         <Tcor>0.0000</Tcor>
#         <Tau>0.0</Tau>
#       </CalibrationCoefficients>
#       <CalibrationCoefficients equation="1" >
#         <!-- Coefficients for Sea-Bird equation - SBE calibration in 2007 and later. -->
#         <Soc>4.2007e-001</Soc>
#         <offset>-0.6109</offset>
#         <A>-4.3656e-003</A>
#         <B> 1.7017e-004</B>
#         <C>-2.5341e-006</C>
#         <D0> 2.5826e+000</D0>
#         <D1> 1.92634e-004</D1>
#         <D2>-4.64803e-002</D2>
#         <E> 3.6000e-002</E>
#         <Tau20> 1.1800</Tau20>
#         <H1>-3.3000e-002</H1>
#         <H2> 5.0000e+003</H2>
#         <H3> 1.4500e+003</H3>
#       </CalibrationCoefficients>
#     </OxygenSensor>
#   </sensor>
#   <sensor Channel="5" >
#     <!-- A/D voltage 1, PAR/Logarithmic, Satlantic -->
#     <PARLog_SatlanticSensor SensorID="76" >
#       <SerialNumber>1122</SerialNumber>
#       <CalibrationDate>08-May-2019</CalibrationDate>
#       <a0>9.7456e-001</a0>
#       <a1>8.1640e-001</a1>
#       <Im>1.3589e+000</Im>
#       <Multiplier>1.0000e+000</Multiplier>
#     </PARLog_SatlanticSensor>
#   </sensor>
#   <sensor Channel="6" >
#     <!-- A/D voltage 2, pH -->
#     <pH_Sensor SensorID="43" >
#       <SerialNumber>0363</SerialNumber>
#       <CalibrationDate>15-Apr-19</CalibrationDate>
#       <Slope>4.5952</Slope>
#       <Offset>2.5370</Offset>
#     </pH_Sensor>
#   </sensor>
#   <sensor Channel="7" >
#     <!-- A/D voltage 3, Oxidation Reduction Potential -->
#     <OxidationReductionPotentialSensor SensorID="41" >
#       <SerialNumber>0363</SerialNumber>
#       <CalibrationDate>15-Apr-19</CalibrationDate>
#       <B>2.499480</B>
#       <M>-0.496195</M>
#       <Offset>0.0</Offset>
#     </OxidationReductionPotentialSensor>
#   </sensor>
#   <sensor Channel="8" >
#     <!-- A/D voltage 4, Fluorometer, WET Labs ECO-AFL/FL -->
#     <FluoroWetlabECO_AFL_FL_Sensor SensorID="20" >
#       <SerialNumber>FLNTURT-2496</SerialNumber>
#       <CalibrationDate>08-May-2019</CalibrationDate>
#       <ScaleFactor>5.00000000e+001</ScaleFactor>
#       <!-- Dark output -->
#       <Vblank>0.0550</Vblank>
#     </FluoroWetlabECO_AFL_FL_Sensor>
#   </sensor>
#   <sensor Channel="9" >
#     <!-- A/D voltage 5, Turbidity Meter, WET Labs, ECO-NTU -->
#     <TurbidityMeter SensorID="67" >
#       <SerialNumber>FLNTURT-2496</SerialNumber>
#       <CalibrationDate>08-May-2019</CalibrationDate>
#       <ScaleFactor>189.000000</ScaleFactor>
#       <!-- Dark output -->
#       <DarkVoltage>0.071000</DarkVoltage>
#     </TurbidityMeter>
#   </sensor>
# </Sensors>
# datcnv_date = Oct 23 2019 16:06:16, 7.26.7.129 [datcnv_vars = 15]
# datcnv_in = C:\DATA\102319_fcr30.hex C:\DATA\SBE19plusV2_7809.xmlcon
# datcnv_skipover = 0
# datcnv_ox_hysteresis_correction = yes
# datcnv_ox_tau_correction = yes
# filter_date = Oct 23 2019 16:06:38, 7.26.7.129
# filter_in = C:\DATA\102319_fcr30.cnv
# filter_low_pass_tc_A = 0.030
# filter_low_pass_tc_B = 0.150
# filter_low_pass_A_vars = sbeox0ML/L prdM prdE tv290C density00
# filter_low_pass_B_vars = depFM dz/dtM sbeox0PS specc c0uS/cm flECO-AFL ph orp par/sat/log turbWETntu0
# alignctd_date = Oct 23 2019 16:06:56, 7.26.7.129
# alignctd_in = C:\DATA\102319_fcr30.cnv
# alignctd_adv = dz/dtM 1.000, sbeox0PS 1.000, specc 1.000, c0uS/cm 1.000, flECO-AFL 1.000, ph 1.000, orp 1.000, turbWETntu0 1.000                                                                                                   
# file_type = ascii
*END*
     -0.375      0.093     6.8977     96.205     40.885  32.394352     1.1095      7.699   306.8771 8.7973e+02    12.0254     -0.381     -0.551    14.2578   999.2245 0.0000e+00
     -0.338      0.124     6.8732     96.262     40.870  32.405450     1.1336      7.736   304.4876 9.1849e+02    12.3540     -0.334     -0.485    14.3991   999.2056 0.0000e+00
     -0.292      0.158     6.8553     96.350     40.820  32.381275     1.1414      7.756   303.0834 9.8269e+02    12.3339     -0.281     -0.409    14.5172   999.1891 0.0000e+00
     -0.250      0.188     6.8498     96.509     40.773  32.355905     1.2224      7.769   302.8048 1.0584e+03    11.8479     -0.244     -0.354    14.5729   999.1809 0.0000e+00
     -0.207      0.206     6.8417     96.795     40.759  32.352568     1.3839      7.775   302.6672 1.0659e+03    10.9343     -0.211     -0.307    14.6195   999.1744 0.0000e+00
     -0.146      0.211     6.8443     97.196     40.739  32.340934     1.4815      7.774   302.1945 1.0373e+03    10.3983     -0.150     -0.217    14.6434   999.1711 0.0000e+00
     -0.073      0.206     6.8464     97.698     40.741  32.342164     1.5094      7.766   301.5632 1.1096e+03    10.3484     -0.065     -0.094    14.6616   999.1688 0.0000e+00
     -0.012      0.190     6.8526     98.272     40.775  32.367434     1.5909      7.756   300.9712 1.0753e+03    10.3971     -0.007     -0.010    14.6752   999.1671 0.0000e+00
      0.035      0.161     6.8735     98.851     40.810  32.392619     1.7209      7.748   300.3706 8.1296e+02    10.4296      0.036      0.051    14.6870   999.1656 0.0000e+00
      0.074      0.122     6.9004     99.296     40.820  32.392829     1.7899      7.741   299.7224 6.4671e+02    10.4138      0.079      0.115    14.6914   999.1651 0.0000e+00
      0.099      0.082     6.9376     99.424     40.803  32.369972     1.8009      7.734   298.9848 7.0081e+02    10.4025      0.102      0.149    14.6892   999.1656 0.0000e+00
      0.109      0.048     6.9800     99.170     40.809  32.370089     1.8022      7.727   298.1627 1.0368e+03    10.2273      0.109      0.158    14.6875   999.1658 0.0000e+00
      0.110      0.023     7.0241     98.470     40.838  32.394235     1.7977      7.719   297.3533 1.2992e+03     9.8687      0.109      0.158    14.6855   999.1661 0.0000e+00
      0.109      0.005     7.0647     97.101     40.850  32.408082     1.7976      7.711   296.6839 9.5977e+02     9.7042      0.107      0.155    14.6747   999.1677 0.0000e+00
      0.105     -0.004     7.0761     94.940     40.846  32.410588     1.7926      7.704   296.1783 5.1133e+02     9.7135      0.104      0.151    14.6611   999.1697 0.0000e+00
      0.101     -0.006     7.0576     92.125     40.856  32.424546     1.7465      7.698   295.7146 4.3844e+02     9.5880      0.098      0.143    14.6547   999.1706 0.0000e+00
      0.100     -0.005     7.0170     88.963     40.880  32.449939     1.6650      7.691   295.2070 4.7832e+02     9.3660      0.097      0.141    14.6567   999.1703 0.0000e+00
      0.100     -0.002     6.9223     85.798     40.891  32.463777     1.6125      7.683   294.7730 4.6031e+02     9.2575      0.098      0.142    14.6631   999.1694 0.0000e+00
      0.099      0.003     6.7632     82.935     40.889  32.464940     1.6068      7.676   294.4248 4.8306e+02     9.2598      0.097      0.141    14.6704   999.1683 0.0000e+00
      0.099      0.007     6.5539     80.609     40.887  32.464005     1.6043      7.669   294.0944 4.8093e+02     9.1647      0.096      0.139    14.6779   999.1672 0.0000e+00
      0.101      0.010     6.3190     78.894     40.873  32.452468     1.5819      7.663   293.7037 3.8696e+02     8.9269      0.098      0.142    14.6861   999.1660 0.0000e+00
      0.106      0.011     6.0863     77.707     40.872  32.452372     1.5614      7.658   293.3144 3.4116e+02     8.7771      0.103      0.150    14.6932   999.1650 0.0000e+00
      0.111      0.010     5.8753     76.942     40.883  32.462852     1.5559      7.653   293.0008 3.8026e+02     8.7618      0.110      0.159    14.6965   999.1646 0.0000e+00
      0.116      0.005     5.7087     76.496     40.867  32.452249     1.5584      7.649   292.6655 4.0595e+02     8.7098      0.115      0.166    14.6962   999.1646 0.0000e+00
      0.117     -0.001     5.5900     76.228     40.863  32.451096     1.5573      7.645   292.3574 4.9959e+02     8.6081      0.116      0.168    14.6952   999.1648 0.0000e+00
      0.116     -0.009     5.5087     76.023     40.858  32.448911     1.5511      7.639   292.0287 5.9652e+02     8.5471      0.115      0.167    14.6959   999.1647 0.0000e+00
      0.112     -0.015     5.4554     75.803     40.828  32.425834     1.5530      7.634   291.6172 4.9267e+02     8.5627      0.111      0.161    14.6984   999.1643 0.0000e+00
      0.105     -0.017     5.4281     75.488     40.827  32.425929     1.5550      7.630   291.3400 3.9598e+02     8.5677      0.103      0.150    14.7011   999.1638 0.0000e+00
      0.096     -0.015     5.4116     75.088     40.857  32.450053     1.5229      7.626   291.2583 4.2126e+02     8.3775      0.094      0.136    14.7032   999.1635 0.0000e+00
      0.090     -0.011     5.3979     74.715     40.875  32.463673     1.4680      7.621   291.1444 4.2087e+02     8.0657      0.087      0.126    14.7055   999.1631 0.0000e+00
      0.088     -0.006     5.3852     74.443     40.875  32.463682     1.4465      7.615   290.9095 3.8161e+02     7.8782      0.085      0.124    14.7073   999.1628 0.0000e+00
      0.090     -0.001     5.3628     74.320     40.858  32.450167     1.4539      7.609   290.6564 3.8140e+02     7.8475      0.088      0.128    14.7082   999.1627 0.0000e+00
      0.094      0.003     5.3296     74.397     40.829  32.427186     1.4793      7.602   290.4071 3.9846e+02     8.1533      0.092      0.135    14.7081   999.1628 0.0000e+00
      0.096      0.004     5.3021     74.695     40.845  32.439671     1.5281      7.594   290.2181 3.5601e+02     8.7243      0.094      0.137    14.7078   999.1628 0.0000e+00
      0.097      0.003     5.2823     75.206     40.888  32.474191     1.5591      7.588   290.0913 3.3788e+02     9.0156      0.095      0.138    14.7075   999.1629 0.0000e+00
      0.097      0.002     5.2711     75.844     40.874  32.463797     1.5590      7.583   289.8209 4.2073e+02     9.0209      0.095      0.138    14.7070   999.1629 0.0000e+00
      0.097     -0.001     5.2775     76.505     40.844  32.440918     1.5430      7.579   289.4437 4.4257e+02     8.9198      0.094      0.137    14.7066   999.1630 0.0000e+00
      0.097     -0.004     5.2970     77.094     40.855  32.451414     1.5223      7.576   289.1441 4.2429e+02     8.7112      0.095      0.138    14.7068   999.1630 0.0000e+00
      0.096     -0.005     5.3369     77.523     40.870  32.463783     1.5082      7.575   288.7806 4.4365e+02     8.5634      0.095      0.136    14.7079   999.1628 0.0000e+00
      0.095     -0.005     5.3842     77.761     40.868  32.463545     1.4932      7.572   288.2307 3.8590e+02     8.5419      0.093      0.134    14.7090   999.1626 0.0000e+00
      0.092     -0.001     5.4330     77.820     40.847  32.448544     1.4981      7.568   287.1414 3.3639e+02     8.6141      0.091      0.132    14.7103   999.1624 0.0000e+00
      0.087      0.008     5.4781     77.733     40.797  32.409334     1.5326      7.563   286.2798 3.4331e+02     8.7156      0.085      0.123    14.7112   999.1623 0.0000e+00
      0.086      0.019     5.5082     77.554     40.749  32.370219     1.5549      7.555   286.7610 3.3091e+02     8.7543      0.082      0.118    14.7122   999.1621 0.0000e+00
      0.091      0.029     5.5250     77.359     40.735  32.356374     1.5595      7.547   287.2814 3.0079e+02     8.7539      0.086      0.125    14.7144   999.1618 0.0000e+00
      0.105      0.035     5.5277     77.189     40.751  32.368857     1.6059      7.540   287.1511 3.7473e+02     8.8086      0.099      0.145    14.7159   999.1616 0.0000e+00
      0.124      0.037     5.5208     77.089     40.781  32.394220     1.6913      7.534   286.9062 4.5671e+02     8.9245      0.123      0.179    14.7176   999.1615 0.0000e+00
      0.139      0.034     5.5048     77.059     40.798  32.409200     1.7415      7.529   286.7289 3.6981e+02     9.0080      0.141      0.203    14.7164   999.1618 0.0000e+00
      0.146      0.025     5.4920     77.058     40.814  32.423056     1.7535      7.525   286.7281 3.0063e+02     9.0324      0.144      0.209    14.7113   999.1626 0.0000e+00
      0.147      0.011     5.4780     77.079     40.828  32.434832     1.7502      7.523   286.6386 3.2036e+02     9.0229      0.144      0.209    14.7115   999.1624 0.0000e+00
      0.147     -0.002     5.4700     77.069     40.814  32.424667     1.7009      7.521   286.4216 3.3295e+02     8.9250      0.145      0.210    14.7143   999.1621 0.0000e+00
      0.145     -0.010     5.4709     76.929     40.817  32.427071     1.6089      7.518   286.1692 3.2331e+02     8.7340      0.144      0.209    14.7155   999.1620 0.0000e+00
      0.140     -0.012     5.4683     76.597     40.864  32.463898     1.5563      7.514   285.8233 2.9842e+02     8.6149      0.139      0.200    14.7169   999.1617 0.0000e+00
      0.132     -0.010     5.4722     76.099     40.896  32.489169     1.5586      7.511   285.5088 3.1404e+02     8.5981      0.129      0.186    14.7180   999.1615 0.0000e+00
      0.126     -0.007     5.4737     75.504     40.884  32.478776     1.5764      7.506   285.3790 3.5528e+02     8.6288      0.122      0.177    14.7190   999.1613 0.0000e+00
      0.125     -0.002     5.4661     74.862     40.868  32.465157     1.6071      7.500   285.2861 4.0997e+02     8.7245      0.121      0.176    14.7194   999.1612 0.0000e+00
      0.129      0.002     5.4416     74.256     40.851  32.451425     1.6263      7.493   285.2454 4.5347e+02     8.7723      0.126      0.183    14.7190   999.1613 0.0000e+00
      0.134      0.005     5.4035     73.772     40.836  32.439669     1.6181      7.488   285.2319 3.8294e+02     8.7479      0.132      0.192    14.7183   999.1615 0.0000e+00
      0.137      0.005     5.3617     73.468     40.848  32.449940     1.6203      7.484   285.0365 3.0474e+02     8.8223      0.135      0.196    14.7169   999.1617 0.0000e+00
      0.137      0.003     5.3132     73.349     40.846  32.448680     1.6527      7.479   284.8616 3.0983e+02     9.0166      0.135      0.196    14.7154   999.1619 0.0000e+00
      0.136      0.000     5.2685     73.377     40.815  32.424439     1.6805      7.475   284.7514 3.2080e+02     9.1640      0.134      0.193    14.7149   999.1620 0.0000e+00
      0.134     -0.002     5.2321     73.476     40.799  32.410697     1.6882      7.472   284.5645 3.1670e+02     9.1955      0.132      0.191    14.7155   999.1619 0.0000e+00
      0.134     -0.002     5.2103     73.536     40.798  32.409448     1.6842      7.470   284.4098 3.3447e+02     8.9715      0.131      0.191    14.7166   999.1617 0.0000e+00
      0.134     -0.001     5.2034     73.498     40.799  32.409335     1.6846      7.468   284.3429 3.4604e+02     8.5520      0.131      0.190    14.7172   999.1616 0.0000e+00
      0.134      0.001     5.2062     73.333     40.800  32.409325     1.6927      7.465   284.2714 3.4015e+02     8.3520      0.131      0.190    14.7174   999.1615 0.0000e+00
      0.134      0.003     5.2175     73.028     40.801  32.409325     1.6959      7.461   284.1478 3.4478e+02     8.3559      0.131      0.191    14.7170   999.1616 0.0000e+00
      0.135      0.003     5.2225     72.632     40.802  32.409335     1.7496      7.458   283.9672 3.1444e+02     8.4675      0.133      0.192    14.7159   999.1618 0.0000e+00
      0.137      0.002     5.2207     72.197     40.804  32.409449     1.8481      7.456   283.7230 2.8127e+02     8.6848      0.134      0.195    14.7147   999.1620 0.0000e+00
      0.139      0.001     5.2101     71.736     40.808  32.410697     1.8983      7.454   283.5175 2.8178e+02     8.7879      0.136      0.197    14.7137   999.1621 0.0000e+00
      0.139      0.000     5.1866     71.270     40.827  32.424429     1.9062      7.452   283.4621 2.9526e+02     8.7965      0.137      0.198    14.7129   999.1622 0.0000e+00
      0.138     -0.001     5.1568     70.834     40.858  32.448555     1.9081      7.451   283.4830 3.2547e+02     8.7893      0.135      0.196    14.7120   999.1624 0.0000e+00
      0.136     -0.001     5.1265     70.429     40.859  32.448555     1.8686      7.447   283.3402 3.4770e+02     8.7007      0.133      0.194    14.7102   999.1626 0.0000e+00
      0.134     -0.001     5.0938     70.057     40.829  32.424429     1.7932      7.443   282.8539 3.3094e+02     8.5769      0.131      0.192    14.7080   999.1629 0.0000e+00
      0.134      0.000     5.0588     69.702     40.813  32.410697     1.7593      7.439   282.5076 3.0927e+02     8.5054      0.131      0.190    14.7061   999.1632 0.0000e+00
      0.135      0.002     5.0294     69.354     40.812  32.409440     1.7622      7.436   282.7666 3.0647e+02     8.4924      0.133      0.192    14.7049   999.1634 0.0000e+00
      0.137      0.002     4.9997     69.018     40.813  32.409222     1.7596      7.432   283.0598 3.0602e+02     8.3533      0.134      0.195    14.7042   999.1635 0.0000e+00
      0.138      0.002     4.9740     68.648     40.813  32.408067     1.7527      7.429   283.0413 3.1399e+02     8.0361      0.136      0.197    14.7037   999.1636 0.0000e+00
      0.139      0.002     4.9500     68.235     40.799  32.395478     1.7482      7.426   282.8874 3.1879e+02     7.8356      0.136      0.198    14.7032   999.1637 0.0000e+00
      0.139      0.001     4.9233     67.824     40.786  32.383932     1.7487      7.422   282.7470 3.4242e+02     7.8302      0.136      0.198    14.7025   999.1638 0.0000e+00
      0.139     -0.001     4.9025     67.404     40.802  32.395376     1.7767      7.420   282.7208 3.6182e+02     7.9708      0.136      0.197    14.7012   999.1640 0.0000e+00
      0.139     -0.001     4.8767     66.973     40.818  32.406923     1.8266      7.418   282.5708 3.4997e+02     8.1916      0.136      0.197    14.6997   999.1642 0.0000e+00
      0.139      0.001     4.8446     66.539     40.807  32.396624     1.8488      7.416   282.1379 3.4640e+02     8.3051      0.136      0.197    14.6981   999.1644 0.0000e+00
      0.138      0.006     4.8174     66.097     40.808  32.397778     1.8637      7.414   280.3260 3.5201e+02     8.3270      0.135      0.196    14.6966   999.1646 0.0000e+00
      0.136      0.015     4.7875     65.695     40.837  32.420864     1.9367      7.411   277.1832 3.5907e+02     8.4888      0.132      0.193    14.6952   999.1648 0.0000e+00
      0.137      0.027     4.7559     65.399     40.838  32.421914     2.0474      7.402   275.1987 3.6376e+02     8.8194      0.132      0.192    14.6936   999.1652 0.0000e+00
      0.144      0.041     4.7269     65.205     40.826  32.410472     2.1093      7.387   274.4856 3.7130e+02     9.0149      0.140      0.202    14.6918   999.1654 0.0000e+00
      0.157      0.055     4.6940     65.141     40.828  32.409441     2.1301      7.371   273.8954 3.7060e+02     9.0495      0.153      0.221    14.6912   999.1655 0.0000e+00
      0.177      0.068     4.6622     65.236     40.830  32.409450     2.2557      7.360   273.4835 3.8858e+02     9.3363      0.171      0.248    14.6915   999.1656 0.0000e+00
      0.202      0.079     4.6431     65.439     40.831  32.410575     2.4750      7.353   273.2047 4.0056e+02     9.8611      0.200      0.291    14.6929   999.1655 0.0000e+00
      0.223      0.089     4.6284     65.713     40.846  32.423049     2.5884      7.347   273.0201 3.6315e+02    10.1182      0.222      0.321    14.6911   999.1658 0.0000e+00
      0.241      0.095     4.6219     66.013     40.860  32.433339     2.5950      7.344   272.8858 3.2554e+02    10.1176      0.232      0.336    14.6851   999.1668 0.0000e+00
      0.266      0.097     4.6326     66.299     40.830  32.408070     2.5985      7.342   272.7850 3.0330e+02    10.0828      0.258      0.374    14.6837   999.1672 0.0000e+00
      0.297      0.096     4.6460     66.567     40.784  32.371366     2.6300      7.339   272.7479 2.8536e+02     9.8938      0.294      0.426    14.6863   999.1669 0.0000e+00
      0.326      0.092     4.6670     66.781     40.782  32.370326     2.6630      7.336   272.6958 2.8462e+02     9.6031      0.321      0.465    14.6873   999.1668 0.0000e+00
      0.352      0.085     4.6905     66.916     40.812  32.395491     2.6603      7.334   272.7583 2.9509e+02     9.4515      0.345      0.501    14.6839   999.1675 0.0000e+00
      0.373      0.078     4.7095     66.951     40.844  32.421791     2.6489      7.329   273.0726 3.0453e+02     9.4370      0.369      0.536    14.6816   999.1680 0.0000e+00
      0.387      0.074     4.7307     66.897     40.860  32.434473     2.6122      7.322   273.3988 3.2275e+02     9.3632      0.380      0.551    14.6824   999.1678 0.0000e+00
      0.397      0.076     4.7458     66.820     40.846  32.421904     2.5379      7.314   273.6043 3.3160e+02     9.1812      0.387      0.562    14.6831   999.1678 0.0000e+00
      0.410      0.084     4.7558     66.786     40.814  32.396740     2.4869      7.306   273.7500 3.1407e+02     9.0722      0.399      0.580    14.6854   999.1675 0.0000e+00
      0.433      0.097     4.7586     66.856     40.796  32.384068     2.4734      7.299   273.8702 2.7801e+02     9.0941      0.422      0.612    14.6877   999.1673 0.0000e+00
      0.463      0.111     4.7518     67.035     40.809  32.395607     2.5040      7.293   273.9400 2.5078e+02     9.2161      0.455      0.660    14.6870   999.1676 0.0000e+00
      0.497      0.121     4.7461     67.301     40.828  32.409329     2.5702      7.288   273.9910 2.4307e+02     9.4004      0.485      0.704    14.6834   999.1683 0.0000e+00
      0.533      0.126     4.7411     67.647     40.851  32.423061     2.6057      7.284   274.1430 2.3271e+02     9.4880      0.522      0.757    14.6835   999.1684 0.0000e+00
      0.571      0.126     4.7460     68.024     40.872  32.434704     2.6039      7.279   274.2288 2.1971e+02     9.4565      0.562      0.815    14.6869   999.1680 0.0000e+00
      0.603      0.123     4.7599     68.380     40.865  32.423175     2.6012      7.276   274.1679 2.1042e+02     9.4119      0.594      0.863    14.6895   999.1678 0.0000e+00
      0.630      0.118     4.7778     68.710     40.856  32.410589     2.6081      7.273   274.1817 2.0273e+02     9.4407      0.617      0.894    14.6876   999.1682 0.0000e+00
      0.657      0.111     4.8051     69.002     40.859  32.409434     2.6086      7.268   274.2236 1.9512e+02     9.5090      0.641      0.929    14.6808   999.1694 0.0000e+00
      0.687      0.102     4.8343     69.267     40.862  32.409207     2.6079      7.263   274.2432 1.8638e+02     9.4842      0.674      0.978    14.6749   999.1704 0.0000e+00
      0.716      0.090     4.8597     69.535     40.863  32.407845     2.6517      7.259   274.3333 1.8066e+02     9.2720      0.704      1.021    14.6677   999.1716 0.0000e+00
      0.741      0.076     4.8844     69.757     40.846  32.392958     2.7306      7.256   274.3661 1.7550e+02     8.9751      0.728      1.056    14.6603   999.1728 0.0000e+00
      0.761      0.061     4.9062     69.872     40.799  32.356130     2.7807      7.256   274.3821 1.7290e+02     8.8115      0.750      1.087    14.6556   999.1736 0.0000e+00
      0.773      0.049     4.9224     69.839     40.783  32.343333     2.7894      7.256   274.5266 1.7616e+02     8.7675      0.761      1.104    14.6535   999.1739 0.0000e+00
      0.776      0.043     4.9445     69.624     40.811  32.365152     2.7756      7.255   274.6503 1.7866e+02     8.7711      0.762      1.105    14.6509   999.1743 0.0000e+00
      0.778      0.041     4.9623     69.269     40.813  32.366095     2.7090      7.252   274.6738 1.7752e+02     8.8552      0.761      1.104    14.6483   999.1747 0.0000e+00
      0.787      0.042     4.9702     68.812     40.798  32.354735     2.5995      7.247   274.6380 1.7306e+02     8.9652      0.768      1.114    14.6493   999.1746 0.0000e+00
      0.802      0.044     4.9707     68.255     40.797  32.354724     2.5437      7.243   274.5624 1.6773e+02     9.0190      0.786      1.139    14.6497   999.1745 0.0000e+00
      0.821      0.048     4.9528     67.664     40.810  32.365958     2.5382      7.240   274.5343 1.6426e+02     9.0150      0.808      1.170    14.6488   999.1748 0.0000e+00
      0.835      0.049     4.9263     67.091     40.808  32.363642     2.5495      7.237   274.6417 1.6336e+02     9.0151      0.822      1.192    14.6481   999.1750 0.0000e+00
      0.845      0.048     4.8958     66.522     40.768  32.326718     2.5851      7.234   274.7419 1.6123e+02     9.0525      0.829      1.202    14.6483   999.1750 0.0000e+00
      0.854      0.045     4.8526     66.017     40.757  32.300278     2.6049      7.230   274.7138 1.5529e+02     9.0741      0.836      1.213    14.6500   999.1747 0.0000e+00
      0.864      0.041     4.8091     65.924     40.792  32.297774     2.6066      7.227   274.7321 1.5080e+02     9.0473      0.846      1.228    14.6515   999.1746 0.0000e+00
      0.877      0.039     4.7693     66.786     40.825  32.296405     2.6234      7.227   274.7909 1.4747e+02     8.9576      0.861      1.248    14.6513   999.1747 0.0000e+00
      0.888      0.038     4.7294     68.864     40.829  32.283695     2.6514      7.227   274.8227 1.4331e+02     8.8414      0.873      1.266    14.6500   999.1749 0.0000e+00
      0.897      0.037     4.6877     71.955     40.823  32.271001     2.6675      7.227   274.8585 1.4290e+02     8.7889      0.880      1.276    14.6294   999.1780 0.0000e+00
      0.905      0.035     4.6670     75.601     40.826  32.269839     2.6708      7.227   274.7940 1.4262e+02     8.7825      0.888      1.287    14.5831   999.1848 0.0000e+00
      0.914      0.032     4.7257     79.372     40.827  32.269640     2.6224      7.226   274.7301 1.3908e+02     8.7307      0.897      1.301    14.5454   999.1903 0.0000e+00
      0.922      0.030     4.8820     82.896     40.827  32.268591     2.5253      7.226   274.7746 1.3675e+02     8.6219      0.904      1.311    14.5277   999.1929 0.0000e+00
      0.929      0.029     5.1164     85.764     40.814  32.257156     2.4767      7.226   274.8163 1.3391e+02     8.5485      0.910      1.321    14.5201   999.1941 0.0000e+00
      0.937      0.026     5.3881     87.695     40.816  32.258299     2.4766      7.224   274.8906 1.3193e+02     8.5310      0.920      1.335    14.5171   999.1944 0.0000e+00
      0.944      0.023     5.6635     88.636     40.848  32.282416     2.4799      7.223   274.9842 1.3207e+02     8.2469      0.927      1.344    14.5157   999.1947 0.0000e+00
      0.949      0.020     5.9281     88.753     40.865  32.294909     2.4823      7.222   275.0010 1.2987e+02     7.7023      0.931      1.350    14.5153   999.1949 0.0000e+00
      0.954      0.016     6.1393     88.348     40.849  32.282427     2.4793      7.220   275.0082 1.2767e+02     7.4195      0.935      1.358    14.5143   999.1950 0.0000e+00
      0.958      0.012     6.2784     87.702     40.814  32.258414     2.4788      7.219   275.0716 1.2645e+02     7.4163      0.940      1.362    14.5133   999.1952 0.0000e+00
      0.960      0.011     6.3417     87.001     40.809  32.258415     2.4765      7.219   275.0787 1.2723e+02     7.4339      0.942      1.367    14.5120   999.1954 0.0000e+00
      0.961      0.013     6.3407     86.334     40.836  32.282447     2.4428      7.219   275.0940 1.2865e+02     7.4691      0.942      1.368    14.5103   999.1956 0.0000e+00
      0.962      0.018     6.3055     85.771     40.852  32.295138     2.3827      7.219   275.2567 1.2599e+02     7.5464      0.943      1.367    14.5103   999.1956 0.0000e+00
      0.965      0.025     6.2534     85.347     40.842  32.284943     2.3486      7.219   275.3248 1.2312e+02     7.6148      0.945      1.371    14.5143   999.1950 0.0000e+00
      0.971      0.031     6.2018     85.022     40.847  32.286107     2.3516      7.217   275.2294 1.2026e+02     7.6740      0.950      1.378    14.5207   999.1941 0.0000e+00
      0.982      0.035     6.1512     84.737     40.880  32.309194     2.3921      7.215   275.1358 1.1664e+02     7.9998      0.961      1.394    14.5243   999.1937 0.0000e+00
      0.998      0.035     6.1101     84.483     40.884  32.310245     2.4482      7.213   275.1393 1.1361e+02     8.6033      0.980      1.421    14.5248   999.1937 0.0000e+00
      1.011      0.031     6.0812     84.250     40.869  32.298813     2.4663      7.212   275.2719 1.1058e+02     8.9743      0.995      1.443    14.5225   999.1941 0.0000e+00
      1.018      0.026     6.0619     84.073     40.867  32.297885     2.4643      7.211   275.3622 1.0841e+02     9.0445      1.000      1.450    14.5166   999.1950 0.0000e+00
      1.020      0.024     6.0403     83.931     40.867  32.299039     2.4229      7.209   275.3708 1.0767e+02     8.8625      1.001      1.451    14.5123   999.1956 0.0000e+00
      1.021      0.026     6.0243     83.731     40.885  32.312763     2.3399      7.204   275.4619 1.0899e+02     8.4785      1.002      1.453    14.5110   999.1958 0.0000e+00
      1.023      0.036     6.0065     83.562     40.920  32.336899     2.3012      7.197   275.6898 1.0946e+02     8.3014      1.002      1.453    14.5113   999.1957 0.0000e+00
      1.029      0.052     5.9908     83.411     40.927  32.337014     2.3015      7.188   275.8887 1.0625e+02     8.3593      1.005      1.456    14.5124   999.1956 0.0000e+00
      1.044      0.073     5.9902     83.213     40.905  32.314147     2.3870      7.179   275.9744 1.0118e+02     8.7199      1.021      1.481    14.5145   999.1954 0.0000e+00
      1.067      0.094     5.9664     83.055     40.911  32.314252     2.5634      7.171   276.1236 9.4973e+01     9.3185      1.046      1.517    14.5155   999.1953 0.0000e+00
      1.095      0.110     5.9571     82.895     40.946  32.338284     2.6571      7.165   276.3163 8.8504e+01     9.6330      1.071      1.554    14.5103   999.1962 0.0000e+00
      1.130      0.118     5.9532     82.618     40.966  32.350862     2.6612      7.160   276.3258 8.2494e+01     9.6712      1.106      1.603    14.5014   999.1977 0.0000e+00
      1.169      0.118     5.9318     82.264     40.954  32.339409     2.6817      7.157   276.2383 7.5033e+01     9.5832      1.147      1.663    14.4951   999.1988 0.0000e+00
      1.206      0.114     5.9245     81.910     40.939  32.326727     2.7144      7.155   276.2906 6.9514e+01     9.3886      1.188      1.723    14.4906   999.1996 0.0000e+00
      1.233      0.108     5.9186     81.545     40.937  32.324440     2.7191      7.152   276.4418 6.7177e+01     9.2844      1.213      1.761    14.4859   999.2004 0.0000e+00
      1.250      0.103     5.8972     81.186     40.923  32.311748     2.7121      7.150   276.6037 6.4701e+01     9.2734      1.224      1.777    14.4814   999.2012 0.0000e+00
      1.269      0.101     5.8685     80.861     40.910  32.300192     2.7169      7.147   276.6998 6.1870e+01     9.2561      1.242      1.801    14.4789   999.2016 0.0000e+00
      1.294      0.104     5.8459     80.576     40.925  32.311634     2.7679      7.143   276.6577 5.8588e+01     9.2391      1.269      1.840    14.4782   999.2018 0.0000e+00
      1.323      0.108     5.8187     80.369     40.941  32.323172     2.8611      7.141   276.6097 5.4934e+01     9.2310      1.296      1.879    14.4769   999.2021 0.0000e+00
      1.355      0.111     5.7919     80.253     40.930  32.312768     2.8981      7.141   276.6365 5.1250e+01     9.2241      1.327      1.924    14.4755   999.2025 0.0000e+00
      1.390      0.113     5.7701     80.169     40.930  32.312768     2.8861      7.141   276.6365 4.7627e+01     9.2213      1.364      1.979    14.4746   999.2028 0.0000e+00
      1.420      0.113     5.7481     80.094     40.944  32.323171     2.8378      7.140   276.6097 4.4957e+01     9.2308      1.396      2.026    14.4731   999.2031 0.0000e+00
      1.444      0.113     5.7326     80.059     40.930  32.311634     2.7308      7.138   276.6573 4.3070e+01     9.2399      1.417      2.054    14.4714   999.2035 0.0000e+00
      1.465      0.113     5.7272     80.073     40.917  32.300193     2.6579      7.135   276.7820 4.0559e+01     9.2325      1.433      2.079    14.4701   999.2037 0.0000e+00
      1.494      0.116     5.7220     80.129     40.932  32.311748     2.6506      7.130   276.9129 3.7726e+01     9.2079      1.463      2.122    14.4695   999.2039 0.0000e+00
      1.528      0.122     5.7148     80.227     40.948  32.324432     2.6595      7.125   277.1211 3.5439e+01     9.1388      1.500      2.175    14.4691   999.2042 0.0000e+00
      1.560      0.132     5.7126     80.336     40.952  32.326626     2.6697      7.121   277.4069 3.3442e+01     9.0516      1.531      2.219    14.4687   999.2044 0.0000e+00
      1.592      0.141     5.7140     80.410     40.967  32.338278     2.6701      7.118   277.5291 3.1259e+01     9.0059      1.559      2.261    14.4680   999.2046 0.0000e+00
      1.629      0.146     5.7178     80.454     40.967  32.338393     2.6559      7.116   277.4798 2.8990e+01     8.9795      1.596      2.314    14.4671   999.2050 0.0000e+00
      1.669      0.147     5.7254     80.464     40.955  32.328009     2.6535      7.115   277.4127 2.6804e+01     8.9291      1.637      2.373    14.4663   999.2053 0.0000e+00
      1.711      0.145     5.7357     80.407     40.970  32.339653     2.6851      7.115   277.3197 2.4665e+01     8.8560      1.677      2.433    14.4657   999.2055 0.0000e+00
      1.752      0.140     5.7400     80.316     40.986  32.352250     2.7173      7.114   277.2169 2.2855e+01     8.8155      1.721      2.496    14.4654   999.2058 0.0000e+00
      1.788      0.134     5.7427     80.234     40.988  32.353396     2.7123      7.113   277.2023 2.1549e+01     8.8329      1.757      2.549    14.4651   999.2060 0.0000e+00
      1.816      0.128     5.7460     80.146     40.989  32.353511     2.6687      7.110   277.2290 2.0498e+01     8.9026      1.781      2.584    14.4648   999.2061 0.0000e+00
      1.842      0.123     5.7399     80.032     40.989  32.353634     2.6240      7.109   277.1952 1.9409e+01     9.0032      1.804      2.617    14.4644   999.2063 0.0000e+00
      1.872      0.121     5.7321     79.917     40.991  32.354883     2.6141      7.108   277.2239 1.8199e+01     9.0327      1.835      2.661    14.4638   999.2066 0.0000e+00
      1.906      0.122     5.7270     79.818     41.009  32.368615     2.6086      7.105   277.4046 1.7027e+01     8.9976      1.870      2.712    14.4634   999.2068 0.0000e+00
      1.939      0.127     5.7221     79.718     41.040  32.392742     2.5928      7.101   277.6590 1.6042e+01     9.0049      1.902      2.759    14.4630   999.2070 0.0000e+00
      1.970      0.131     5.7127     79.628     41.040  32.392751     2.6051      7.097   277.8038 1.5181e+01     9.0876      1.931      2.802    14.4626   999.2072 0.0000e+00
      2.001      0.134     5.7034     79.551     41.010  32.368729     2.6452      7.092   277.7785 1.4288e+01     9.2112      1.962      2.846    14.4622   999.2074 0.0000e+00
      2.036      0.135     5.6984     79.463     40.994  32.356133     2.6698      7.088   277.7839 1.3355e+01     9.2872      1.996      2.895    14.4617   999.2076 0.0000e+00
      2.074      0.133     5.6899     79.370     41.008  32.367378     2.6687      7.086   277.7824 1.2464e+01     9.3187      2.034      2.950    14.4612   999.2079 0.0000e+00
      2.111      0.128     5.6834     79.302     41.022  32.377762     2.6749      7.085   277.6758 1.1644e+01     9.2641      2.070      3.003    14.4610   999.2081 0.0000e+00
      2.147      0.120     5.6793     79.278     40.993  32.354762     2.7012      7.084   277.6127 1.0940e+01     9.1179      2.107      3.056    14.4610   999.2082 0.0000e+00
      2.178      0.111     5.6725     79.300     40.978  32.343128     2.7186      7.085   277.7074 1.0435e+01     9.0589      2.140      3.104    14.4610   999.2084 0.0000e+00
      2.201      0.105     5.6648     79.344     41.004  32.364021     2.7206      7.085   277.8752 1.0077e+01     9.0746      2.160      3.134    14.4606   999.2086 0.0000e+00
      2.220      0.102     5.6597     79.400     40.992  32.353532     2.7340      7.083   277.9206 9.7036e+00     9.1121      2.174      3.154    14.4604   999.2087 0.0000e+00
      2.242      0.102     5.6578     79.474     40.979  32.343233     2.7589      7.080   277.9121 9.2661e+00     9.1839      2.196      3.186    14.4606   999.2087 0.0000e+00
      2.269      0.105     5.6602     79.522     41.009  32.366413     2.7782      7.078   278.0311 8.7864e+00     9.2223      2.223      3.225    14.4605   999.2088 0.0000e+00
      2.301      0.112     5.6640     79.517     41.027  32.379955     2.7862      7.075   278.2409 8.2900e+00     9.2162      2.256      3.272    14.4600   999.2091 0.0000e+00
      2.332      0.120     5.6667     79.500     41.027  32.380042     2.7432      7.072   278.3830 7.8530e+00     9.2412      2.288      3.320    14.4595   999.2093 0.0000e+00
      2.360      0.127     5.6742     79.471     41.011  32.367462     2.6566      7.069   278.3723 7.4682e+00     9.3598      2.314      3.356    14.4591   999.2095 0.0000e+00
      2.390      0.132     5.6790     79.392     40.995  32.354780     2.6066      7.064   278.3707 7.0280e+00     9.4711      2.341      3.395    14.4586   999.2097 0.0000e+00
      2.425      0.136     5.6761     79.311     40.993  32.353626     2.5887      7.062   278.4490 6.5501e+00     9.4731      2.377      3.448    14.4584   999.2099 0.0000e+00
      2.464      0.138     5.6748     79.291     40.993  32.353511     2.5877      7.061   278.4594 6.1239e+00     9.3505      2.417      3.506    14.4584   999.2101 0.0000e+00
      2.502      0.138     5.6755     79.315     40.993  32.353390     2.6205      7.059   278.4102 5.7442e+00     9.1357      2.453      3.558    14.4581   999.2103 0.0000e+00
      2.539      0.136     5.6679     79.353     40.993  32.352150     2.6476      7.056   278.4558 5.3874e+00     9.0060      2.489      3.611    14.4582   999.2104 0.0000e+00
      2.575      0.136     5.6589     79.366     40.977  32.338523     2.6546      7.053   278.5804 5.0899e+00     8.9955      2.528      3.667    14.4585   999.2106 0.0000e+00
      2.605      0.136     5.6600     79.371     40.948  32.315541     2.6533      7.051   278.6264 4.8584e+00     9.0081      2.557      3.709    14.4583   999.2107 0.0000e+00
      2.632      0.135     5.6610     79.436     40.964  32.328118     2.6398      7.050   278.5824 4.5821e+00     9.0922      2.576      3.736    14.4576   999.2109 0.0000e+00
      2.667      0.131     5.6661     79.550     41.009  32.363678     2.6223      7.051   278.4784 4.2210e+00     9.1934      2.610      3.786    14.4569   999.2112 0.0000e+00
      2.711      0.125     5.6670     79.660     41.010  32.364727     2.6061      7.052   278.4011 3.9006e+00     9.2165      2.661      3.860    14.4563   999.2115 0.0000e+00
      2.749      0.120     5.6634     79.731     40.980  32.340800     2.5996      7.053   278.4215 3.6966e+00     9.2404      2.701      3.918    14.4559   999.2117 0.0000e+00
      2.776      0.115     5.6702     79.791     40.965  32.328221     2.5444      7.053   278.3814 3.5696e+00     9.2529      2.724      3.951    14.4559   999.2118 0.0000e+00
      2.796      0.110     5.6787     79.861     40.980  32.339561     2.4245      7.052   278.3460 3.4581e+00     9.2038      2.741      3.976    14.4557   999.2120 0.0000e+00
      2.817      0.108     5.6890     79.914     40.995  32.350986     2.3553      7.051   278.5102 3.3198e+00     9.1714      2.761      4.005    14.4556   999.2121 0.0000e+00
      2.844      0.110     5.6921     79.944     40.982  32.339428     2.3581      7.049   278.6461 3.1498e+00     9.1882      2.787      4.043    14.4556   999.2122 0.0000e+00
      2.874      0.115     5.6954     79.967     40.966  32.326736     2.4668      7.047   278.5262 2.9540e+00     9.2758      2.818      4.087    14.4555   999.2123 0.0000e+00
      2.908      0.118     5.7021     79.978     40.964  32.324448     2.6641      7.046   278.3514 2.7530e+00     9.4116      2.851      4.134    14.4552   999.2126 0.0000e+00
      2.942      0.118     5.7062     79.986     40.949  32.311765     2.7668      7.045   278.3392 2.5777e+00     9.4534      2.886      4.186    14.4540   999.2129 0.0000e+00
      2.974      0.115     5.7074     80.021     40.934  32.300312     2.7798      7.044   278.4645 2.4414e+00     9.4532      2.917      4.233    14.4525   999.2132 0.0000e+00
      3.001      0.110     5.7096     80.069     40.950  32.312890     2.8472      7.043   278.6622 2.3385e+00     9.5072      2.943      4.268    14.4517   999.2135 0.0000e+00
      3.026      0.105     5.7111     80.101     40.980  32.336912     2.9662      7.042   278.7512 2.2411e+00     9.5499      2.968      4.304    14.4509   999.2137 0.0000e+00
      3.051      0.101     5.7093     80.121     40.980  32.336912     3.0313      7.040   278.5945 2.1440e+00     9.5429      2.993      4.341    14.4502   999.2139 0.0000e+00
      3.076      0.100     5.7133     80.136     40.950  32.312899     3.0272      7.039   278.4875 2.0640e+00     9.4881      3.018      4.377    14.4505   999.2140 0.0000e+00
      3.100      0.101     5.7175     80.134     40.935  32.300416     2.9338      7.037   278.6613 1.9829e+00     9.5108      3.039      4.408    14.4511   999.2140 0.0000e+00
      3.126      0.103     5.7194     80.108     40.951  32.312900     2.7701      7.035   278.8898 1.8779e+00     9.6532      3.064      4.445    14.4513   999.2141 0.0000e+00
      3.153      0.107     5.7204     80.084     40.981  32.336911     2.6766      7.034   279.0131 1.7765e+00     9.7029      3.094      4.488    14.4512   999.2143 0.0000e+00
      3.179      0.112     5.7220     80.083     40.981  32.336901     2.6613      7.034   279.0335 1.6885e+00     9.6198      3.117      4.520    14.4506   999.2144 0.0000e+00
      3.207      0.116     5.7225     80.097     40.950  32.312775     2.6631      7.035   278.8790 1.5985e+00     9.5665      3.142      4.558    14.4500   999.2146 0.0000e+00
      3.239      0.116     5.7197     80.117     40.932  32.299054     2.6984      7.035   278.6935 1.5175e+00     9.4512      3.175      4.606    14.4496   999.2149 0.0000e+00
      3.274      0.113     5.7171     80.128     40.931  32.297910     2.7593      7.035   278.6825 1.4332e+00     9.2090      3.210      4.657    14.4495   999.2151 0.0000e+00
      3.308      0.109     5.7178     80.127     40.933  32.298940     2.7846      7.036   278.7469 1.3511e+00     9.0620      3.246      4.709    14.4497   999.2152 0.0000e+00
      3.334      0.106     5.7184     80.110     40.948  32.311517     2.7779      7.036   278.7843 1.3002e+00     9.0510      3.273      4.747    14.4499   999.2153 0.0000e+00
      3.354      0.105     5.7207     80.073     40.963  32.323055     2.7819      7.035   278.7902 1.2586e+00     9.3052      3.288      4.769    14.4503   999.2153 0.0000e+00
      3.374      0.106     5.7215     80.035     40.949  32.311516     2.7986      7.033   278.8185 1.2026e+00     9.8415      3.306      4.794    14.4499   999.2154 0.0000e+00
      3.400      0.111     5.7211     79.990     40.934  32.298920     2.8067      7.030   278.9544 1.1387e+00    10.1613      3.333      4.833    14.4494   999.2156 0.0000e+00
      3.431      0.119     5.7209     79.932     40.934  32.297683     2.7936      7.028   279.0559 1.0730e+00    10.1567      3.364      4.879    14.4503   999.2156 0.0000e+00
      3.465      0.127     5.7164     79.880     40.933  32.296548     2.8221      7.025   279.0993 9.9811e-01    10.0148      3.397      4.928    14.4507   999.2158 0.0000e+00
      3.501      0.132     5.7149     79.840     40.920  32.285199     2.9082      7.022   279.1354 9.2184e-01     9.8227      3.435      4.981    14.4500   999.2160 0.0000e+00
      3.537      0.132     5.7121     79.826     40.924  32.287392     2.9589      7.022   279.0622 8.6003e-01     9.7347      3.470      5.032    14.4487   999.2164 0.0000e+00
      3.571      0.128     5.7068     79.840     40.971  32.323056     2.9588      7.021   278.9881 7.9722e-01     9.7050      3.501      5.079    14.4473   999.2167 0.0000e+00
      3.605      0.122     5.7038     79.841     40.987  32.335643     2.8987      7.019   279.0136 7.4157e-01     9.5935      3.535      5.128    14.4468   999.2170 0.0000e+00
      3.637      0.115     5.7002     79.814     40.958  32.312662     2.7869      7.017   279.0276 7.1009e-01     9.4690      3.570      5.177    14.4460   999.2172 0.0000e+00
      3.664      0.109     5.6991     79.781     40.940  32.299036     2.7255      7.017   278.9848 6.8540e-01     9.4447      3.594      5.213    14.4443   999.2176 0.0000e+00
      3.688      0.103     5.7020     79.757     40.938  32.297808     2.7108      7.017   279.0128 6.5264e-01     9.4635      3.614      5.242    14.4429   999.2179 0.0000e+00
      3.713      0.100     5.7027     79.740     40.939  32.297808     2.6783      7.015   279.1939 6.2024e-01     9.4666      3.641      5.280    14.4424   999.2181 0.0000e+00
      3.739      0.102     5.6996     79.735     40.941  32.299047     2.6368      7.011   279.4531 5.9613e-01     9.4822      3.668      5.320    14.4428   999.2182 0.0000e+00
      3.762      0.108     5.6966     79.745     40.958  32.312789     2.6160      7.008   279.6521 5.7548e-01     9.4885      3.690      5.351    14.4432   999.2182 0.0000e+00
      3.785      0.116     5.6956     79.756     40.989  32.337039     2.6084      7.008   279.7067 5.5512e-01     9.4765      3.709      5.380    14.4431   999.2183 0.0000e+00
      3.815      0.123     5.6939     79.763     40.992  32.338402     2.6055      7.008   279.6828 5.2029e-01     9.4687      3.737      5.421    14.4424   999.2185 0.0000e+00
      3.852      0.128     5.6934     79.763     40.981  32.329267     2.6512      7.008   279.6215 4.6800e-01     9.4278      3.777      5.480    14.4420   999.2188 0.0000e+00
      3.891      0.129     5.6948     79.751     41.013  32.353508     2.7367      7.009   279.4813 4.2713e-01     9.3427      3.817      5.536    14.4426   999.2189 0.0000e+00
      3.927      0.126     5.6956     79.725     41.044  32.377644     2.7797      7.010   279.3651 4.0159e-01     9.2587      3.850      5.583    14.4425   999.2191 0.0000e+00
      3.960      0.120     5.6962     79.691     41.033  32.367251     2.7817      7.010   279.3345 3.7211e-01     9.2303      3.885      5.635    14.4414   999.2194 0.0000e+00
      3.989      0.113     5.6966     79.650     41.018  32.354767     2.7518      7.010   279.2839 3.5411e-01     9.2949      3.916      5.679    14.4407   999.2196 0.0000e+00
      4.011      0.107     5.6961     79.610     41.017  32.353622     2.6870      7.010   279.1831 3.4677e-01     9.3840      3.934      5.706    14.4397   999.2199 0.0000e+00
      4.034      0.098     5.6937     79.579     41.017  32.353414     2.6565      7.011   279.0628 3.2637e-01     9.4556      3.952      5.733    14.4384   999.2202 0.0000e+00
      4.062      0.085     5.6918     79.539     41.016  32.352250     2.6619      7.012   278.9472 2.9517e-01     9.5056      3.981      5.774    14.4380   999.2203 0.0000e+00
      4.092      0.069     5.6886     79.509     41.000  32.339548     2.6305      7.012   278.9032 2.8142e-01     9.2673      4.016      5.825    14.4371   999.2206 0.0000e+00
      4.113      0.053     5.6850     79.509     40.983  32.326763     2.5710      7.013   278.9622 2.9169e-01     8.8030      4.039      5.858    14.4357   999.2210 0.0000e+00
      4.121      0.038     5.6846     79.490     40.979  32.324578     2.5415      7.014   279.0581 2.8955e-01     8.6109      4.045      5.867    14.4350   999.2211 0.0000e+00
      4.119      0.024     5.6811     79.464     40.964  32.313134     2.5418      7.015   279.1169 2.7875e-01     8.6488      4.041      5.861    14.4349   999.2211 0.0000e+00
      4.116      0.017     5.6767     79.469     40.965  32.315319     2.5658      7.014   279.0705 2.7503e-01     8.8362      4.034      5.851    14.4350   999.2210 0.0000e+00
      4.117      0.020     5.6800     79.465     41.010  32.350991     2.5978      7.013   279.0134 2.7070e-01     9.2047      4.035      5.853    14.4357   999.2209 0.0000e+00
      4.122      0.033     5.6782     79.465     41.026  32.363684     2.6077      7.011   279.1140 2.7335e-01     9.4336      4.042      5.863    14.4367   999.2208 0.0000e+00
      4.131      0.052     5.6726     79.473     40.999  32.341869     2.6157      7.010   279.2545 2.7292e-01     9.5068      4.049      5.872    14.4378   999.2206 0.0000e+00
      4.144      0.072     5.6770     79.473     40.999  32.341069     2.6693      7.007   279.3357 2.6241e-01     9.6637      4.061      5.890    14.4388   999.2206 0.0000e+00
      4.166      0.091     5.6748     79.529     41.016  32.354000     2.7446      7.005   279.4076 2.4540e-01     9.8548      4.082      5.922    14.4393   999.2206 0.0000e+00
      4.196      0.106     5.6737     79.587     41.039  32.371292     2.7719      7.003   279.4361 2.1093e-01     9.8841      4.114      5.967    14.4394   999.2208 0.0000e+00
      4.230      0.116     5.6784     79.587     41.106  32.423217     2.7737      7.001   279.4220 1.8069e-01     9.8221      4.149      6.017    14.4391   999.2209 0.0000e+00
      4.263      0.121     5.6718     79.544     41.174  32.474132     2.8093      6.999   279.4095 1.8501e-01     9.8591      4.181      6.062    14.4385   999.2212 0.0000e+00
      4.296      0.122     5.6803     79.450     41.185  32.479207     2.8728      6.998   279.3706 1.9380e-01     9.9382      4.213      6.110    14.4371   999.2215 0.0000e+00
      4.327      0.123     5.6872     79.345     41.196  32.484582     2.9089      6.997   279.3819 1.7474e-01     9.9265      4.245      6.157    14.4362   999.2218 0.0000e+00
      4.356      0.128     5.6835     79.235     41.268  32.539117     2.9077      6.995   279.6317 1.5088e-01     9.8807      4.273      6.197    14.4357   999.2221 0.0000e+00
      4.384      0.138     5.6846     79.059     41.548  32.757806     2.9012      6.991   280.0674 1.3724e-01     9.8763      4.297      6.232    14.4322   999.2227 0.0000e+00
      4.414      0.152     5.6748     78.802     42.308  33.351789     2.8562      6.986   280.3489 1.2810e-01     9.8398      4.326      6.274    14.4265   999.2237 0.0000e+00
      4.454      0.165     5.6681     78.531     43.237  34.072613     2.7714      6.982   280.2818 1.2457e-01     9.7678      4.364      6.330    14.4229   999.2244 0.0000e+00
      4.503      0.174     5.6629     78.270     43.712  34.428603     2.7260      6.978   280.1173 1.2404e-01     9.7263      4.413      6.400    14.4209   999.2249 0.0000e+00
      4.558      0.174     5.6518     77.961     43.885  34.546193     2.7226      6.975   280.1658 1.2376e-01     9.6661      4.469      6.482    14.4183   999.2255 0.0000e+00
      4.613      0.169     5.6302     77.417     44.301  34.859681     2.7130      6.971   280.4378 1.2370e-01     9.4658      4.527      6.566    14.4155   999.2266 0.0000e+00
      4.658      0.161     5.6122     76.321     45.120  35.489780     2.6880      6.965   280.7397 1.2369e-01     9.1727      4.575      6.635    14.4028   999.2290 0.0000e+00
      4.690      0.153     5.5981     74.473     46.131  36.261923     2.6636      6.956   281.1489 1.2372e-01     9.0057      4.603      6.676    14.3773   999.2329 0.0000e+00
      4.715      0.149     5.5818     71.919     47.148  37.023230     2.6437      6.945   281.8569 1.2374e-01     8.9873      4.620      6.700    14.3543   999.2362 0.0000e+00
      4.746      0.151     5.5560     68.843     48.172  37.775923     2.5255      6.934   282.5024 1.2375e-01     8.9513      4.650      6.742    14.3395   999.2386 0.0000e+00
      4.788      0.160     5.4836     65.368     49.174  38.507099     2.3094      6.922   282.8458 1.2379e-01     8.8640      4.694      6.807    14.3279   999.2408 0.0000e+00
      4.834      0.170     5.3526     61.510     50.039  39.134968     2.1898      6.912   283.1703 1.2377e-01     8.7839      4.741      6.876    14.3078   999.2442 0.0000e+00
      4.883      0.175     5.1677     57.296     50.840  39.717557     2.1803      6.903   283.5006 1.2372e-01     8.7367      4.787      6.944    14.2653   999.2508 0.0000e+00
      4.933      0.174     4.9508     52.959     51.692  40.345443     2.0903      6.893   283.6552 1.2372e-01     8.6537      4.837      7.016    14.2062   999.2598 0.0000e+00
      4.981      0.167     4.7073     48.886     52.507  40.949482     1.9080      6.884   283.9215 1.2367e-01     8.4693      4.887      7.089    14.1485   999.2686 0.0000e+00
      5.022      0.157     4.4357     45.326     53.162  41.434039     1.8150      6.876   284.6542 1.2359e-01     8.3428      4.928      7.149    14.0993   999.2759 0.0000e+00
      5.056      0.148     4.1312     42.338     53.692  41.823435     1.7881      6.867   285.6321 1.2362e-01     8.3035      4.959      7.192    14.0561   999.2824 0.0000e+00
      5.089      0.142     3.8083     39.849     54.242  42.229150     1.5660      6.857   286.3661 1.2372e-01     8.1576      4.991      7.237    14.0192   999.2880 0.0000e+00
      5.123      0.142     3.5123     37.802     54.739  42.593468     1.1752      6.845   286.8185 1.2376e-01     7.9549      5.026      7.289    13.9896   999.2925 0.0000e+00
      5.157      0.148     3.2553     36.186     55.034  42.799740     0.9646      6.833   287.3158 1.2375e-01     7.8848      5.056      7.334    13.9653   999.2963 0.0000e+00
      5.192      0.154     3.0439     34.854     55.249  42.945328     0.9533      6.822   287.7335 1.2374e-01     7.9002      5.090      7.381    13.9439   999.2995 0.0000e+00
      5.234      0.154     2.8686     33.608     55.454  43.083843     0.9513      6.814   287.9973 1.2372e-01     7.9115      5.131      7.441    13.9236   999.3027 0.0000e+00
      5.281      0.146     2.7185     32.315     55.468  43.077610     0.8713      6.807   288.4405 1.2368e-01     8.0550      5.178      7.510    13.9019   999.3061 0.0000e+00
      5.328      0.129     2.6092     30.963     55.293  42.933445     0.7314      6.801   288.8755 1.2366e-01     8.3239      5.228      7.582    13.8810   999.3093 0.0000e+00
      5.366      0.105     2.5188     29.643     55.124  42.801122     0.6647      6.796   288.9551 1.2366e-01     8.5087      5.269      7.642    13.8620   999.3121 0.0000e+00
      5.389      0.077     2.4336     28.431     55.051  42.747582     0.6715      6.793   288.8865 1.2366e-01     8.5851      5.289      7.672    13.8421   999.3151 0.0000e+00
      5.396      0.050     2.3418     27.373     55.023  42.730563     0.7010      6.790   288.8205 1.2372e-01     8.5582      5.293      7.678    13.8251   999.3174 0.0000e+00
      5.397      0.028     2.2400     26.504     55.006  42.722335     0.7525      6.787   288.7605 1.2374e-01     8.4467      5.293      7.677    13.8176   999.3183 0.0000e+00
      5.398      0.013     2.1434     25.919     54.988  42.711610     0.7825      6.784   288.7625 1.2374e-01     8.3833      5.293      7.677    13.8177   999.3182 0.0000e+00
      5.399      0.006     2.0536     25.718     54.925  42.664383     0.7781      6.781   288.7582 1.2376e-01     8.3815      5.294      7.678    13.8212   999.3177 0.0000e+00
      5.400      0.005     1.9772     25.880     54.833  42.595773     0.7856      6.778   288.7089 1.2378e-01     8.3274      5.295      7.680    13.8271   999.3170 0.0000e+00
      5.401      0.005     1.9116     26.276     54.726  42.516987     0.8133      6.776   288.5964 1.2378e-01     8.1881      5.296      7.682    13.8319   999.3163 0.0000e+00
      5.403      0.005     1.8642     26.510     54.667  42.473712     0.8271      6.776   288.5159 1.2377e-01     8.1061      5.298      7.684    13.8338   999.3161 0.0000e+00
      5.405 -9.990e-29     1.8528 -9.990e-29 -9.990e-29 -9.990e-29 -9.990e-29 -9.990e-29 -9.990e-29 1.2378e-01 -9.990e-29      5.300      7.688    13.8352   999.3158 0.0000e+00
      5.406 -9.990e-29     1.8642 -9.990e-29 -9.990e-29 -9.990e-29 -9.990e-29 -9.990e-29 -9.990e-29 1.2376e-01 -9.990e-29      5.301      7.689    13.8367   999.3156 0.0000e+00
      5.406 -9.990e-29     1.9038 -9.990e-29 -9.990e-29 -9.990e-29 -9.990e-29 -9.990e-29 -9.990e-29 1.2374e-01 -9.990e-29      5.301      7.689    13.8421   999.3148 0.0000e+00
      5.406 -9.990e-29     1.9377 -9.990e-29 -9.990e-29 -9.990e-29 -9.990e-29 -9.990e-29 -9.990e-29 1.2374e-01 -9.990e-29      5.302      7.691    13.8470   999.3141 0.0000e+00
