* Sea-Bird SBE19plus  Data File:
* FileName = C:\DATA\102319_fcr50_0003.hex
* Software version 2.8.0.119 SB_Terminal.dll
* Temperature SN = 7809
* Conductivity SN = 7809
* System UpLoad Time = Oct 23 2019 09:56:24
* <ApplicationData>
* <Seaterm232>
* <SoftwareVersion>2.8.0.119</SoftwareVersion>
* <BuildDate>07-Nov-2018</BuildDate>
* </Seaterm232>
* </ApplicationData>
* cast   3 23 Oct 2019 09:42:02 samples 3364 to 4683, avg = 1, stop = mag switch
# nquan = 16
# nvalues = 1012                        
# units = specified
# name 0 = depFM: Depth [fresh water, m]
# name 1 = dz/dtM: Descent Rate [m/s]
# name 2 = sbeox0ML/L: Oxygen, SBE 43 [ml/l]
# name 3 = sbeox0PS: Oxygen, SBE 43 [% saturation]
# name 4 = specc: Specific Conductance [uS/cm]
# name 5 = c0uS/cm: Conductivity [uS/cm]
# name 6 = flECO-AFL: Fluorescence, WET Labs ECO-AFL/FL [mg/m^3]
# name 7 = ph: pH
# name 8 = orp: Oxidation Reduction Potential [mV]
# name 9 = par/sat/log: PAR/Logarithmic, Satlantic
# name 10 = turbWETntu0: Turbidity, WET Labs ECO [NTU]
# name 11 = prdM: Pressure, Strain Gauge [db]
# name 12 = prdE: Pressure, Strain Gauge [psi]
# name 13 = tv290C: Temperature [ITS-90, deg C]
# name 14 = density00: Density [density, kg/m^3]
# name 15 = flag:  0.000e+00
# span 0 =     -0.569,      9.769       
# span 1 =     -0.280,      0.144       
# span 2 =    -0.5939,     7.2407       
# span 3 =     -7.860,     99.664       
# span 4 =     22.253,    414.403       
# span 5 =  16.676233, 320.911788       
# span 6 =    -2.3940,     3.9724       
# span 7 =      3.054,      8.477       
# span 8 = -1240.7455,   524.0390       
# span 9 = 1.2352e-01, 1.0480e+03       
# span 10 =    -5.4022,    36.1433      
# span 11 =     -0.558,      9.581      
# span 12 =     -0.810,     13.896      
# span 13 =    12.4485,    14.5005      
# span 14 =   999.1934,   999.4856      
# span 15 = 0.0000e+00, 0.0000e+00      
# interval = seconds: 0.25
# start_time = Oct 23 2019 09:42:02 [Instrument's time stamp, header]
# bad_flag = -9.990e-29
# <Sensors count="9" >
#   <sensor Channel="1" >
#     <!-- Count, Temperature -->
#     <TemperatureSensor SensorID="58" >
#       <SerialNumber>7809</SerialNumber>
#       <CalibrationDate>24-Mar-19</CalibrationDate>
#       <A0>1.21792325e-003</A0>
#       <A1>2.81669265e-004</A1>
#       <A2>-1.60333336e-006</A2>
#       <A3>1.98414625e-007</A3>
#       <Slope>1.00000000</Slope>
#       <Offset>0.0000</Offset>
#     </TemperatureSensor>
#   </sensor>
#   <sensor Channel="2" >
#     <!-- Frequency 0, Conductivity -->
#     <ConductivitySensor SensorID="3" >
#       <SerialNumber>7809</SerialNumber>
#       <CalibrationDate>24-Mar-19</CalibrationDate>
#       <UseG_J>1</UseG_J>
#       <!-- Cell const and series R are applicable only for wide range sensors. -->
#       <SeriesR>0.0000</SeriesR>
#       <CellConst>2000.0000</CellConst>
#       <ConductivityType>0</ConductivityType>
#       <Coefficients equation="0" >
#         <A>0.00000000e+000</A>
#         <B>0.00000000e+000</B>
#         <C>0.00000000e+000</C>
#         <D>0.00000000e+000</D>
#         <M>0.0</M>
#         <CPcor>-9.57000000e-008</CPcor>
#       </Coefficients>
#       <Coefficients equation="1" >
#         <G>-1.00589325e+000</G>
#         <H>1.26816302e-001</H>
#         <I>-1.51560448e-004</I>
#         <J>2.67137274e-005</J>
#         <CPcor>-9.57000000e-008</CPcor>
#         <CTcor>3.2500e-006</CTcor>
#         <!-- WBOTC not applicable unless ConductivityType = 1. -->
#         <WBOTC>0.00000000e+000</WBOTC>
#       </Coefficients>
#       <Slope>1.00000000</Slope>
#       <Offset>0.00000</Offset>
#     </ConductivitySensor>
#   </sensor>
#   <sensor Channel="3" >
#     <!-- Count, Pressure, Strain Gauge -->
#     <PressureSensor SensorID="46" >
#       <SerialNumber>7809</SerialNumber>
#       <CalibrationDate>11-Mar-19</CalibrationDate>
#       <PA0>4.56561833e-002</PA0>
#       <PA1>4.85095118e-004</PA1>
#       <PA2>-2.88327090e-012</PA2>
#       <PTEMPA0>-5.48784562e+001</PTEMPA0>
#       <PTEMPA1>5.53756816e+001</PTEMPA1>
#       <PTEMPA2>-5.86727098e-001</PTEMPA2>
#       <PTCA0>5.25246745e+005</PTCA0>
#       <PTCA1>1.22304214e+001</PTCA1>
#       <PTCA2>-3.56745036e-001</PTCA2>
#       <PTCB0>2.51668750e+001</PTCB0>
#       <PTCB1>3.75000000e-004</PTCB1>
#       <PTCB2>0.00000000e+000</PTCB2>
#       <Offset>0.000000</Offset>
#     </PressureSensor>
#   </sensor>
#   <sensor Channel="4" >
#     <!-- A/D voltage 0, Oxygen, SBE 43 -->
#     <OxygenSensor SensorID="38" >
#       <SerialNumber>0434</SerialNumber>
#       <CalibrationDate>13-Apr-19</CalibrationDate>
#       <Use2007Equation>1</Use2007Equation>
#       <CalibrationCoefficients equation="0" >
#         <!-- Coefficients for Owens-Millard equation. -->
#         <Boc>0.0000</Boc>
#         <Soc>0.0000e+000</Soc>
#         <offset>0.0000</offset>
#         <Pcor>0.00e+000</Pcor>
#         <Tcor>0.0000</Tcor>
#         <Tau>0.0</Tau>
#       </CalibrationCoefficients>
#       <CalibrationCoefficients equation="1" >
#         <!-- Coefficients for Sea-Bird equation - SBE calibration in 2007 and later. -->
#         <Soc>4.2007e-001</Soc>
#         <offset>-0.6109</offset>
#         <A>-4.3656e-003</A>
#         <B> 1.7017e-004</B>
#         <C>-2.5341e-006</C>
#         <D0> 2.5826e+000</D0>
#         <D1> 1.92634e-004</D1>
#         <D2>-4.64803e-002</D2>
#         <E> 3.6000e-002</E>
#         <Tau20> 1.1800</Tau20>
#         <H1>-3.3000e-002</H1>
#         <H2> 5.0000e+003</H2>
#         <H3> 1.4500e+003</H3>
#       </CalibrationCoefficients>
#     </OxygenSensor>
#   </sensor>
#   <sensor Channel="5" >
#     <!-- A/D voltage 1, PAR/Logarithmic, Satlantic -->
#     <PARLog_SatlanticSensor SensorID="76" >
#       <SerialNumber>1122</SerialNumber>
#       <CalibrationDate>08-May-2019</CalibrationDate>
#       <a0>9.7456e-001</a0>
#       <a1>8.1640e-001</a1>
#       <Im>1.3589e+000</Im>
#       <Multiplier>1.0000e+000</Multiplier>
#     </PARLog_SatlanticSensor>
#   </sensor>
#   <sensor Channel="6" >
#     <!-- A/D voltage 2, pH -->
#     <pH_Sensor SensorID="43" >
#       <SerialNumber>0363</SerialNumber>
#       <CalibrationDate>15-Apr-19</CalibrationDate>
#       <Slope>4.5952</Slope>
#       <Offset>2.5370</Offset>
#     </pH_Sensor>
#   </sensor>
#   <sensor Channel="7" >
#     <!-- A/D voltage 3, Oxidation Reduction Potential -->
#     <OxidationReductionPotentialSensor SensorID="41" >
#       <SerialNumber>0363</SerialNumber>
#       <CalibrationDate>15-Apr-19</CalibrationDate>
#       <B>2.499480</B>
#       <M>-0.496195</M>
#       <Offset>0.0</Offset>
#     </OxidationReductionPotentialSensor>
#   </sensor>
#   <sensor Channel="8" >
#     <!-- A/D voltage 4, Fluorometer, WET Labs ECO-AFL/FL -->
#     <FluoroWetlabECO_AFL_FL_Sensor SensorID="20" >
#       <SerialNumber>FLNTURT-2496</SerialNumber>
#       <CalibrationDate>08-May-2019</CalibrationDate>
#       <ScaleFactor>5.00000000e+001</ScaleFactor>
#       <!-- Dark output -->
#       <Vblank>0.0550</Vblank>
#     </FluoroWetlabECO_AFL_FL_Sensor>
#   </sensor>
#   <sensor Channel="9" >
#     <!-- A/D voltage 5, Turbidity Meter, WET Labs, ECO-NTU -->
#     <TurbidityMeter SensorID="67" >
#       <SerialNumber>FLNTURT-2496</SerialNumber>
#       <CalibrationDate>08-May-2019</CalibrationDate>
#       <ScaleFactor>189.000000</ScaleFactor>
#       <!-- Dark output -->
#       <DarkVoltage>0.071000</DarkVoltage>
#     </TurbidityMeter>
#   </sensor>
# </Sensors>
# datcnv_date = Oct 23 2019 09:58:36, 7.26.7.129 [datcnv_vars = 15]
# datcnv_in = C:\DATA\102319_fcr50.hex C:\DATA\SBE19plusV2_7809.xmlcon
# datcnv_skipover = 0
# datcnv_ox_hysteresis_correction = yes
# datcnv_ox_tau_correction = yes
# filter_date = Oct 23 2019 09:58:58, 7.26.7.129
# filter_in = C:\DATA\102319_fcr50.cnv
# filter_low_pass_tc_A = 0.030
# filter_low_pass_tc_B = 0.150
# filter_low_pass_A_vars = sbeox0ML/L prdM prdE tv290C density00
# filter_low_pass_B_vars = depFM dz/dtM sbeox0PS specc c0uS/cm flECO-AFL ph orp par/sat/log turbWETntu0
# alignctd_date = Oct 23 2019 09:59:24, 7.26.7.129
# alignctd_in = C:\DATA\102319_fcr50.cnv
# alignctd_adv = dz/dtM 1.000, sbeox0PS 1.000, specc 1.000, c0uS/cm 1.000, flECO-AFL 1.000, ph 1.000, orp 1.000, turbWETntu0 1.000                                                                                                   
# file_type = ascii
*END*
     -0.569 4.7452e-19     7.2394     96.992     35.298  26.443366    -0.1628      6.280 -1240.7455 2.6646e+02     1.0906     -0.558     -0.810    12.4624   999.4581 0.0000e+00
     -0.569 4.3139e-20     7.2387     96.990     35.668  26.719780    -0.1613      6.281 -1240.7455 2.9882e+02     1.0822     -0.558     -0.810    12.4601   999.4585 0.0000e+00
     -0.569 3.9217e-21     7.2388     97.002     36.446  27.301912    -0.1646      6.283 -1240.7455 3.3321e+02     1.0273     -0.558     -0.809    12.4577   999.4584 0.0000e+00
     -0.569 3.5652e-22     7.2407     96.993     37.581  28.152359    -0.1683      6.285 -1240.7455 3.7565e+02     0.6890     -0.558     -0.809    12.4558   999.4583 0.0000e+00
     -0.569 3.2410e-23     7.2379     96.965     37.707  28.246827    -0.1623      6.286 -1240.7455 2.7995e+02     0.0728     -0.558     -0.809    12.4542   999.4589 0.0000e+00
     -0.569 2.9464e-24     7.2378     96.942     36.615  27.429049    -0.1615      6.289 -1240.7455 3.9781e+02    -0.2949     -0.558     -0.809    12.4533   999.4590 0.0000e+00
     -0.569 2.6786e-25     7.2406     96.912     35.138  26.322389    -0.1585      6.295 -1240.7455 8.2648e+02    -0.3494     -0.557     -0.808    12.4529   999.4592 0.0000e+00
     -0.569 2.4351e-26     7.2399     96.884     33.735  25.271116    -0.1524      6.302 -1240.7455 1.0480e+03    -0.3885     -0.558     -0.809    12.4526   999.4600 0.0000e+00
     -0.569 2.2166e-27     7.2358     96.869     32.436  24.297782    -0.1480      6.301 -1240.7455 1.0208e+03    -0.4728     -0.558     -0.809    12.4525   999.4600 0.0000e+00
     -0.569 2.3280e-28     7.2359     96.831     31.285  23.435125    -0.1410      6.297 -1240.7455 9.4797e+02    -0.5172     -0.558     -0.809    12.4529   999.4595 0.0000e+00
     -0.569 3.6540e-28     7.2333     96.784     30.398  22.770163    -0.1456      6.301 -1240.7455 7.1625e+02    -0.4987     -0.558     -0.809    12.4531   999.4589 0.0000e+00
     -0.568 3.8198e-27     7.2293     96.753     29.664  22.220426    -0.1514      6.306 -1240.7455 3.4678e+02    -0.4779     -0.557     -0.808    12.4529   999.4585 0.0000e+00
     -0.568 4.1999e-26     7.2317     96.739     29.102  21.799282    -0.1502      6.301 -1240.7455 1.4694e+02    -0.4629     -0.557     -0.808    12.4523   999.4581 0.0000e+00
     -0.568 4.6199e-25     7.2270     96.748     28.512  21.357051    -0.1577      6.285 -1240.7455 1.1799e+02    -0.4484     -0.557     -0.808    12.4515   999.4577 0.0000e+00
     -0.568 5.0819e-24     7.2230     96.756     27.862  20.869333    -0.1639      6.264 -1240.7455 1.0199e+02    -0.4666     -0.558     -0.809    12.4504   999.4577 0.0000e+00
     -0.568 5.5901e-23     7.2217     96.730     27.327  20.468994    -0.1649      6.257 -1240.7455 9.4847e+01    -0.4863     -0.557     -0.808    12.4494   999.4575 0.0000e+00
     -0.568 6.1491e-22     7.2196     96.681     26.792  20.068361    -0.1605      6.267 -1240.7455 9.4547e+01    -0.4897     -0.558     -0.809    12.4490   999.4574 0.0000e+00
     -0.568 6.7640e-21     7.2215     96.648     26.559  19.894125    -0.1541      6.287 -1240.7455 9.3038e+01    -0.5073     -0.557     -0.808    12.4487   999.4572 0.0000e+00
     -0.568 7.4404e-20     7.2234     96.630     26.716  20.011326    -0.1575      6.301 -1240.7455 8.8600e+01    -0.5354     -0.557     -0.808    12.4486   999.4570 0.0000e+00
     -0.568 8.1845e-19     7.2212     96.616     26.567  19.899880    -0.1573      6.300 -1240.7455 8.5634e+01    -0.5352     -0.558     -0.809    12.4487   999.4569 0.0000e+00
     -0.568 9.0029e-18     7.2155     96.604     25.861  19.371094    -0.1522      6.325 -1240.7455 9.9498e+01    -0.5048     -0.557     -0.808    12.4488   999.4567 0.0000e+00
     -0.568 9.9032e-17     7.2137     96.597     25.377  19.008598    -0.1565      6.358 -1240.7455 2.7243e+02    -0.4954     -0.557     -0.808    12.4490   999.4565 0.0000e+00
     -0.568 1.0894e-15     7.2127     96.602     25.542  19.131957    -0.1652      6.353 -1240.7455 5.7330e+02    -0.5195     -0.557     -0.808    12.4491   999.4566 0.0000e+00
     -0.568 1.1983e-14     7.2114     96.610     25.821  19.340543    -0.1711      6.357 -1240.7455 6.9461e+02    -0.5342     -0.557     -0.808    12.4491   999.4567 0.0000e+00
     -0.568 1.3181e-13     7.2108     96.613     25.781  19.310913    -0.1678      6.368 -1240.7455 5.7141e+02    -0.5101     -0.557     -0.807    12.4490   999.4563 0.0000e+00
     -0.568 1.4499e-12     7.2095     96.603     25.402  19.027381    -0.1597      6.351 -1240.7455 5.1621e+02    -0.4898     -0.557     -0.808    12.4488   999.4561 0.0000e+00
     -0.568 1.5949e-11     7.2107     96.581     24.882  18.639411    -0.1595      6.331 -1240.7455 7.2364e+02    -0.5180     -0.557     -0.808    12.4485   999.4563 0.0000e+00
     -0.568 1.7544e-10     7.2114     96.566     24.425  18.298299    -0.1561      6.321 -1240.7455 8.9749e+02    -0.5561     -0.557     -0.808    12.4487   999.4564 0.0000e+00
     -0.568 1.9299e-09     7.2115     96.538     24.038  18.010485    -0.1446      6.319 -1240.7454 7.3151e+02    -0.5569     -0.557     -0.808    12.4493   999.4563 0.0000e+00
     -0.568 2.1228e-08     7.2116     96.498     23.616  17.696144    -0.1424      6.330 -1240.7449 5.0472e+02    -0.5280     -0.557     -0.808    12.4500   999.4561 0.0000e+00
     -0.568 2.3351e-07     7.2076     96.493     22.985  17.224495    -0.1464      6.345 -1240.7389 5.7462e+02    -0.5011     -0.557     -0.807    12.4512   999.4558 0.0000e+00
     -0.568      0.000     7.2074     96.496     22.347  16.746790    -0.1501      6.229 -1240.6725 6.8947e+02    -0.5275     -0.557     -0.808    12.4556   999.4551 0.0000e+00
     -0.568      0.000     7.2053     96.468     22.253  16.676233    -0.2131      5.678 -1239.9430 5.5984e+02    -0.6175     -0.557     -0.808    12.4606   999.4543 0.0000e+00
     -0.568      0.000     7.1979     96.433     22.522  16.878718    -0.3272      4.120 -1231.9179 3.6446e+02    -0.7045     -0.557     -0.808    12.4655   999.4537 0.0000e+00
     -0.568      0.003     7.1998     96.414     23.652  17.736534    -0.3859      3.054 -1143.6414 3.9976e+02    -0.7601     -0.556     -0.807    12.4653   999.4535 0.0000e+00
     -0.568      0.013     7.2013     96.396     28.599  21.530767    -0.4288      4.234  -517.4452 6.2924e+02    -0.8962     -0.557     -0.808    12.4677   999.4528 0.0000e+00
     -0.568      0.029     7.1983     96.371     40.467  30.723478    -0.7844      5.841   355.9386 8.3304e+02    -2.0883     -0.556     -0.807    12.4632   999.4535 0.0000e+00
     -0.567      0.051     7.1940     96.334     59.258  45.384370    -1.4082      6.735   524.0390 8.8037e+02    -4.2607     -0.558     -0.809    12.4690   999.4530 0.0000e+00
     -0.557      0.076     7.1955     96.297     75.245  57.979084    -1.7462      7.402   342.7571 8.0487e+02    -5.4022     -0.554     -0.803    12.4577   999.4541 0.0000e+00
     -0.530      0.101     7.1858     96.286     78.242  60.553229    -1.8024      7.824   315.2278 7.3948e+02    -4.7141     -0.524     -0.759    12.5063   999.4499 0.0000e+00
     -0.494      0.122     7.1325     96.290     72.830  56.568913    -1.9661      8.090   305.5313 7.2200e+02     4.3874     -0.486     -0.705    12.8294   999.4138 0.0000e+00
     -0.453      0.137     7.0628     96.296     65.201  50.790924    -2.2423      8.264   299.4247 6.5633e+02    21.1064     -0.445     -0.645    13.2472   999.3687 0.0000e+00
     -0.411      0.144     7.0141     96.307     57.144  44.625199    -2.3938      8.371   294.3067 6.1084e+02    30.2300     -0.399     -0.579    13.5283   999.3401 0.0000e+00
     -0.373      0.142     6.9858     96.312     51.604  40.385874    -2.3940      8.432   289.3376 7.5154e+02    31.0329     -0.364     -0.529    13.7138   999.3145 0.0000e+00
     -0.339      0.135     6.9656     96.314     49.130  38.521316    -2.2959      8.462   284.3423 9.0016e+02    30.6176     -0.334     -0.484    13.8503   999.2935 0.0000e+00
     -0.305      0.125     6.9484     96.346     48.648  38.206363    -1.2947      8.467   279.6815 9.4520e+02    25.4383     -0.299     -0.433    13.9615   999.2761 0.0000e+00
     -0.273      0.117     6.9354     96.417     50.631  39.815450     0.5477      8.467   274.7996 9.5947e+02    15.9954     -0.266     -0.385    14.0568   999.2593 0.0000e+00
     -0.245      0.110     6.9247     96.529     56.243  44.263524     1.5565      8.472   269.4541 9.3314e+02    10.8604     -0.240     -0.348    14.1346   999.2470 0.0000e+00
     -0.220      0.104     6.9126     96.695     61.913  48.746563     1.6425      8.476   264.7797 9.0084e+02    10.3802     -0.215     -0.311    14.2027   999.2368 0.0000e+00
     -0.196      0.097     6.9053     96.901     62.706  49.377404     1.6489      8.477   261.3022 9.0540e+02    10.1563     -0.192     -0.279    14.2688   999.2274 0.0000e+00
     -0.171      0.090     6.9024     97.139     59.706  47.002230     1.6594      8.476   258.9838 9.0840e+02     9.8253     -0.169     -0.245    14.3232   999.2199 0.0000e+00
     -0.146      0.085     6.9051     97.404     56.203  44.225644     1.6659      8.474   257.1396 8.9677e+02     9.6545     -0.142     -0.206    14.3495   999.2187 0.0000e+00
     -0.125      0.081     6.9158     97.673     54.072  42.540817     1.6664      8.467   255.4370 8.9007e+02     9.6655     -0.120     -0.175    14.3646   999.2197 0.0000e+00
     -0.107      0.079     6.9282     97.932     53.057  41.743803     1.6574      8.456   253.8854 8.8780e+02     9.5970     -0.105     -0.153    14.3782   999.2176 0.0000e+00
     -0.091      0.076     6.9485     98.176     51.060  40.176319     1.6347      8.441   252.0594 8.9103e+02     9.4484     -0.090     -0.131    14.3584   999.2191 0.0000e+00
     -0.071      0.074     6.9720     98.387     48.123  37.872529     1.6168      8.426   250.4804 8.9526e+02     9.4093     -0.071     -0.103    14.3336   999.2212 0.0000e+00
     -0.051      0.074     6.9919     98.572     46.275  36.425043     1.6144      8.409   249.5934 8.9450e+02     9.4525     -0.048     -0.070    14.3321   999.2207 0.0000e+00
     -0.031      0.072     7.0099     98.849     45.654  35.942087     1.6499      8.386   248.9056 8.9518e+02     9.6096     -0.029     -0.042    14.3347   999.2206 0.0000e+00
     -0.012      0.068     7.0274     99.293     45.356  35.714594     1.7070      8.360   247.9291 9.0213e+02     9.9005     -0.012     -0.017    14.3374   999.2196 0.0000e+00
      0.007      0.063     7.0422     99.664     45.093  35.515153     1.7244      8.337   246.4763 8.7580e+02    10.0851      0.007      0.010    14.3470   999.2169 0.0000e+00
      0.023      0.060     7.0507     99.562     44.983  35.434795     1.7224      8.310   244.9339 7.4264e+02    10.1377      0.024      0.034    14.3557   999.2152 0.0000e+00
      0.034      0.058     7.0641     98.695     45.066  35.504651     1.7692      8.267   244.0799 6.1382e+02    10.2096      0.036      0.052    14.3601   999.2145 0.0000e+00
      0.043      0.056     7.1030     96.978     44.774  35.280779     1.8392      8.225   243.8933 5.4501e+02    10.3313      0.041      0.060    14.3679   999.2134 0.0000e+00
      0.057      0.052     7.1402     94.593     44.181  34.822474     1.8577      8.198   243.6244 3.9887e+02    10.3961      0.050      0.074    14.3775   999.2120 0.0000e+00
      0.077      0.046     7.1381     91.796     43.966  34.660072     1.8450      8.187   243.0654 3.2422e+02    10.3371      0.077      0.112    14.3838   999.2111 0.0000e+00
      0.095      0.040     7.0805     88.809     44.030  34.713538     1.8416      8.183   242.4702 4.5499e+02    10.2415      0.098      0.141    14.3866   999.2110 0.0000e+00
      0.103      0.031     6.9486     85.864     44.103  34.770787     1.8428      8.181   242.2781 5.7149e+02     9.9279      0.102      0.147    14.3937   999.2098 0.0000e+00
      0.105      0.021     6.7703     83.216     44.359  34.971447     1.8505      8.181   242.3774 5.2244e+02     9.3635      0.103      0.149    14.4063   999.2077 0.0000e+00
      0.107      0.012     6.5639     81.082     44.614  35.172156     1.8572      8.179   242.1218 4.4528e+02     9.0225      0.105      0.152    14.4151   999.2065 0.0000e+00
      0.107      0.005     6.3443     79.479     44.281  34.912637     1.8543      8.174   241.5108 4.7673e+02     8.9834      0.105      0.152    14.4179   999.2062 0.0000e+00
      0.107      0.002     6.1282     78.269     43.509  34.308904     1.8678      8.169   240.7544 4.9511e+02     9.0541      0.105      0.152    14.4175   999.2061 0.0000e+00
      0.108      0.001     5.9312     77.290     42.987  33.901945     1.8991      8.166   240.0323 3.9334e+02     9.1565      0.106      0.154    14.4140   999.2067 0.0000e+00
      0.108      0.001     5.7801     76.430     42.854  33.800157     1.9197      8.164   239.6629 2.8015e+02     9.2056      0.107      0.154    14.4127   999.2072 0.0000e+00
      0.108      0.001     5.6688     75.627     42.903  33.839795     1.9271      8.162   239.6438 2.1578e+02     9.2218      0.106      0.154    14.4172   999.2064 0.0000e+00
      0.108      0.000     5.5864     74.873     43.026  33.936941     1.9359      8.162   239.5433 1.8900e+02     9.2872      0.106      0.154    14.4242   999.2049 0.0000e+00
      0.108 1.8645e-08     5.5181     74.206     43.136  34.022757     1.9564      8.162   239.3070 1.9168e+02     9.4055      0.106      0.154    14.4298   999.2040 0.0000e+00
      0.108 2.0509e-07     5.4577     73.638     43.175  34.052325     1.9671      8.162   239.0236 1.9290e+02     9.4729      0.106      0.154    14.4330   999.2035 0.0000e+00
      0.108 2.0509e-07     5.4013     73.218     43.163  34.040590     1.9618      8.162   238.6117 1.8240e+02     9.4790      0.106      0.154    14.4343   999.2033 0.0000e+00
      0.108 1.8645e-08     5.3446     73.013     43.124  34.007791     1.9613      8.163   238.1126 1.8598e+02     9.6759      0.106      0.153    14.4341   999.2034 0.0000e+00
      0.108 1.6950e-09     5.2982     73.026     43.084  33.973081     1.9704      8.164   237.6352 2.2787e+02    10.0839      0.106      0.153    14.4336   999.2036 0.0000e+00
      0.108 1.5409e-10     5.2567     73.265     43.042  33.938246     1.9760      8.164   237.3998 2.6881e+02    10.3159      0.106      0.154    14.4325   999.2037 0.0000e+00
      0.108 1.4008e-11     5.2234     73.713     43.001  33.903928     1.9688      8.165   237.2463 2.8724e+02    10.3173      0.106      0.154    14.4298   999.2041 0.0000e+00
      0.108 1.2735e-12     5.2111     74.251     42.966  33.875474     1.9610      8.166   236.8971 3.2048e+02    10.2974      0.106      0.154    14.4263   999.2046 0.0000e+00
      0.108 1.1577e-13     5.2114     74.751     42.931  33.848078     1.9687      8.167   236.5334 3.6109e+02    10.3378      0.106      0.154    14.4231   999.2050 0.0000e+00
      0.108 1.0525e-14     5.2282     75.155     42.903  33.826548     1.9837      8.167   235.9462 3.6377e+02    10.3798      0.106      0.154    14.4204   999.2055 0.0000e+00
      0.108 9.5680e-16     5.2645     75.435     42.876  33.805548     1.9866      8.166   235.0457 3.2002e+02    10.3463      0.106      0.154    14.4185   999.2057 0.0000e+00
      0.109 8.6980e-17     5.3068     75.565     42.849  33.784567     1.9774      8.164   234.4217 3.0098e+02    10.2940      0.107      0.154    14.4180   999.2057 0.0000e+00
      0.109 7.9075e-18     5.3434     75.541     42.821  33.763266     1.9417      8.162   233.9934 3.5871e+02    10.0755      0.107      0.154    14.4184   999.2057 0.0000e+00
      0.109 7.1885e-19     5.3725     75.368     42.789  33.738398     1.8843      8.160   233.6532 4.0495e+02     9.6708      0.107      0.154    14.4183   999.2057 0.0000e+00
      0.109 6.5350e-20     5.3940     75.094     42.788  33.737753     1.8553      8.160   233.4921 4.0740e+02     9.4640      0.107      0.154    14.4182   999.2057 0.0000e+00
      0.109 5.9410e-21     5.4025     74.787     42.810  33.755466     1.8608      8.160   232.8193 3.8946e+02     9.4761      0.107      0.154    14.4189   999.2056 0.0000e+00
      0.109 5.4010e-22     5.4012     74.476     42.819  33.762170     1.9067      8.160   231.6271 3.8017e+02     9.5876      0.106      0.154    14.4200   999.2054 0.0000e+00
      0.109 4.9098e-23     5.3877     74.201     42.810  33.755340     1.9861      8.160   230.8650 4.5762e+02     9.7960      0.107      0.154    14.4206   999.2053 0.0000e+00
      0.109 4.4635e-24     5.3648     73.976     42.785  33.736357     2.0316      8.161   230.7459 4.9409e+02     9.9311      0.106      0.154    14.4212   999.2052 0.0000e+00
      0.109 4.0577e-25     5.3439     73.792     42.768  33.723039     2.0405      8.163   230.8752 4.1528e+02     9.9426      0.107      0.154    14.4214   999.2052 0.0000e+00
      0.109 3.6888e-26     5.3195     73.637     42.765  33.721251     2.0846      8.163   230.8797 3.8523e+02     9.9028      0.106      0.154    14.4213   999.2052 0.0000e+00
      0.109 3.3535e-27     5.2998     73.501     42.760  33.714733     2.1662      8.163   230.4565 3.9414e+02     9.8759      0.107      0.155    14.4215   999.2052 0.0000e+00
      0.108 3.0486e-28     5.2843     73.408     42.756  33.707695     2.2122      8.163   229.8020 3.8158e+02     9.8794      0.106      0.154    14.4220   999.2051 0.0000e+00
      0.108 2.7714e-29     5.2707     73.351     42.751  33.699619     2.2165      8.161   229.4185 3.6876e+02     9.8474      0.106      0.154    14.4220   999.2051 0.0000e+00
      0.108 2.5195e-30     5.2614     73.297     42.730  33.680543     2.1841      8.159   229.2620 3.4110e+02     9.5536      0.107      0.155    14.4224   999.2050 0.0000e+00
      0.108 2.2905e-31     5.2493     73.231     42.715  33.667434     2.1233      8.158   229.1140 3.3791e+02     9.0474      0.106      0.154    14.4208   999.2052 0.0000e+00
      0.108 2.0822e-32     5.2446     73.169     42.717  33.668057     2.0964      8.157   229.0922 3.7121e+02     8.7735      0.106      0.154    14.4148   999.2061 0.0000e+00
      0.109 1.8929e-33     5.2416     73.129     42.742  33.688077     2.1020      8.154   229.1706 3.9774e+02     8.7656      0.107      0.154    14.4097   999.2069 0.0000e+00
      0.109 1.7208e-34     5.2388     73.079     42.781  33.719094     2.1819      8.152   229.0290 3.8560e+02     8.7878      0.107      0.155    14.4073   999.2072 0.0000e+00
      0.109 1.5644e-35     5.2340     73.015     42.790  33.725755     2.3258      8.149   228.5844 3.5469e+02     8.7470      0.108      0.156    14.4058   999.2074 0.0000e+00
      0.109 1.4238e-36     5.2276     72.934     42.764  33.705150     2.3938      8.148   228.1830 3.3749e+02     8.6994      0.107      0.155    14.4053   999.2075 0.0000e+00
      0.109 1.4653e-37     5.2277     72.837     42.708  33.660356     2.3968      8.148   227.8758 3.4345e+02     8.7361      0.107      0.154    14.4052   999.2075 0.0000e+00
      0.109 2.0138e-37     5.2228     72.734     42.668  33.628404     2.3888      8.148   227.4506 4.4195e+02     8.7969      0.107      0.155    14.4052   999.2075 0.0000e+00
      0.109 2.0869e-36     5.2188     72.608     42.678  33.636144     2.3323      8.148   227.2590 4.9999e+02     9.0746      0.107      0.155    14.4048   999.2076 0.0000e+00
      0.109 2.2944e-35     5.2134     72.443     42.668  33.627009     2.2337      8.149   227.3651 4.1116e+02     9.6032      0.107      0.155    14.4046   999.2076 0.0000e+00
      0.109 2.5239e-34     5.2051     72.244     42.611  33.581424     2.1672      8.151   227.2707 3.5141e+02     9.8792      0.107      0.155    14.4044   999.2076 0.0000e+00
      0.109 2.7763e-33     5.1995     72.030     42.546  33.529233     2.1526      8.152   226.8924 3.3895e+02     9.8880      0.106      0.154    14.4037   999.2077 0.0000e+00
      0.109 3.0539e-32     5.1903     71.796     42.515  33.503683     2.1436      8.148   226.4047 3.2936e+02    10.0380      0.107      0.155    14.4030   999.2078 0.0000e+00
      0.109 3.3593e-31     5.1788     71.519     42.545  33.526360     2.1188      8.145   226.4500 3.3014e+02    10.3489      0.107      0.155    14.4023   999.2079 0.0000e+00
      0.109 3.6952e-30     5.1638     71.219     42.577  33.549560     2.0963      8.142   227.0961 3.5191e+02    10.5337      0.107      0.155    14.4013   999.2080 0.0000e+00
      0.109 4.0647e-29     5.1487     70.926     42.554  33.530331     2.0881      8.137   227.4202 3.7920e+02    10.5349      0.107      0.154    14.4002   999.2081 0.0000e+00
      0.109 4.4712e-28     5.1334     70.633     42.418  33.420796     2.1141      8.131   227.3574 3.8961e+02    10.5934      0.107      0.154    14.3992   999.2083 0.0000e+00
      0.109 4.9183e-27     5.1128     70.338     42.033  33.113674     2.1772      8.125   227.1106 3.9782e+02    10.7487      0.106      0.154    14.3975   999.2085 0.0000e+00
      0.109 5.4102e-26     5.0904     70.133     41.553  32.736254     2.2184      8.119   226.6736 3.7092e+02    10.8077      0.107      0.154    14.3960   999.2088 0.0000e+00
      0.109 5.9512e-25     5.0703     70.257     41.288  32.538294     2.2135      8.114   226.5467 4.4348e+02    10.7496      0.107      0.155    14.3933   999.2092 0.0000e+00
      0.109 6.5463e-24     5.0501     71.027     41.213  32.497114     2.1704      8.109   226.7817 5.3069e+02    10.5699      0.107      0.155    14.3915   999.2094 0.0000e+00
      0.109 7.2009e-23     5.0278     72.586     41.186  32.492214     2.1128      8.103   226.8475 4.1838e+02    10.3069      0.107      0.155    14.3864   999.2101 0.0000e+00
      0.109 7.9210e-22     5.0076     74.774     41.154  32.479067     2.0895      8.097   226.6543 3.7863e+02    10.1584      0.107      0.155    14.3809   999.2105 0.0000e+00
      0.109 8.7131e-21     5.0052     77.281     41.128  32.465093     2.0963      8.092   226.4242 4.4693e+02    10.1175      0.107      0.155    14.3969   999.2082 0.0000e+00
      0.109 9.5844e-20     5.0522     79.812     41.104  32.450194     2.1000      8.086   226.2159 3.7408e+02    10.0749      0.107      0.155    14.4240   999.2043 0.0000e+00
      0.109 1.0543e-18     5.1669     82.133     41.071  32.425850     2.0995      8.079   225.8564 2.8685e+02    10.0048      0.107      0.155    14.4445   999.2013 0.0000e+00
      0.109 1.1597e-17     5.3304     84.042     41.068  32.424592     2.0991      8.074   225.3476 2.9515e+02     9.9568      0.107      0.155    14.4586   999.1993 0.0000e+00
      0.109 1.2757e-16     5.5154     85.352     41.080  32.434984     2.0948      8.069   225.2261 2.9972e+02     9.9212      0.107      0.155    14.4673   999.1980 0.0000e+00
      0.109 1.4033e-15     5.7013     86.008     41.067  32.424581     2.0911      8.062   225.5056 2.6822e+02     9.8694      0.107      0.155    14.4714   999.1974 0.0000e+00
      0.109 1.5436e-14     5.8713     86.140     41.068  32.425724     2.1063      8.055   225.6304 2.4313e+02     9.7567      0.107      0.155    14.4723   999.1973 0.0000e+00
      0.109 1.6979e-13     6.0131     85.951     41.097  32.448808     2.1403      8.050   225.5303 2.4282e+02     9.5739      0.108      0.156    14.4734   999.1971 0.0000e+00
      0.109 1.8677e-12     6.1085     85.620     41.098  32.449848     2.1631      8.046   225.4138 2.6364e+02     9.4617      0.107      0.155    14.4744   999.1970 0.0000e+00
      0.109 2.0545e-11     6.1508     85.247     41.085  32.438301     2.1652      8.043   224.9968 2.9092e+02     9.4160      0.107      0.154    14.4742   999.1970 0.0000e+00
      0.109 2.2600e-10     6.1547     84.872     41.086  32.436108     2.1581      8.040   224.3602 2.9919e+02     9.3500      0.107      0.155    14.4748   999.1969 0.0000e+00
      0.109 2.4860e-09     6.1365     84.534     41.074  32.423331     2.1545      8.037   224.2554 2.8926e+02     9.2851      0.107      0.155    14.4756   999.1968 0.0000e+00
      0.109 2.7345e-08     6.1101     84.265     41.060  32.410734     2.1557      8.035   224.4179 2.6286e+02     9.2541      0.107      0.155    14.4753   999.1969 0.0000e+00
      0.109 3.0080e-07     6.0841     84.079     41.060  32.410724     2.1562      8.033   224.5186 2.4804e+02     9.2384      0.106      0.154    14.4739   999.1970 0.0000e+00
      0.109      0.000     6.0559     83.966     41.074  32.423207     2.1862      8.032   224.6126 2.4795e+02     9.3896      0.107      0.155    14.4707   999.1975 0.0000e+00
      0.109      0.000     6.0319     83.888     41.085  32.434737     2.2413      8.030   224.0911 2.6576e+02     9.7066      0.107      0.155    14.4659   999.1982 0.0000e+00
      0.109      0.000     6.0128     83.822     41.068  32.423218     2.2675      8.021   222.9457 3.0375e+02     9.8584      0.107      0.155    14.4622   999.1987 0.0000e+00
      0.109     -0.001     5.9992     83.753     41.051  32.410858     2.2780      8.002   222.2064 2.8985e+02     9.8160      0.107      0.155    14.4628   999.1986 0.0000e+00
      0.110     -0.007     5.9925     83.668     41.055  32.412220     2.2728      7.987   222.0358 2.7895e+02     9.6196      0.106      0.154    14.4665   999.1980 0.0000e+00
      0.111     -0.022     5.9866     83.553     41.095  32.439684     2.2476      7.987   221.8293 3.2815e+02     9.3521      0.109      0.157    14.4692   999.1977 0.0000e+00
      0.110     -0.053     5.9826     83.435     41.165  32.489071     2.2412      7.996   221.6887 3.2963e+02     9.2693      0.111      0.161    14.4713   999.1973 0.0000e+00
      0.104     -0.101     5.9767     83.315     41.182  32.501657     2.2392      8.008   221.2819 2.6612e+02     9.5035      0.105      0.153    14.4732   999.1971 0.0000e+00
      0.086     -0.158     5.9726     83.175     41.130  32.464932     2.2149      8.022   219.9214 3.2283e+02    12.1508      0.093      0.137    14.4732   999.1971 0.0000e+00
      0.042     -0.215     5.9628     83.032     41.073  32.425814     2.1729      8.029   217.7151 5.5568e+02    17.0257      0.055      0.081    14.4664   999.1979 0.0000e+00
     -0.033     -0.259     5.9566     82.959     41.049  32.409460     2.1474      8.024   215.2554 7.3415e+02    19.6806     -0.026     -0.037    14.4555   999.1991 0.0000e+00
     -0.129     -0.280     5.9488     82.960     41.030  32.394139     2.1416      8.009   214.7890 7.6871e+02    19.9667     -0.123     -0.180    14.4543   999.1989 0.0000e+00
     -0.229     -0.266     5.9374     82.935     40.999  32.367487     2.1107      7.994   217.1519 7.5503e+02    20.3215     -0.231     -0.336    14.4628   999.1971 0.0000e+00
     -0.311     -0.214     5.9242     82.890     40.966  32.341053     1.8091      7.989   219.5616 7.3459e+02    23.7410     -0.315     -0.456    14.4723   999.1953 0.0000e+00
     -0.368     -0.136     5.9152     82.776     40.947  32.328369     1.2598      7.992   220.5226 7.3222e+02    30.0145     -0.366     -0.531    14.4755   999.1946 0.0000e+00
     -0.397     -0.054     5.9245     82.526     40.958  32.341041     0.9659      7.993   220.5115 7.4317e+02    33.4480     -0.407     -0.592    14.4717   999.1950 0.0000e+00
     -0.386      0.017     5.9174     82.171     40.987  32.367359     0.9612      7.985   220.1155 7.4251e+02    33.8264     -0.391     -0.568    14.4685   999.1955 0.0000e+00
     -0.341      0.069     5.9177     81.708     41.016  32.392732     1.1937      7.972   219.6924 7.3631e+02    34.4905     -0.333     -0.483    14.4684   999.1958 0.0000e+00
     -0.296      0.100     5.9125     81.171     41.016  32.393979     1.6356      7.965   219.2676 7.3626e+02    35.6118     -0.283     -0.410    14.4719   999.1955 0.0000e+00
     -0.267      0.111     5.8897     80.682     40.999  32.382439     1.8829      7.961   219.1945 7.3826e+02    36.1433     -0.258     -0.374    14.4775   999.1948 0.0000e+00
     -0.247      0.105     5.8666     80.352     40.995  32.380132     1.9133      7.956   219.3250 7.3852e+02    35.6073     -0.245     -0.354    14.4818   999.1942 0.0000e+00
     -0.225      0.090     5.8316     80.187     40.979  32.366088     1.9419      7.951   218.9530 7.4018e+02    29.1959     -0.222     -0.322    14.4847   999.1939 0.0000e+00
     -0.202      0.079     5.7902     80.203     40.947  32.339552     1.9772      7.947   218.3103 7.4492e+02    17.4172     -0.197     -0.287    14.4864   999.1938 0.0000e+00
     -0.181      0.074     5.7502     80.388     40.913  32.313128     1.9837      7.944   217.7490 7.5143e+02    10.9762     -0.177     -0.256    14.4886   999.1936 0.0000e+00
     -0.164      0.072     5.7291     80.672     40.897  32.300436     1.9778      7.938   217.2428 7.5883e+02    10.4066     -0.160     -0.232    14.4896   999.1935 0.0000e+00
     -0.149      0.070     5.7160     81.005     40.912  32.313011     2.0268      7.930   217.1804 7.6603e+02    10.4638     -0.146     -0.213    14.4868   999.1940 0.0000e+00
     -0.133      0.068     5.7170     81.320     40.943  32.338260     2.1172      7.923   217.5107 7.6913e+02    10.5543     -0.132     -0.191    14.4845   999.1944 0.0000e+00
     -0.116      0.066     5.7339     81.574     40.958  32.351877     2.1605      7.917   217.7081 7.6536e+02    10.5507     -0.115     -0.166    14.4856   999.1943 0.0000e+00
     -0.096      0.066     5.7532     81.758     40.955  32.350732     2.1603      7.909   217.6745 7.5920e+02    10.5512     -0.094     -0.137    14.4873   999.1941 0.0000e+00
     -0.078      0.065     5.7802     81.879     40.921  32.324412     2.1574      7.901   217.5350 7.5774e+02    10.4946     -0.076     -0.110    14.4875   999.1942 0.0000e+00
     -0.063      0.063     5.8030     81.960     40.873  32.287491     2.1510      7.895   217.3979 7.5819e+02    10.2923     -0.062     -0.090    14.4885   999.1940 0.0000e+00
     -0.048      0.061     5.8207     82.003     40.869  32.285089     2.1535      7.887   217.2214 7.5657e+02    10.1368     -0.046     -0.067    14.4909   999.1938 0.0000e+00
     -0.033      0.059     5.8341     82.003     40.882  32.295378     2.1615      7.877   217.0357 7.5404e+02    10.1224     -0.031     -0.045    14.4925   999.1937 0.0000e+00
     -0.019      0.058     5.8413     81.981     40.868  32.284965     2.1526      7.867   216.9598 7.5198e+02    10.0849     -0.018     -0.027    14.4926   999.1937 0.0000e+00
     -0.005      0.056     5.8474     81.954     40.869  32.286107     2.1409      7.857   216.8195 7.5559e+02     9.9787     -0.005     -0.008    14.4931   999.1937 0.0000e+00
      0.011      0.053     5.8505     81.940     40.898  32.309182     2.1415      7.848   216.7158 7.9321e+02     9.9197      0.010      0.014    14.4945   999.1935 0.0000e+00
      0.026      0.048     5.8497     81.954     40.899  32.310117     2.1421      7.838   216.8247 8.1861e+02     9.8960      0.027      0.040    14.4954   999.1935 0.0000e+00
      0.039      0.043     5.8476     81.992     40.883  32.297415     2.1404      7.828   216.5870 7.5692e+02     9.8567      0.040      0.057    14.4959   999.1935 0.0000e+00
      0.049      0.037     5.8453     82.027     40.864  32.282529     2.1638      7.819   215.9927 6.3913e+02     9.8367      0.049      0.071    14.4962   999.1935 0.0000e+00
      0.057      0.030     5.8436     82.007     40.831  32.257049     2.2081      7.814   215.7485 5.4122e+02     9.8509      0.057      0.082    14.4962   999.1936 0.0000e+00
      0.063      0.024     5.8452     81.933     40.813  32.243185     2.2166      7.812   215.7854 5.1204e+02     9.8650      0.062      0.090    14.4962   999.1935 0.0000e+00
      0.067      0.020     5.8478     81.852     40.811  32.241822     2.1976      7.813   215.8374 4.4824e+02     9.8435      0.067      0.097    14.4968   999.1935 0.0000e+00
      0.071      0.020     5.8526     81.779     40.811  32.240572     2.2035      7.816   215.8600 3.5515e+02    10.0488      0.070      0.101    14.4971   999.1935 0.0000e+00
      0.074      0.023     5.8511     81.722     40.797  32.228062     2.2280      7.817   215.6290 3.1191e+02    10.5448      0.073      0.105    14.4972   999.1934 0.0000e+00
      0.079      0.029     5.8435     81.685     40.784  32.217497     2.2413      7.817   215.2814 2.4363e+02    10.8275      0.076      0.110    14.4977   999.1934 0.0000e+00
      0.085      0.034     5.8381     81.666     40.811  32.239751     2.2343      7.813   215.1847 1.8506e+02    10.8124      0.081      0.117    14.4980   999.1934 0.0000e+00
      0.095      0.039     5.8326     81.686     40.815  32.243289     2.2476      7.803   215.1480 1.6201e+02    10.8538      0.092      0.133    14.4968   999.1936 0.0000e+00
      0.110      0.040     5.8286     81.748     40.756  32.196811     2.3070      7.792   215.0097 1.5027e+02    10.9999      0.108      0.156    14.4943   999.1939 0.0000e+00
      0.126      0.039     5.8266     81.824     40.742  32.185472     2.3545      7.785   214.8893 1.6948e+02    11.0382      0.125      0.181    14.4942   999.1941 0.0000e+00
      0.137      0.038     5.8239     81.912     40.802  32.233114     2.3618      7.782   214.8102 1.8862e+02    10.9897      0.137      0.198    14.4957   999.1940 0.0000e+00
      0.143      0.039     5.8250     82.010     40.843  32.265156     2.3518      7.780   214.7418 1.8091e+02    10.9056      0.141      0.204    14.4964   999.1939 0.0000e+00
      0.145      0.040     5.8310     82.090     40.831  32.255586     2.3465      7.776   214.6647 1.8693e+02    10.7416      0.141      0.204    14.4962   999.1939 0.0000e+00
      0.152      0.042     5.8361     82.148     40.817  32.244322     2.3497      7.772   214.5660 2.1105e+02    10.6465      0.144      0.208    14.4959   999.1939 0.0000e+00
      0.167      0.045     5.8419     82.182     40.830  32.255895     2.3464      7.769   214.4951 2.1095e+02    10.6074      0.162      0.235    14.4960   999.1940 0.0000e+00
      0.187      0.049     5.8504     82.162     40.845  32.268589     2.3417      7.767   214.5824 2.2242e+02    10.5307      0.186      0.270    14.4960   999.1942 0.0000e+00
      0.201      0.051     5.8562     82.099     40.848  32.270887     2.3716      7.764   214.5883 2.4782e+02    10.4729      0.198      0.288    14.4955   999.1943 0.0000e+00
      0.211      0.051     5.8594     82.044     40.864  32.283673     2.4306      7.759   214.3940 2.3659e+02    10.4986      0.206      0.299    14.4953   999.1943 0.0000e+00
      0.222      0.048     5.8638     82.005     40.879  32.296260     2.4653      7.754   214.2989 2.3997e+02    10.5791      0.217      0.315    14.4962   999.1943 0.0000e+00
      0.234      0.045     5.8619     81.977     40.879  32.296156     2.4706      7.746   214.2983 2.9170e+02    10.5944      0.230      0.334    14.4973   999.1942 0.0000e+00
      0.246      0.043     5.8548     81.969     40.862  32.282415     2.4951      7.737   214.3868 3.0024e+02    10.3234      0.243      0.352    14.4978   999.1941 0.0000e+00
      0.258      0.042     5.8515     81.981     40.829  32.257040     2.5528      7.729   214.5950 2.4275e+02     9.8911      0.252      0.366    14.4979   999.1942 0.0000e+00
      0.268      0.041     5.8489     82.017     40.811  32.243195     2.5869      7.720   214.4064 2.0974e+02     9.7256      0.264      0.382    14.4982   999.1942 0.0000e+00
      0.278      0.038     5.8463     82.092     40.809  32.241936     2.5874      7.713   213.9130 2.2218e+02     9.7318      0.274      0.397    14.4984   999.1942 0.0000e+00
      0.288      0.036     5.8458     82.178     40.809  32.241822     2.5846      7.709   213.7921 2.2791e+02     9.7366      0.282      0.409    14.4989   999.1942 0.0000e+00
      0.297      0.035     5.8468     82.216     40.810  32.241822     2.5781      7.709   213.9761 2.2706e+02     9.8164      0.292      0.424    14.4992   999.1942 0.0000e+00
      0.304      0.035     5.8484     82.223     40.810  32.241925     2.5783      7.709   214.3315 2.2920e+02     9.9101      0.299      0.433    14.4994   999.1942 0.0000e+00
      0.311      0.036     5.8539     82.227     40.812  32.243070     2.5869      7.709   214.8202 2.1668e+02     9.9519      0.304      0.440    14.4997   999.1941 0.0000e+00
      0.321      0.036     5.8636     82.211     40.827  32.255657     2.5871      7.707   215.2389 2.1942e+02    10.0590      0.314      0.455    14.4994   999.1943 0.0000e+00
      0.333      0.036     5.8646     82.181     40.842  32.267195     2.5816      7.704   215.6075 2.2581e+02    10.2552      0.326      0.473    14.4990   999.1944 0.0000e+00
      0.343      0.036     5.8637     82.166     40.828  32.255656     2.5802      7.701   215.9216 2.0688e+02    10.3578      0.337      0.488    14.4989   999.1944 0.0000e+00
      0.352      0.035     5.8657     82.181     40.813  32.243058     2.5797      7.698   216.1111 1.9786e+02    10.3490      0.345      0.501    14.4990   999.1945 0.0000e+00
      0.360      0.032     5.8639     82.224     40.812  32.241794     2.5224      7.694   216.1783 1.9517e+02    10.2149      0.353      0.511    14.4995   999.1944 0.0000e+00
      0.367      0.030     5.8610     82.266     40.810  32.240374     2.4077      7.691   216.2182 1.8059e+02     9.9816      0.361      0.522    14.4992   999.1945 0.0000e+00
      0.374      0.030     5.8597     82.276     40.792  32.225889     2.3465      7.690   216.7656 1.6949e+02     9.8546      0.367      0.532    14.4982   999.1947 0.0000e+00
      0.381      0.031     5.8608     82.265     40.751  32.193581     2.3457      7.689   217.8059 1.6769e+02     9.8591      0.374      0.542    14.4973   999.1948 0.0000e+00
      0.387      0.032     5.8647     82.255     40.716  32.167043     2.3892      7.686   218.3864 1.7900e+02     9.9055      0.380      0.551    14.4968   999.1949 0.0000e+00
      0.395      0.035     5.8691     82.240     40.706  32.158866     2.4732      7.684   218.3639 1.9500e+02     9.9241      0.387      0.562    14.4970   999.1949 0.0000e+00
      0.405      0.037     5.8692     82.216     40.705  32.158175     2.5202      7.681   218.3078 1.9106e+02     9.8875      0.397      0.577    14.4973   999.1949 0.0000e+00
      0.416      0.039     5.8671     82.211     40.705  32.158678     2.5250      7.677   218.4820 1.7374e+02     9.8556      0.408      0.592    14.4976   999.1949 0.0000e+00
      0.428      0.039     5.8669     82.244     40.712  32.164956     2.5224      7.674   218.9220 1.6294e+02     9.8666      0.418      0.608    14.4979   999.1949 0.0000e+00
      0.438      0.038     5.8665     82.288     40.719  32.170619     2.5320      7.669   219.4119 1.6077e+02     9.8895      0.430      0.623    14.4982   999.1949 0.0000e+00
      0.447      0.035     5.8634     82.311     40.710  32.163686     2.5630      7.665   219.7594 1.5996e+02     9.9024      0.440      0.637    14.4987   999.1949 0.0000e+00
      0.456      0.033     5.8624     82.321     40.685  32.144592     2.5853      7.662   220.0254 1.5498e+02     9.8921      0.447      0.649    14.4991   999.1949 0.0000e+00
      0.463      0.031     5.8654     82.317     40.667  32.130141     2.5853      7.659   220.1339 1.5009e+02     9.8964      0.454      0.659    14.4998   999.1948 0.0000e+00
      0.470      0.031     5.8700     82.287     40.649  32.115881     2.5718      7.656   220.0386 1.4681e+02    10.1834      0.461      0.668    14.5004   999.1947 0.0000e+00
      0.477      0.032     5.8706     82.241     40.628  32.099084     2.5517      7.653   219.9918 1.4337e+02    10.7399      0.468      0.678    14.5005   999.1948 0.0000e+00
      0.485      0.034     5.8712     82.186     40.652  32.117430     2.5332      7.648   220.1700 1.4114e+02    11.0548      0.474      0.688    14.5004   999.1948 0.0000e+00
      0.494      0.036     5.8719     82.126     40.691  32.147324     2.5296      7.643   220.3856 1.3769e+02    11.0411      0.485      0.703    14.5005   999.1948 0.0000e+00
      0.505      0.037     5.8691     82.076     40.686  32.143228     2.5520      7.638   220.4477 1.3387e+02    10.8360      0.496      0.719    14.5005   999.1949 0.0000e+00
      0.516      0.037     5.8659     82.055     40.671  32.131369     2.5790      7.633   220.5768 1.3132e+02    10.5083      0.506      0.733    14.5003   999.1949 0.0000e+00
      0.526      0.036     5.8620     82.070     40.671  32.130849     2.5872      7.627   220.8285 1.3037e+02    10.3238      0.516      0.748    14.4997   999.1951 0.0000e+00
      0.534      0.034     5.8574     82.124     40.678  32.136940     2.5810      7.621   220.5653 1.3202e+02    10.3091      0.525      0.761    14.4991   999.1952 0.0000e+00
      0.541      0.032     5.8529     82.187     40.684  32.141556     2.5907      7.617   219.8888 1.3227e+02    10.4943      0.530      0.770    14.4985   999.1954 0.0000e+00
      0.549      0.031     5.8519     82.238     40.661  32.123209     2.6269      7.614   219.7908 1.3172e+02    10.8592      0.537      0.779    14.4983   999.1954 0.0000e+00
      0.557      0.030     5.8523     82.286     40.640  32.105486     2.6540      7.611   220.0691 1.3426e+02    11.0504      0.546      0.791    14.4982   999.1955 0.0000e+00
      0.564      0.030     5.8573     82.328     40.656  32.117647     2.6510      7.608   220.3287 1.3794e+02    11.0033      0.553      0.802    14.4980   999.1955 0.0000e+00
      0.572      0.030     5.8626     82.349     40.689  32.143332     2.5902      7.605   220.6927 1.3639e+02    10.6503      0.560      0.812    14.4977   999.1956 0.0000e+00
      0.580      0.029     5.8656     82.341     40.714  32.162189     2.4991      7.602   220.5119 1.2904e+02    10.0588      0.569      0.826    14.4970   999.1957 0.0000e+00
      0.588      0.028     5.8695     82.293     40.705  32.155266     2.4682      7.598   219.7779 1.2492e+02     9.7512      0.577      0.838    14.4960   999.1959 0.0000e+00
      0.595      0.027     5.8731     82.212     40.664  32.123082     2.4770      7.594   219.4751 1.2480e+02     9.7164      0.584      0.847    14.4950   999.1961 0.0000e+00
      0.601      0.026     5.8745     82.130     40.623  32.090367     2.4759      7.591   219.5178 1.2415e+02     9.7049      0.590      0.856    14.4947   999.1962 0.0000e+00
      0.608      0.025     5.8743     82.050     40.606  32.077003     2.5061      7.589   219.6060 1.2408e+02     9.9060      0.596      0.865    14.4944   999.1963 0.0000e+00
      0.614      0.025     5.8715     81.971     40.621  32.088427     2.5650      7.588   219.8536 1.2696e+02    10.3127      0.602      0.874    14.4941   999.1963 0.0000e+00
      0.621      0.025     5.8635     81.890     40.637  32.101571     2.5896      7.584   219.9303 1.2858e+02    10.5589      0.609      0.883    14.4942   999.1963 0.0000e+00
      0.627      0.025     5.8584     81.796     40.647  32.109008     2.5872      7.579   219.9303 1.2637e+02    10.5885      0.615      0.890    14.4945   999.1963 0.0000e+00
      0.633      0.025     5.8527     81.723     40.654  32.114891     2.5962      7.576   219.9407 1.2474e+02    10.6706      0.622      0.902    14.4946   999.1963 0.0000e+00
      0.639      0.026     5.8466     81.697     40.648  32.109236     2.6209      7.574   219.7981 1.2243e+02    10.8636      0.628      0.910    14.4945   999.1964 0.0000e+00
      0.645      0.027     5.8423     81.688     40.642  32.104093     2.6428      7.572   219.6681 1.2285e+02    10.9886      0.632      0.916    14.4944   999.1964 0.0000e+00
      0.652      0.028     5.8340     81.678     40.657  32.116160     2.6443      7.569   219.6599 1.2567e+02    11.0341      0.639      0.927    14.4941   999.1965 0.0000e+00
      0.659      0.029     5.8276     81.669     40.672  32.128219     2.5961      7.567   219.6981 1.2293e+02    11.0532      0.646      0.937    14.4937   999.1966 0.0000e+00
      0.667      0.030     5.8276     81.674     40.665  32.122980     2.5187      7.563   220.1306 1.1786e+02    11.0237      0.654      0.949    14.4935   999.1966 0.0000e+00
      0.676      0.032     5.8271     81.701     40.656  32.116275     2.4812      7.559   220.8447 1.1346e+02    11.0052      0.663      0.962    14.4934   999.1967 0.0000e+00
      0.684      0.033     5.8263     81.722     40.647  32.110610     2.4720      7.556   221.0191 1.0960e+02    10.9929      0.670      0.973    14.4934   999.1967 0.0000e+00
      0.691      0.033     5.8255     81.708     40.656  32.117949     2.4676      7.553   220.9487 1.0727e+02    10.7435      0.677      0.983    14.4935   999.1968 0.0000e+00
      0.700      0.033     5.8249     81.685     40.686  32.141554     2.4712      7.549   220.8543 1.0638e+02    10.3169      0.685      0.994    14.4935   999.1968 0.0000e+00
      0.710      0.033     5.8279     81.684     40.686  32.142178     2.4719      7.546   220.5665 1.0514e+02    10.1277      0.696      1.010    14.4942   999.1967 0.0000e+00
      0.719      0.032     5.8305     81.712     40.666  32.125486     2.4683      7.542   220.8232 1.0247e+02    10.1276      0.706      1.024    14.4955   999.1966 0.0000e+00
      0.727      0.032     5.8283     81.774     40.672  32.130111     2.4790      7.538   221.6351 1.0058e+02    10.1192      0.713      1.034    14.4968   999.1964 0.0000e+00
      0.733      0.031     5.8253     81.844     40.677  32.134633     2.5062      7.535   222.0379 9.9548e+01    10.1242      0.719      1.043    14.4973   999.1964 0.0000e+00
      0.741      0.030     5.8259     81.901     40.655  32.116701     2.5285      7.533   222.0790 9.8670e+01    10.1222      0.726      1.053    14.4971   999.1965 0.0000e+00
      0.748      0.030     5.8270     81.958     40.639  32.103678     2.5410      7.531   222.0470 9.6778e+01    10.1291      0.734      1.064    14.4965   999.1966 0.0000e+00
      0.756      0.030     5.8326     82.027     40.640  32.104093     2.5436      7.528   221.8225 9.2849e+01    10.1412      0.741      1.075    14.4958   999.1967 0.0000e+00
      0.765      0.030     5.8388     82.091     40.663  32.121721     2.5518      7.524   221.6881 8.9282e+01     9.9411      0.750      1.088    14.4956   999.1968 0.0000e+00
      0.773      0.029     5.8417     82.109     40.669  32.126432     2.5712      7.520   221.7986 8.7131e+01     9.5778      0.759      1.101    14.4955   999.1968 0.0000e+00
      0.780      0.028     5.8457     82.061     40.633  32.097595     2.5785      7.515   221.8683 8.5586e+01     9.4186      0.765      1.110    14.4949   999.1969 0.0000e+00
      0.787      0.025     5.8509     81.969     40.624  32.090363     2.5787      7.510   221.8428 8.4892e+01     9.4588      0.772      1.120    14.4942   999.1971 0.0000e+00
      0.794      0.022     5.8569     81.878     40.639  32.102439     2.5562      7.505   221.9197 8.4502e+01     9.5726      0.779      1.130    14.4938   999.1972 0.0000e+00
      0.799      0.018     5.8589     81.810     40.657  32.116691     2.4974      7.501   221.9387 8.3985e+01     9.7459      0.785      1.138    14.4935   999.1973 0.0000e+00
      0.804      0.016     5.8549     81.746     40.681  32.135757     2.4577      7.497   221.5554 8.4328e+01     9.8498      0.789      1.144    14.4934   999.1973 0.0000e+00
      0.806      0.017     5.8467     81.668     40.690  32.142583     2.4581      7.485   220.8993 8.4539e+01     9.8779      0.790      1.146    14.4937   999.1972 0.0000e+00
      0.808      0.021     5.8396     81.610     40.681  32.135767     2.4504      7.459   220.5443 8.3457e+01     9.9875      0.792      1.149    14.4938   999.1972 0.0000e+00
      0.810      0.027     5.8352     81.600     40.656  32.116805     2.4165      7.425   220.7049 8.2261e+01    10.1264      0.793      1.150    14.4938   999.1972 0.0000e+00
      0.816      0.032     5.8321     81.610     40.640  32.103698     2.3945      7.397   221.0343 8.0602e+01    10.1474      0.796      1.155    14.4938   999.1973 0.0000e+00
      0.831      0.035     5.8250     81.626     40.641  32.104208     2.4014      7.379   221.0851 7.8537e+01    10.1430      0.814      1.181    14.4936   999.1974 0.0000e+00
      0.846      0.037     5.8197     81.682     40.665  32.122968     2.4479      7.373   220.7171 7.6742e+01    10.3690      0.832      1.207    14.4936   999.1975 0.0000e+00
      0.856      0.037     5.8202     81.788     40.687  32.140152     2.5142      7.373   220.1981 7.4557e+01    10.7817      0.840      1.218    14.4941   999.1974 0.0000e+00
      0.863      0.035     5.8217     81.874     40.664  32.121596     2.5444      7.375   219.9716 7.3094e+01    11.0038      0.846      1.227    14.4943   999.1974 0.0000e+00
      0.869      0.032     5.8217     81.924     40.622  32.088989     2.5439      7.378   220.1296 7.2427e+01    10.9897      0.852      1.234    14.4938   999.1975 0.0000e+00
      0.876      0.029     5.8240     81.963     40.590  32.063209     2.5516      7.381   220.3891 7.0934e+01    10.8083      0.858      1.244    14.4933   999.1976 0.0000e+00
      0.884      0.029     5.8355     81.971     40.591  32.063729     2.5691      7.383   220.4411 6.9069e+01    10.5148      0.867      1.258    14.4936   999.1976 0.0000e+00
      0.893      0.029     5.8417     81.943     40.631  32.095279     2.5728      7.385   220.3282 6.8119e+01    10.3568      0.876      1.270    14.4935   999.1977 0.0000e+00
      0.900      0.029     5.8432     81.910     40.671  32.127365     2.5786      7.386   220.2289 6.7564e+01    10.3405      0.883      1.281    14.4936   999.1977 0.0000e+00
      0.907      0.029     5.8477     81.887     40.681  32.134383     2.5871      7.388   220.1859 6.6308e+01    10.3510      0.890      1.291    14.4935   999.1977 0.0000e+00
      0.913      0.029     5.8485     81.884     40.659  32.116670     2.5546      7.389   220.3253 6.4883e+01    10.6142      0.895      1.297    14.4929   999.1978 0.0000e+00
      0.919      0.029     5.8449     81.904     40.643  32.103572     2.4972      7.390   220.4516 6.3663e+01    11.1307      0.900      1.305    14.4928   999.1979 0.0000e+00
      0.928      0.029     5.8428     81.928     40.642  32.102939     2.4657      7.392   220.4226 6.2660e+01    11.4182      0.911      1.320    14.4929   999.1979 0.0000e+00
      0.937      0.029     5.8408     81.951     40.649  32.109020     2.4602      7.393   220.5774 6.2269e+01    11.4356      0.920      1.334    14.4926   999.1980 0.0000e+00
      0.945      0.030     5.8403     81.977     40.654  32.113635     2.4741      7.395   220.8602 6.2162e+01    11.1772      0.926      1.344    14.4915   999.1982 0.0000e+00
      0.951      0.030     5.8430     82.017     40.630  32.095288     2.5036      7.399   220.9158 6.1605e+01    10.6538      0.933      1.353    14.4909   999.1983 0.0000e+00
      0.957      0.030     5.8441     82.050     40.608  32.077566     2.5223      7.403   220.8203 6.0412e+01    10.3500      0.939      1.361    14.4916   999.1982 0.0000e+00
      0.965      0.030     5.8462     82.060     40.623  32.089738     2.5175      7.405   220.7376 5.9093e+01    10.3221      0.946      1.372    14.4923   999.1982 0.0000e+00
      0.973      0.031     5.8468     82.064     40.656  32.115536     2.4809      7.405   220.7764 5.8130e+01    10.4483      0.954      1.384    14.4928   999.1981 0.0000e+00
      0.981      0.031     5.8507     82.054     40.681  32.135652     2.4348      7.405   221.0314 5.7425e+01    10.6958      0.962      1.397    14.4931   999.1981 0.0000e+00
      0.990      0.031     5.8540     82.014     40.689  32.142574     2.4193      7.404   221.2396 5.6568e+01    10.8242      0.971      1.408    14.4933   999.1981 0.0000e+00
      0.999      0.030     5.8531     81.945     40.680  32.135765     2.4153      7.402   221.2284 5.5373e+01    10.7885      0.980      1.421    14.4934   999.1982 0.0000e+00
      1.006      0.029     5.8542     81.851     40.655  32.116795     2.4213      7.400   221.1542 5.4375e+01    10.5260      0.987      1.432    14.4937   999.1982 0.0000e+00
      1.013      0.027     5.8539     81.750     40.638  32.103583     2.4473      7.398   221.1166 5.3943e+01    10.1089      0.993      1.440    14.4942   999.1981 0.0000e+00
      1.019      0.025     5.8506     81.675     40.638  32.102940     2.4614      7.396   221.2045 5.3486e+01     9.9072      0.999      1.449    14.4945   999.1981 0.0000e+00
      1.026      0.025     5.8458     81.639     40.646  32.109030     2.4616      7.395   221.2715 5.2696e+01     9.8895      1.006      1.460    14.4946   999.1981 0.0000e+00
      1.031      0.026     5.8389     81.630     40.652  32.113749     2.4328      7.394   221.1510 5.1780e+01     9.9284      1.011      1.467    14.4948   999.1981 0.0000e+00
      1.037      0.027     5.8303     81.648     40.630  32.096538     2.3729      7.393   221.0388 5.0838e+01    10.0161      1.016      1.473    14.4950   999.1981 0.0000e+00
      1.043      0.028     5.8247     81.691     40.624  32.091298     2.3449      7.390   221.0332 5.0103e+01    10.0980      1.023      1.483    14.4948   999.1981 0.0000e+00
      1.051      0.029     5.8228     81.748     40.653  32.113854     2.3543      7.387   221.0832 4.9563e+01    10.1645      1.030      1.494    14.4947   999.1982 0.0000e+00
      1.059      0.029     5.8221     81.801     40.655  32.115423     2.3651      7.385   221.1263 4.8762e+01    10.1652      1.039      1.507    14.4948   999.1983 0.0000e+00
      1.068      0.029     5.8232     81.842     40.648  32.110269     2.4065      7.384   221.2105 4.7736e+01    10.3360      1.049      1.520    14.4947   999.1983 0.0000e+00
      1.076      0.028     5.8267     81.872     40.654  32.114998     2.4817      7.382   221.4138 4.6940e+01    10.7544      1.056      1.530    14.4945   999.1983 0.0000e+00
      1.082      0.027     5.8314     81.879     40.647  32.109144     2.5199      7.380   221.5189 4.6501e+01    10.9968      1.061      1.539    14.4943   999.1984 0.0000e+00
      1.088      0.026     5.8354     81.855     40.639  32.102951     2.5224      7.377   221.4499 4.6005e+01    11.0052      1.067      1.547    14.4944   999.1984 0.0000e+00
      1.094      0.026     5.8379     81.821     40.640  32.103573     2.5378      7.374   221.3533 4.5190e+01    10.9222      1.073      1.556    14.4945   999.1984 0.0000e+00
      1.101      0.026     5.8405     81.786     40.657  32.116671     2.5673      7.372   221.2971 4.4354e+01    10.8117      1.080      1.566    14.4945   999.1985 0.0000e+00
      1.108      0.027     5.8417     81.766     40.680  32.134394     2.5842      7.371   221.4581 4.3577e+01    10.8157      1.087      1.577    14.4944   999.1985 0.0000e+00
      1.115      0.028     5.8385     81.762     40.672  32.127480     2.5860      7.370   221.7520 4.2793e+01    10.8728      1.094      1.587    14.4944   999.1986 0.0000e+00
      1.122      0.028     5.8367     81.750     40.633  32.096538     2.5799      7.368   221.8392 4.2093e+01    10.8472      1.101      1.596    14.4939   999.1987 0.0000e+00
      1.129      0.028     5.8335     81.734     40.609  32.077577     2.5534      7.366   221.8239 4.1456e+01    10.7676      1.107      1.606    14.4937   999.1987 0.0000e+00
      1.136      0.028     5.8318     81.726     40.622  32.088606     2.5265      7.364   221.7397 4.0716e+01    10.7303      1.114      1.616    14.4932   999.1988 0.0000e+00
      1.144      0.028     5.8331     81.725     40.640  32.102961     2.5234      7.361   221.5097 3.9907e+01    10.7233      1.122      1.628    14.4926   999.1990 0.0000e+00
      1.152      0.027     5.8315     81.735     40.667  32.124229     2.5418      7.359   221.5377 3.9271e+01    10.5850      1.130      1.639    14.4927   999.1990 0.0000e+00
      1.158      0.026     5.8298     81.763     40.707  32.155371     2.5665      7.357   221.9926 3.8855e+01    10.3044      1.136      1.648    14.4927   999.1990 0.0000e+00
      1.164      0.026     5.8297     81.808     40.715  32.162190     2.5790      7.355   222.4492 3.8574e+01    10.1154      1.142      1.656    14.4928   999.1990 0.0000e+00
      1.170      0.025     5.8295     81.885     40.691  32.143215     2.5898      7.353   222.5837 3.8209e+01    10.1019      1.147      1.665    14.4930   999.1990 0.0000e+00
      1.176      0.025     5.8296     81.966     40.657  32.116338     2.6186      7.351   222.5005 3.7624e+01    10.1414      1.153      1.673    14.4931   999.1990 0.0000e+00
      1.184      0.025     5.8324     82.025     40.625  32.091059     2.6415      7.348   222.3905 3.7010e+01    10.1343      1.161      1.684    14.4928   999.1991 0.0000e+00
      1.191      0.025     5.8343     82.075     40.625  32.091418     2.6410      7.345   222.2863 3.6433e+01    10.1140      1.168      1.694    14.4925   999.1992 0.0000e+00
      1.197      0.024     5.8408     82.105     40.662  32.120674     2.6378      7.344   222.1858 3.5864e+01    10.1257      1.173      1.702    14.4926   999.1992 0.0000e+00
      1.203      0.024     5.8484     82.098     40.670  32.127491     2.6378      7.341   222.1224 3.5380e+01    10.1119      1.179      1.711    14.4929   999.1992 0.0000e+00
      1.208      0.024     5.8505     82.060     40.648  32.110383     2.6507      7.338   222.1219 3.4971e+01     9.9141      1.185      1.719    14.4935   999.1991 0.0000e+00
      1.213      0.025     5.8552     81.995     40.641  32.104198     2.6725      7.335   222.1795 3.4460e+01     9.5701      1.190      1.725    14.4940   999.1990 0.0000e+00
      1.220      0.027     5.8579     81.919     40.656  32.116171     2.6755      7.333   222.3032 3.3837e+01     9.3936      1.196      1.735    14.4944   999.1991 0.0000e+00
      1.227      0.031     5.8565     81.833     40.671  32.128221     2.6696      7.329   222.3272 3.3284e+01     9.4516      1.204      1.746    14.4947   999.1990 0.0000e+00
      1.233      0.036     5.8544     81.738     40.665  32.122971     2.6531      7.326   221.7811 3.2636e+01    10.0090      1.208      1.752    14.4948   999.1990 0.0000e+00
      1.243      0.041     5.8487     81.677     40.657  32.116152     2.6156      7.322   220.9489 3.1694e+01    10.9550      1.217      1.765    14.4947   999.1991 0.0000e+00
      1.256      0.046     5.8434     81.689     40.648  32.109240     2.5876      7.317   220.6105 3.0780e+01    11.4178      1.233      1.788    14.4948   999.1992 0.0000e+00
      1.269      0.048     5.8379     81.747     40.640  32.102856     2.5837      7.311   220.7007 3.0015e+01    11.4103      1.245      1.805    14.4947   999.1992 0.0000e+00
      1.283      0.048     5.8295     81.811     40.639  32.102431     2.6199      7.305   220.9215 2.9130e+01    11.2903      1.256      1.822    14.4942   999.1993 0.0000e+00
      1.298      0.046     5.8237     81.871     40.640  32.104096     2.6790      7.302   221.0421 2.8286e+01    11.1140      1.273      1.848    14.4936   999.1995 0.0000e+00
      1.311      0.045     5.8259     81.906     40.665  32.122981     2.7080      7.300   220.7832 2.7801e+01    11.0491      1.288      1.868    14.4934   999.1996 0.0000e+00
      1.319      0.047     5.8317     81.913     40.687  32.140392     2.7193      7.296   220.2859 2.7510e+01    11.0292      1.293      1.875    14.4937   999.1996 0.0000e+00
      1.326      0.050     5.8349     81.907     40.667  32.124230     2.7809      7.287   219.9337 2.7070e+01    11.0045      1.298      1.883    14.4939   999.1996 0.0000e+00
      1.336      0.053     5.8412     81.867     40.659  32.117941     2.8896      7.276   219.7938 2.6280e+01    11.0450      1.308      1.897    14.4940   999.1996 0.0000e+00
      1.352      0.056     5.8433     81.782     40.672  32.127815     2.9509      7.267   219.8853 2.5120e+01    11.0610      1.324      1.920    14.4939   999.1997 0.0000e+00
      1.374      0.058     5.8426     81.694     40.657  32.116693     2.9503      7.258   220.1795 2.3988e+01    11.0003      1.348      1.956    14.4938   999.1999 0.0000e+00
      1.393      0.059     5.8438     81.663     40.649  32.110385     2.8556      7.246   220.3397 2.3336e+01    10.9011      1.370      1.986    14.4937   999.2000 0.0000e+00
      1.405      0.056     5.8410     81.676     40.655  32.115007     2.6903      7.236   220.3599 2.2905e+01    10.8125      1.377      1.997    14.4934   999.2000 0.0000e+00
      1.416      0.049     5.8345     81.703     40.648  32.109125     2.6068      7.230   220.3379 2.2313e+01    10.7811      1.386      2.011    14.4932   999.2001 0.0000e+00
      1.430      0.042     5.8248     81.741     40.640  32.102724     2.5919      7.230   220.1591 2.1755e+01    10.7833      1.403      2.036    14.4933   999.2002 0.0000e+00
      1.440      0.036     5.8243     81.766     40.637  32.101059     2.5797      7.231   219.9195 2.1377e+01    10.7735      1.414      2.050    14.4935   999.2002 0.0000e+00
      1.448      0.033     5.8263     81.771     40.622  32.089002     2.5370      7.234   219.8500 2.1074e+01    10.4995      1.420      2.060    14.4934   999.2003 0.0000e+00
      1.455      0.032     5.8272     81.768     40.616  32.083866     2.4574      7.238   220.2646 2.0830e+01     9.9941      1.428      2.071    14.4931   999.2003 0.0000e+00
      1.460      0.032     5.8316     81.782     40.639  32.102420     2.4231      7.242   220.8887 2.0574e+01     9.7098      1.432      2.078    14.4933   999.2003 0.0000e+00
      1.466      0.034     5.8329     81.820     40.665  32.122962     2.4259      7.245   221.1157 2.0184e+01     9.6833      1.437      2.084    14.4935   999.2003 0.0000e+00
      1.475      0.039     5.8332     81.858     40.689  32.141848     2.4306      7.246   221.1152 1.9707e+01     9.8052      1.446      2.097    14.4934   999.2004 0.0000e+00
      1.487      0.043     5.8322     81.895     40.687  32.140392     2.4539      7.247   220.9695 1.9228e+01    10.0032      1.459      2.115    14.4935   999.2004 0.0000e+00
      1.500      0.047     5.8325     81.940     40.643  32.105353     2.4743      7.247   220.7305 1.8743e+01    10.0777      1.471      2.133    14.4935   999.2005 0.0000e+00
      1.514      0.049     5.8369     81.966     40.634  32.098960     2.4768      7.247   220.9788 1.8295e+01    10.0831      1.485      2.154    14.4938   999.2005 0.0000e+00
      1.527      0.049     5.8391     81.976     40.669  32.126558     2.4676      7.244   221.5624 1.7863e+01    10.2653      1.497      2.171    14.4939   999.2005 0.0000e+00
      1.540      0.047     5.8409     81.988     40.663  32.121734     2.4583      7.239   221.7642 1.7401e+01    10.5774      1.509      2.189    14.4938   999.2006 0.0000e+00
      1.553      0.043     5.8459     81.999     40.641  32.104096     2.4603      7.233   221.6124 1.6966e+01    10.7764      1.524      2.211    14.4937   999.2007 0.0000e+00
      1.564      0.039     5.8474     82.017     40.641  32.103679     2.4742      7.230   221.4473 1.6591e+01    10.8359      1.535      2.227    14.4936   999.2007 0.0000e+00
      1.574      0.035     5.8471     82.045     40.657  32.116693     2.5388      7.230   221.3168 1.6358e+01    10.7068      1.544      2.240    14.4935   999.2008 0.0000e+00
      1.579      0.033     5.8485     82.070     40.680  32.134521     2.6438      7.230   221.2393 1.6226e+01    10.4275      1.549      2.247    14.4935   999.2008 0.0000e+00
      1.584      0.033     5.8491     82.096     40.673  32.128856     2.6944      7.230   221.2841 1.6015e+01    10.2779      1.553      2.252    14.4935   999.2008 0.0000e+00
      1.592      0.034     5.8498     82.113     40.651  32.111654     2.7081      7.231   221.4280 1.5691e+01    10.3069      1.561      2.263    14.4933   999.2009 0.0000e+00
      1.603      0.035     5.8530     82.083     40.658  32.116912     2.8092      7.232   221.5174 1.5359e+01    10.3520      1.573      2.281    14.4931   999.2010 0.0000e+00
      1.613      0.038     5.8541     82.017     40.675  32.128971     2.9724      7.233   221.5044 1.5074e+01    10.3319      1.583      2.295    14.4932   999.2010 0.0000e+00
      1.623      0.040     5.8556     81.948     40.678  32.130531     3.0598      7.233   221.5291 1.4769e+01    10.2919      1.591      2.308    14.4933   999.2011 0.0000e+00
      1.634      0.041     5.8594     81.890     40.685  32.135780     3.0770      7.233   221.3851 1.4449e+01    10.2954      1.602      2.324    14.4931   999.2011 0.0000e+00
      1.644      0.041     5.8560     81.833     40.676  32.128970     3.0766      7.232   221.0544 1.4151e+01    10.3418      1.612      2.339    14.4927   999.2012 0.0000e+00
      1.655      0.041     5.8509     81.786     40.653  32.111654     3.0983      7.230   221.0577 1.3843e+01    10.4259      1.622      2.353    14.4910   999.2015 0.0000e+00
      1.666      0.042     5.8454     81.765     40.659  32.116798     3.1577      7.229   221.2538 1.3585e+01    10.5262      1.635      2.371    14.4894   999.2018 0.0000e+00
      1.676      0.042     5.8422     81.767     40.673  32.127712     3.1963      7.229   221.3602 1.3371e+01    10.5713      1.644      2.385    14.4895   999.2019 0.0000e+00
      1.685      0.043     5.8375     81.784     40.658  32.116685     3.1916      7.228   221.4838 1.3088e+01    10.5778      1.651      2.395    14.4906   999.2017 0.0000e+00
      1.697      0.043     5.8333     81.793     40.650  32.110385     3.0667      7.226   221.4578 1.2770e+01    10.7361      1.664      2.414    14.4915   999.2017 0.0000e+00
      1.709      0.043     5.8325     81.801     40.656  32.115009     2.8477      7.226   221.3031 1.2495e+01    11.0436      1.677      2.433    14.4916   999.2017 0.0000e+00
      1.721      0.043     5.8318     81.812     40.648  32.109137     2.7287      7.225   221.2487 1.2253e+01    11.2148      1.688      2.448    14.4917   999.2018 0.0000e+00
      1.731      0.042     5.8349     81.808     40.640  32.102839     2.7195      7.224   221.2301 1.2022e+01    11.2333      1.698      2.463    14.4921   999.2017 0.0000e+00
      1.741      0.041     5.8344     81.788     40.640  32.102317     2.7718      7.223   221.2500 1.1787e+01    11.3328      1.708      2.477    14.4925   999.2017 0.0000e+00
      1.751      0.040     5.8347     81.772     40.641  32.102828     2.8588      7.223   221.4030 1.1573e+01    11.5324      1.717      2.491    14.4927   999.2017 0.0000e+00
      1.761      0.040     5.8366     81.791     40.650  32.109023     2.8954      7.221   221.5317 1.1373e+01    11.6480      1.727      2.504    14.4929   999.2017 0.0000e+00
      1.771      0.041     5.8361     81.848     40.655  32.113761     2.8937      7.219   221.5162 1.1147e+01    11.6487      1.736      2.518    14.4928   999.2018 0.0000e+00
      1.782      0.042     5.8345     81.907     40.633  32.096655     2.9417      7.219   221.4728 1.0921e+01    11.4433      1.747      2.534    14.4922   999.2019 0.0000e+00
      1.793      0.043     5.8321     81.951     40.627  32.092569     3.0345      7.218   221.4380 1.0717e+01    11.0333      1.759      2.551    14.4918   999.2021 0.0000e+00
      1.804      0.045     5.8331     81.971     40.672  32.127817     3.0785      7.215   221.4400 1.0500e+01    10.7876      1.769      2.566    14.4917   999.2021 0.0000e+00
      1.815      0.045     5.8390     81.956     40.689  32.142078     3.0840      7.213   221.4966 1.0266e+01    10.7659      1.780      2.582    14.4919   999.2021 0.0000e+00
      1.827      0.045     5.8433     81.921     40.684  32.138077     3.2050      7.210   221.4342 1.0030e+01    10.9024      1.793      2.600    14.4922   999.2021 0.0000e+00
      1.840      0.044     5.8460     81.868     40.690  32.142901     3.4325      7.208   221.3735 9.7804e+00    11.1602      1.804      2.616    14.4925   999.2021 0.0000e+00
      1.853      0.043     5.8488     81.807     40.683  32.136943     3.5626      7.207   221.5368 9.5666e+00    11.2934      1.817      2.635    14.4930   999.2022 0.0000e+00
      1.863      0.041     5.8462     81.787     40.674  32.129502     3.5729      7.206   221.6876 9.4262e+00    11.3000      1.829      2.652    14.4935   999.2021 0.0000e+00
      1.872      0.039     5.8439     81.808     40.658  32.116393     3.5478      7.205   221.7337 9.2851e+00    11.3057      1.836      2.662    14.4938   999.2021 0.0000e+00
      1.881      0.038     5.8409     81.844     40.645  32.105366     3.3980      7.203   221.8365 9.1213e+00    11.2970      1.844      2.674    14.4939   999.2022 0.0000e+00
      1.891      0.038     5.8337     81.886     40.667  32.123088     3.1325      7.201   221.7261 8.9728e+00    11.2604      1.855      2.690    14.4938   999.2022 0.0000e+00
      1.900      0.039     5.8329     81.931     40.688  32.140291     2.9808      7.199   221.4315 8.8316e+00    11.2559      1.864      2.704    14.4934   999.2023 0.0000e+00
      1.910      0.040     5.8355     81.962     40.666  32.122984     2.9685      7.198   221.2861 8.6722e+00    11.3088      1.872      2.716    14.4926   999.2025 0.0000e+00
      1.920      0.040     5.8382     81.965     40.641  32.104211     3.0800      7.195   221.3449 8.4850e+00    11.3097      1.882      2.729    14.4915   999.2027 0.0000e+00
      1.931      0.039     5.8413     81.941     40.641  32.103701     3.2960      7.193   221.5404 8.2977e+00    11.2668      1.893      2.746    14.4914   999.2027 0.0000e+00
      1.941      0.039     5.8445     81.904     40.657  32.116809     3.4218      7.193   221.5845 8.1305e+00    11.2489      1.905      2.761    14.4921   999.2027 0.0000e+00
      1.951      0.040     5.8478     81.889     40.682  32.135781     3.4215      7.192   221.4472 8.0013e+00    11.2249      1.915      2.777    14.4929   999.2026 0.0000e+00
      1.960      0.041     5.8470     81.902     40.692  32.142701     3.2752      7.190   221.1709 7.8848e+00    11.2052      1.922      2.787    14.4933   999.2026 0.0000e+00
      1.969      0.041     5.8459     81.914     40.686  32.137018     3.0326      7.188   220.9111 7.7247e+00    11.2077      1.930      2.799    14.4934   999.2026 0.0000e+00
      1.981      0.041     5.8414     81.904     40.679  32.130531     2.9152      7.187   220.8878 7.5532e+00    11.2217      1.943      2.818    14.4936   999.2026 0.0000e+00
      1.993      0.041     5.8404     81.881     40.676  32.127723     2.9043      7.185   220.8888 7.4053e+00    11.2437      1.955      2.835    14.4931   999.2028 0.0000e+00
      2.004      0.041     5.8428     81.880     40.644  32.103058     2.9089      7.183   220.9232 7.2619e+00    11.2776      1.965      2.850    14.4917   999.2030 0.0000e+00
      2.014      0.040     5.8438     81.877     40.623  32.086157     2.9275      7.182   221.0453 7.1269e+00    11.3362      1.976      2.866    14.4905   999.2033 0.0000e+00
      2.023      0.040     5.8440     81.851     40.658  32.113753     2.9394      7.181   221.0751 6.9997e+00    11.3957      1.984      2.878    14.4898   999.2034 0.0000e+00
      2.033      0.040     5.8396     81.836     40.665  32.119417     2.9571      7.180   221.0254 6.8589e+00    11.4398      1.993      2.890    14.4895   999.2035 0.0000e+00
      2.043      0.041     5.8415     81.853     40.630  32.091182     2.9862      7.177   220.9607 6.7209e+00    11.4762      2.004      2.906    14.4891   999.2036 0.0000e+00
      2.053      0.042     5.8423     81.890     40.627  32.089669     3.0052      7.176   220.8952 6.5814e+00    11.4747      2.012      2.919    14.4888   999.2036 0.0000e+00
      2.063      0.043     5.8387     81.927     40.642  32.101121     3.0039      7.176   220.8357 6.4280e+00    11.4545      2.023      2.933    14.4886   999.2038 0.0000e+00
      2.076      0.043     5.8370     81.945     40.644  32.102731     3.0051      7.175   220.7570 6.2841e+00    11.4618      2.036      2.953    14.4888   999.2038 0.0000e+00
      2.088      0.043     5.8389     81.938     40.652  32.109128     3.0191      7.172   221.1487 6.1526e+00    11.4642      2.047      2.969    14.4890   999.2038 0.0000e+00
      2.099      0.043     5.8419     81.935     40.659  32.115011     3.0439      7.170   222.1294 6.0269e+00    11.5165      2.059      2.985    14.4890   999.2039 0.0000e+00
      2.109      0.043     5.8447     81.929     40.654  32.110398     3.0703      7.169   222.7202 5.9055e+00    11.6358      2.069      3.000    14.4892   999.2039 0.0000e+00
      2.119      0.042     5.8474     81.900     40.663  32.116811     3.0780      7.167   222.6992 5.7838e+00    11.6936      2.077      3.012    14.4892   999.2039 0.0000e+00
      2.131      0.042     5.8444     81.850     40.678  32.129086     3.0775      7.165   222.5643 5.6693e+00    11.7239      2.089      3.031    14.4890   999.2040 0.0000e+00
      2.142      0.042     5.8455     81.782     40.681  32.131895     3.0982      7.164   222.5518 5.5699e+00    11.7724      2.101      3.047    14.4888   999.2041 0.0000e+00
      2.152      0.043     5.8456     81.725     40.706  32.150772     3.1288      7.162   222.9778 5.4741e+00    11.7559      2.109      3.058    14.4887   999.2041 0.0000e+00
      2.162      0.043     5.8429     81.703     40.726  32.166943     3.1360      7.160   223.5855 5.3546e+00    11.6894      2.120      3.075    14.4888   999.2042 0.0000e+00
      2.174      0.042     5.8401     81.700     40.688  32.137041     3.1239      7.158   223.7045 5.2147e+00    11.6556      2.133      3.093    14.4887   999.2043 0.0000e+00
      2.185      0.041     5.8338     81.694     40.648  32.106521     3.0342      7.158   223.4707 5.0976e+00    11.5427      2.143      3.108    14.4885   999.2043 0.0000e+00
      2.196      0.040     5.8293     81.715     40.659  32.115241     2.8754      7.157   223.1674 5.0143e+00    11.2753      2.154      3.123    14.4885   999.2044 0.0000e+00
      2.206      0.037     5.8278     81.788     40.660  32.115552     2.7899      7.156   222.8766 4.9360e+00    11.0444      2.164      3.138    14.4889   999.2044 0.0000e+00
      2.215      0.034     5.8293     81.868     40.653  32.110284     2.7725      7.155   222.6212 4.8345e+00    10.9471      2.172      3.151    14.4891   999.2044 0.0000e+00
      2.223      0.032     5.8274     81.930     40.659  32.115002     2.7786      7.155   222.4028 4.7234e+00    10.8526      2.180      3.162    14.4895   999.2043 0.0000e+00
      2.230      0.032     5.8269     81.985     40.652  32.109139     2.8120      7.155   222.3879 4.6434e+00    10.6880      2.188      3.173    14.4898   999.2044 0.0000e+00
      2.237      0.032     5.8350     82.025     40.644  32.102851     2.8374      7.153   222.5264 4.5887e+00    10.5954      2.193      3.181    14.4898   999.2044 0.0000e+00
      2.243      0.033     5.8410     82.047     40.643  32.102434     2.8513      7.151   222.7013 4.5129e+00    10.5857      2.199      3.188    14.4899   999.2044 0.0000e+00
      2.252      0.036     5.8445     82.052     40.645  32.104099     2.9279      7.150   222.7814 4.4074e+00    10.6682      2.209      3.202    14.4898   999.2044 0.0000e+00
      2.263      0.038     5.8494     82.038     40.669  32.122986     3.0704      7.149   222.3767 4.3183e+00    10.8727      2.220      3.219    14.4898   999.2045 0.0000e+00
      2.274      0.041     5.8518     82.019     40.690  32.140407     3.1438      7.148   221.6795 4.2408e+00    11.0259      2.230      3.234    14.4897   999.2046 0.0000e+00
      2.285      0.042     5.8533     82.011     40.669  32.124358     3.1479      7.146   221.4933 4.1480e+00    11.0782      2.240      3.249    14.4895   999.2046 0.0000e+00
      2.295      0.042     5.8543     82.015     40.662  32.119318     3.1545      7.145   221.7594 4.0622e+00    11.0471      2.251      3.266    14.4895   999.2047 0.0000e+00
      2.306      0.042     5.8525     82.013     40.692  32.142933     3.1550      7.143   222.0588 3.9755e+00    10.8794      2.261      3.279    14.4897   999.2047 0.0000e+00
      2.317      0.042     5.8507     81.989     40.708  32.156040     3.1535      7.141   222.2728 3.8836e+00    10.6564      2.273      3.297    14.4903   999.2047 0.0000e+00
      2.328      0.042     5.8501     81.957     40.702  32.150877     3.1536      7.141   222.1105 3.8075e+00    10.5792      2.284      3.313    14.4911   999.2046 0.0000e+00
      2.338      0.043     5.8503     81.922     40.693  32.143963     3.1476      7.140   221.6450 3.7288e+00    10.6014      2.293      3.326    14.4918   999.2045 0.0000e+00
      2.349      0.044     5.8514     81.882     40.683  32.135906     3.1244      7.138   221.3770 3.6464e+00    10.6291      2.305      3.342    14.4924   999.2045 0.0000e+00
      2.361      0.044     5.8483     81.852     40.658  32.116926     3.0895      7.135   221.3644 3.5771e+00    10.7186      2.316      3.359    14.4925   999.2046 0.0000e+00
      2.372      0.044     5.8464     81.844     40.642  32.104849     3.0720      7.134   221.4932 3.5082e+00    10.7985      2.325      3.373    14.4922   999.2047 0.0000e+00
      2.384      0.043     5.8442     81.863     40.657  32.116810     3.0700      7.134   221.7299 3.4361e+00    10.8078      2.338      3.390    14.4924   999.2047 0.0000e+00
      2.396      0.042     5.8405     81.893     40.680  32.134628     3.0998      7.133   221.8176 3.3661e+00    10.8314      2.349      3.408    14.4926   999.2047 0.0000e+00
      2.406      0.041     5.8386     81.933     40.675  32.129899     3.1632      7.131   221.7789 3.2932e+00    10.9203      2.360      3.423    14.4928   999.2047 0.0000e+00
      2.416      0.041     5.8368     81.973     40.666  32.123099     3.1952      7.130   221.8640 3.2314e+00    11.0306      2.370      3.437    14.4932   999.2047 0.0000e+00
      2.425      0.041     5.8398     81.985     40.656  32.115867     3.2006      7.130   221.9858 3.1769e+00    11.1163      2.377      3.448    14.4934   999.2047 0.0000e+00
      2.435      0.041     5.8411     81.975     40.644  32.105907     3.2369      7.129   222.0476 3.1108e+00    11.2352      2.387      3.462    14.4933   999.2048 0.0000e+00
      2.446      0.041     5.8442     81.970     40.674  32.129598     3.2964      7.127   222.0089 3.0460e+00    11.3871      2.400      3.480    14.4931   999.2049 0.0000e+00
      2.458      0.042     5.8485     81.989     40.698  32.148474     3.3218      7.125   222.0337 2.9809e+00    11.4449      2.410      3.496    14.4929   999.2049 0.0000e+00
      2.469      0.043     5.8487     81.997     40.692  32.143755     3.3010      7.124   222.2613 2.9034e+00    11.4429      2.421      3.511    14.4931   999.2050 0.0000e+00
      2.480      0.043     5.8476     81.997     40.682  32.136001     3.1927      7.123   222.3515 2.8219e+00    11.2975      2.432      3.527    14.4933   999.2050 0.0000e+00
      2.490      0.043     5.8457     82.026     40.659  32.118182     3.0089      7.122   222.2646 2.7483e+00    10.9650      2.442      3.542    14.4933   999.2050 0.0000e+00
      2.501      0.043     5.8491     82.064     40.659  32.118694     2.9076      7.121   222.2431 2.6883e+00    10.7654      2.453      3.557    14.4930   999.2051 0.0000e+00
      2.512      0.044     5.8502     82.094     40.689  32.142186     2.9036      7.120   222.3496 2.6288e+00    10.7511      2.463      3.572    14.4928   999.2052 0.0000e+00
      2.524      0.045     5.8474     82.134     40.697  32.148379     2.9088      7.118   222.4339 2.5662e+00    10.7602      2.475      3.589    14.4928   999.2053 0.0000e+00
      2.535      0.045     5.8513     82.172     40.674  32.130118     2.9624      7.117   222.4016 2.5090e+00    10.7767      2.486      3.605    14.4932   999.2052 0.0000e+00
      2.547      0.044     5.8545     82.182     40.651  32.111772     3.0746      7.116   222.3898 2.4476e+00    10.7868      2.498      3.623    14.4936   999.2052 0.0000e+00
      2.559      0.041     5.8551     82.177     40.658  32.116935     3.1381      7.115   222.3763 2.3967e+00    10.7845      2.510      3.640    14.4941   999.2053 0.0000e+00
      2.570      0.038     5.8587     82.164     40.674  32.129089     3.1331      7.113   222.3252 2.3655e+00    10.7820      2.521      3.658    14.4942   999.2053 0.0000e+00
      2.579      0.035     5.8627     82.116     40.677  32.131802     3.0399      7.111   222.3740 2.3231e+00    10.6900      2.530      3.669    14.4935   999.2054 0.0000e+00
      2.587      0.032     5.8627     82.040     40.700  32.149733     2.8770      7.110   222.4502 2.2678e+00    10.4923      2.537      3.679    14.4928   999.2055 0.0000e+00
      2.594      0.031     5.8615     81.961     40.708  32.155511     2.7853      7.110   222.3867 2.2280e+00    10.3574      2.544      3.690    14.4926   999.2056 0.0000e+00
      2.601      0.032     5.8627     81.896     40.686  32.138206     2.7644      7.110   222.2075 2.2027e+00    10.3369      2.550      3.699    14.4924   999.2057 0.0000e+00
      2.608      0.035     5.8583     81.869     40.676  32.130869     2.7978      7.109   222.0042 2.1742e+00    10.5069      2.558      3.710    14.4923   999.2057 0.0000e+00
      2.615      0.040     5.8520     81.881     40.676  32.130262     2.8933      7.108   221.9078 2.1454e+00    10.8396      2.564      3.720    14.4924   999.2058 0.0000e+00
      2.625      0.045     5.8466     81.921     40.677  32.130868     2.9573      7.107   221.9884 2.1088e+00    11.0175      2.573      3.731    14.4925   999.2058 0.0000e+00
      2.639      0.050     5.8407     81.972     40.686  32.138195     2.9644      7.102   222.2041 2.0583e+00    11.0189      2.588      3.754    14.4923   999.2058 0.0000e+00
      2.653      0.053     5.8390     82.018     40.708  32.155397     2.9184      7.096   222.4511 1.9987e+00    10.8884      2.603      3.775    14.4920   999.2060 0.0000e+00
      2.667      0.053     5.8404     82.056     40.700  32.148476     2.8261      7.092   222.5652 1.9220e+00    10.6527      2.614      3.791    14.4918   999.2060 0.0000e+00
      2.685      0.048     5.8433     82.079     40.661  32.117967     2.7756      7.090   222.4656 1.8416e+00    10.5615      2.633      3.821    14.4917   999.2061 0.0000e+00
      2.702      0.040     5.8478     82.053     40.643  32.103819     2.7766      7.088   222.2799 1.7846e+00    10.5724      2.654      3.849    14.4918   999.2062 0.0000e+00
      2.710      0.033     5.8510     81.978     40.644  32.104339     2.7596      7.088   222.2123 1.7646e+00    10.4563      2.660      3.858    14.4916   999.2063 0.0000e+00
      2.713      0.027     5.8533     81.888     40.669  32.124246     2.6831      7.087   222.5090 1.7672e+00    10.2388      2.661      3.859    14.4914   999.2063 0.0000e+00
      2.714      0.023     5.8567     81.787     40.707  32.154140     2.5799      7.086   223.0280 1.7616e+00    10.1069      2.662      3.861    14.4914   999.2063 0.0000e+00
      2.718      0.023     5.8548     81.671     40.700  32.148485     2.5350      7.086   223.3242 1.7390e+00    10.1061      2.664      3.864    14.4912   999.2063 0.0000e+00
      2.724      0.028     5.8479     81.608     40.664  32.119329     2.5477      7.086   223.4237 1.7159e+00    10.1310      2.671      3.874    14.4911   999.2064 0.0000e+00
      2.732      0.034     5.8415     81.648     40.664  32.118914     2.6553      7.085   223.3710 1.7006e+00    10.1789      2.679      3.886    14.4911   999.2065 0.0000e+00
      2.742      0.039     5.8356     81.757     40.694  32.143464     2.8468      7.084   223.2028 1.6651e+00    10.2918      2.687      3.898    14.4909   999.2066 0.0000e+00
      2.755      0.044     5.8248     81.915     40.718  32.162331     2.9478      7.082   223.1976 1.6192e+00    10.3820      2.702      3.918    14.4908   999.2066 0.0000e+00
      2.768      0.046     5.8179     82.104     40.711  32.156647     2.9582      7.079   223.3938 1.5958e+00    10.3842      2.716      3.939    14.4903   999.2067 0.0000e+00
      2.779      0.046     5.8236     82.284     40.687  32.138194     3.0244      7.076   223.6821 1.5709e+00    10.4497      2.725      3.952    14.4902   999.2068 0.0000e+00
      2.792      0.045     5.8308     82.429     40.677  32.129608     3.1504      7.075   223.8436 1.5308e+00    10.6166      2.737      3.970    14.4905   999.2068 0.0000e+00
      2.805      0.045     5.8426     82.516     40.660  32.116292     3.2320      7.074   223.7982 1.4941e+00    10.7309      2.754      3.994    14.4906   999.2069 0.0000e+00
      2.815      0.045     5.8575     82.538     40.644  32.104111     3.2479      7.074   223.7352 1.4693e+00    10.7829      2.761      4.005    14.4904   999.2070 0.0000e+00
      2.823      0.048     5.8706     82.493     40.651  32.109246     3.1083      7.072   223.5121 1.4349e+00    10.7877      2.765      4.012    14.4901   999.2070 0.0000e+00
      2.835      0.050     5.8822     82.422     40.658  32.114919     2.8185      7.066   223.0795 1.3938e+00    10.7879      2.780      4.032    14.4899   999.2071 0.0000e+00
      2.849      0.050     5.8875     82.365     40.652  32.109245     2.6486      7.060   222.9791 1.3630e+00    10.8178      2.793      4.051    14.4900   999.2071 0.0000e+00
      2.864      0.050     5.8906     82.329     40.645  32.104100     2.6323      7.056   223.3309 1.3172e+00    10.8209      2.806      4.070    14.4901   999.2072 0.0000e+00
      2.880      0.048     5.8852     82.315     40.660  32.116167     2.6475      7.055   223.7191 1.2699e+00    10.7604      2.826      4.100    14.4900   999.2073 0.0000e+00
      2.893      0.045     5.8790     82.312     40.675  32.128226     2.6766      7.055   223.8870 1.2499e+00    10.6443      2.839      4.118    14.4899   999.2074 0.0000e+00
      2.901      0.042     5.8755     82.304     40.669  32.122976     2.6985      7.055   223.4682 1.2344e+00    10.5634      2.845      4.126    14.4898   999.2074 0.0000e+00
      2.909      0.038     5.8721     82.267     40.660  32.116158     2.7122      7.055   222.7847 1.2124e+00    10.5363      2.853      4.138    14.4899   999.2074 0.0000e+00
      2.918      0.036     5.8722     82.202     40.651  32.109255     2.8243      7.056   222.5929 1.1989e+00    10.3163      2.861      4.151    14.4898   999.2075 0.0000e+00
      2.928      0.035     5.8716     82.115     40.644  32.102972     3.0232      7.057   222.6122 1.1892e+00     9.9033      2.871      4.165    14.4900   999.2075 0.0000e+00
      2.937      0.036     5.8727     82.009     40.645  32.103644     3.1237      7.058   222.5012 1.1674e+00     9.6720      2.881      4.178    14.4901   999.2075 0.0000e+00
      2.946      0.037     5.8692     81.916     40.662  32.117374     3.1367      7.060   222.5417 1.1454e+00     9.6489      2.889      4.189    14.4900   999.2076 0.0000e+00
      2.954      0.038     5.8645     81.871     40.693  32.142067     3.1465      7.062   222.8433 1.1342e+00     9.6897      2.897      4.202    14.4901   999.2076 0.0000e+00
      2.964      0.039     5.8588     81.874     40.701  32.148360     3.1200      7.062   222.8788 1.1165e+00     9.8715      2.907      4.216    14.4900   999.2077 0.0000e+00
      2.974      0.041     5.8501     81.901     40.678  32.130005     3.0597      7.062   222.4548 1.0819e+00    10.1420      2.916      4.230    14.4898   999.2077 0.0000e+00
      2.985      0.041     5.8423     81.946     40.655  32.110515     3.0237      7.062   222.1906 1.0442e+00    10.3059      2.928      4.246    14.4897   999.2078 0.0000e+00
      2.997      0.042     5.8389     81.991     40.647  32.103091     3.0140      7.061   222.2649 1.0206e+00    10.3787      2.940      4.264    14.4898   999.2079 0.0000e+00
      3.008      0.042     5.8407     82.018     40.649  32.103706     2.9255      7.060   222.4073 1.0058e+00    10.4977      2.950      4.279    14.4897   999.2080 0.0000e+00
      3.018      0.041     5.8418     82.028     40.667  32.117948     2.7598      7.058   222.4491 9.8084e-01    10.6630      2.960      4.294    14.4892   999.2080 0.0000e+00
      3.028      0.038     5.8460     82.016     40.705  32.148371     2.6671      7.058   222.5127 9.4841e-01    10.7386      2.968      4.305    14.4880   999.2082 0.0000e+00
      3.038      0.036     5.8503     81.992     40.712  32.154244     2.6535      7.059   222.6602 9.3424e-01    10.7569      2.980      4.322    14.4867   999.2085 0.0000e+00
      3.048      0.035     5.8515     81.980     40.676  32.125495     2.6643      7.059   222.6835 9.2962e-01    10.8187      2.991      4.338    14.4856   999.2087 0.0000e+00
      3.056      0.035     5.8532     81.984     40.666  32.118071     2.6941      7.059   222.6224 9.1442e-01    10.8631      2.997      4.346    14.4855   999.2087 0.0000e+00
      3.063      0.036     5.8518     81.984     40.678  32.127945     2.7103      7.059   222.6089 8.9827e-01    10.8347      3.004      4.357    14.4862   999.2087 0.0000e+00
      3.071      0.039     5.8489     81.963     40.665  32.117958     2.7218      7.058   222.6934 8.7645e-01    10.8032      3.011      4.368    14.4864   999.2087 0.0000e+00
      3.081      0.043     5.8484     81.936     40.673  32.124238     2.9029      7.057   223.1284 8.4693e-01    10.8753      3.020      4.380    14.4867   999.2087 0.0000e+00
      3.093      0.047     5.8486     81.918     40.693  32.140409     3.2444      7.056   223.8237 8.2574e-01    10.9859      3.032      4.397    14.4871   999.2087 0.0000e+00
      3.108      0.050     5.8500     81.912     40.671  32.123102     3.4345      7.055   224.1313 8.1063e-01    11.0263      3.047      4.420    14.4874   999.2087 0.0000e+00
      3.123      0.051     5.8472     81.917     40.648  32.105371     3.4582      7.055   223.9227 7.8305e-01    11.0031      3.064      4.443    14.4874   999.2088 0.0000e+00
      3.137      0.051     5.8451     81.929     40.662  32.116397     3.4530      7.055   223.5378 7.4590e-01    10.8693      3.076      4.462    14.4876   999.2088 0.0000e+00
      3.150      0.050     5.8439     81.947     40.678  32.129497     3.4239      7.055   223.3493 7.2340e-01    10.6867      3.089      4.480    14.4883   999.2088 0.0000e+00
      3.161      0.048     5.8432     81.961     40.687  32.136835     3.3927      7.053   223.6225 7.1223e-01    10.6306      3.101      4.497    14.4886   999.2088 0.0000e+00
      3.171      0.046     5.8441     81.972     40.693  32.141657     3.3789      7.051   224.1744 6.9099e-01    10.6163      3.107      4.507    14.4888   999.2088 0.0000e+00
      3.183      0.044     5.8440     81.986     40.671  32.124350     3.3701      7.049   224.5153 6.6599e-01    10.5801      3.119      4.524    14.4888   999.2088 0.0000e+00
      3.197      0.044     5.8467     82.003     40.663  32.117957     3.2943      7.049   224.4743 6.5708e-01    10.6841      3.137      4.550    14.4889   999.2089 0.0000e+00
      3.208      0.045     5.8467     82.023     40.676  32.127822     3.1567      7.050   224.2812 6.5390e-01    10.9227      3.147      4.565    14.4890   999.2089 0.0000e+00
      3.217      0.046     5.8479     82.045     40.662  32.116699     3.0851      7.050   224.1602 6.4504e-01    11.0727      3.153      4.573    14.4892   999.2090 0.0000e+00
      3.227      0.048     5.8485     82.084     40.655  32.110392     3.1044      7.049   224.2149 6.3350e-01    11.0562      3.164      4.588    14.4894   999.2090 0.0000e+00
      3.238      0.049     5.8498     82.120     40.661  32.115025     3.3288      7.045   224.3401 6.1213e-01    10.8865      3.175      4.605    14.4891   999.2091 0.0000e+00
      3.253      0.049     5.8518     82.130     40.653  32.109257     3.7352      7.040   224.3839 5.8415e-01    10.6596      3.188      4.624    14.4889   999.2092 0.0000e+00
      3.270      0.048     5.8521     82.122     40.646  32.104113     3.9605      7.039   224.4014 5.6453e-01    10.5741      3.207      4.652    14.4885   999.2093 0.0000e+00
      3.285      0.047     5.8560     82.111     40.661  32.116283     3.9724      7.040   224.5512 5.6093e-01    10.5736      3.225      4.677    14.4880   999.2095 0.0000e+00
      3.294      0.046     5.8593     82.083     40.677  32.129486     3.7924      7.041   224.6456 5.5931e-01    10.5890      3.232      4.688    14.4881   999.2095 0.0000e+00
      3.299      0.046     5.8597     82.039     40.687  32.136823     3.4479      7.043   224.2531 5.4110e-01    10.6942      3.234      4.691    14.4888   999.2094 0.0000e+00
      3.309      0.047     5.8580     81.987     40.693  32.141543     3.2588      7.044   223.7626 5.1824e-01    10.7645      3.243      4.703    14.4893   999.2093 0.0000e+00
      3.324      0.050     5.8583     81.942     40.670  32.123093     3.2390      7.043   223.7042 5.0762e-01    10.7507      3.259      4.727    14.4891   999.2095 0.0000e+00
      3.339      0.053     5.8562     81.929     40.645  32.104122     3.1400      7.043   223.8056 4.9697e-01    10.7237      3.276      4.750    14.4891   999.2095 0.0000e+00
      3.355      0.054     5.8526     81.934     40.643  32.102552     2.9456      7.043   224.0424 4.8158e-01    10.6338      3.291      4.773    14.4891   999.2096 0.0000e+00
      3.371      0.053     5.8492     81.952     40.646  32.104113     2.8391      7.044   224.3301 4.8055e-01    10.5490      3.307      4.796    14.4889   999.2097 0.0000e+00
      3.384      0.050     5.8438     81.992     40.671  32.122990     2.8318      7.045   224.1016 4.8452e-01    10.5182      3.319      4.814    14.4893   999.2097 0.0000e+00
      3.395      0.048     5.8448     82.041     40.694  32.140411     2.8148      7.046   223.5159 4.7507e-01    10.4254      3.328      4.828    14.4898   999.2097 0.0000e+00
      3.406      0.048     5.8448     82.085     40.674  32.124361     2.7811      7.046   223.2717 4.5956e-01    10.2785      3.340      4.845    14.4894   999.2098 0.0000e+00
      3.416      0.049     5.8455     82.116     40.668  32.119321     2.7618      7.045   223.3852 4.3837e-01    10.1837      3.350      4.859    14.4884   999.2100 0.0000e+00
      3.427      0.052     5.8496     82.142     40.698  32.142926     2.7718      7.044   223.5121 4.1338e-01    10.1321      3.360      4.872    14.4874   999.2102 0.0000e+00
      3.442      0.054     5.8527     82.155     40.713  32.155930     2.7900      7.044   223.6021 3.9477e-01    10.1128      3.375      4.895    14.4868   999.2103 0.0000e+00
      3.458      0.056     5.8570     82.140     40.705  32.149623     2.8427      7.044   223.6984 3.8102e-01    10.2788      3.392      4.920    14.4866   999.2105 0.0000e+00
      3.475      0.059     5.8578     82.088     40.680  32.130131     2.9506      7.042   223.6445 3.6893e-01    10.5985      3.408      4.942    14.4867   999.2105 0.0000e+00
      3.490      0.061     5.8609     82.012     40.655  32.110631     3.0187      7.039   223.4665 3.6081e-01    10.7661      3.423      4.965    14.4866   999.2106 0.0000e+00
      3.503      0.062     5.8616     81.937     40.648  32.104237     3.0243      7.036   223.4385 3.6152e-01    10.7655      3.436      4.983    14.4870   999.2106 0.0000e+00
      3.518      0.062     5.8611     81.877     40.664  32.116285     3.0095      7.034   223.5650 3.5730e-01    10.7560      3.449      5.001    14.4881   999.2105 0.0000e+00
      3.535      0.062     5.8569     81.841     40.680  32.129373     2.9780      7.032   223.7047 3.3996e-01    10.7486      3.467      5.028    14.4887   999.2105 0.0000e+00
      3.554      0.060     5.8503     81.814     40.689  32.135566     2.9562      7.030   223.9234 3.2061e-01    10.7419      3.486      5.056    14.4881   999.2107 0.0000e+00
      3.570      0.057     5.8457     81.790     40.679  32.127699     2.9540      7.029   224.1441 3.0248e-01    10.7403      3.501      5.078    14.4869   999.2109 0.0000e+00
      3.585      0.052     5.8400     81.792     40.642  32.097709     2.9172      7.026   224.1361 2.8813e-01    10.6963      3.516      5.100    14.4864   999.2110 0.0000e+00
      3.597      0.049     5.8389     81.842     40.632  32.090266     2.8319      7.023   224.0846 2.7948e-01    10.6360      3.529      5.119    14.4862   999.2112 0.0000e+00
      3.606      0.048     5.8370     81.938     40.646  32.101170     2.7810      7.021   224.0376 2.7151e-01    10.6019      3.538      5.131    14.4860   999.2112 0.0000e+00
      3.614      0.048     5.8346     82.051     40.648  32.102625     2.7790      7.019   223.9131 2.6545e-01    10.5454      3.543      5.138    14.4854   999.2113 0.0000e+00
      3.625      0.048     5.8342     82.157     40.655  32.107865     2.8065      7.015   224.0412 2.5615e-01    10.4783      3.551      5.150    14.4853   999.2114 0.0000e+00
      3.641      0.048     5.8374     82.247     40.646  32.101055     2.8621      7.012   224.2967 2.2550e-01    10.4127      3.570      5.178    14.4854   999.2115 0.0000e+00
      3.658      0.050     5.8458     82.310     40.624  32.083750     2.8966      7.010   224.2484 2.0065e-01    10.3737      3.590      5.207    14.4852   999.2116 0.0000e+00
      3.671      0.052     5.8542     82.351     40.631  32.089009     2.9027      7.008   224.1446 2.0591e-01    10.3672      3.601      5.224    14.4851   999.2116 0.0000e+00
      3.680      0.051     5.8618     82.376     40.647  32.101180     2.9009      7.005   224.1605 2.1820e-01    10.3015      3.607      5.231    14.4851   999.2117 0.0000e+00
      3.691      0.048     5.8688     82.386     40.651  32.103988     2.9018      7.004   224.0968 2.2350e-01    10.2028      3.616      5.244    14.4851   999.2117 0.0000e+00
      3.707      0.048     5.8729     82.366     40.675  32.122958     2.9047      7.006   224.0638 2.2170e-01    10.1572      3.636      5.274    14.4849   999.2118 0.0000e+00
      3.722      0.051     5.8759     82.309     40.697  32.140170     2.8922      7.009   224.1903 2.1010e-01    10.1441      3.654      5.300    14.4845   999.2120 0.0000e+00
      3.730      0.058     5.8774     82.244     40.675  32.121720     2.8813      7.011   224.3360 1.9527e-01    10.1424      3.658      5.306    14.4836   999.2121 0.0000e+00
      3.739      0.066     5.8788     82.174     40.637  32.090259     2.8338      7.011   224.4486 1.8301e-01    10.2997      3.664      5.314    14.4829   999.2122 0.0000e+00
      3.755      0.074     5.8782     82.106     40.622  32.077065     2.7332      7.009   224.5193 1.6709e-01    10.6037      3.681      5.338    14.4831   999.2123 0.0000e+00
      3.779      0.082     5.8722     82.051     40.639  32.089114     2.6712      7.009   224.5021 1.5205e-01    10.7707      3.705      5.374    14.4832   999.2124 0.0000e+00
      3.806      0.087     5.8683     82.007     40.665  32.109021     2.6558      7.009   224.4128 1.4460e-01    10.8107      3.733      5.413    14.4827   999.2126 0.0000e+00
      3.833      0.088     5.8634     81.977     40.690  32.127377     2.6172      7.009   224.3005 1.4070e-01    10.8257      3.760      5.453    14.4812   999.2129 0.0000e+00
      3.858      0.084     5.8580     81.963     40.682  32.120673     2.5594      7.009   224.2626 1.3365e-01    10.7886      3.784      5.489    14.4786   999.2134 0.0000e+00
      3.878      0.077     5.8549     81.963     40.647  32.091422     2.5389      7.009   224.2981 1.2825e-01    10.7880      3.804      5.518    14.4770   999.2138 0.0000e+00
      3.895      0.070     5.8514     81.976     40.647  32.090998     2.5427      7.008   224.3007 1.2946e-01    10.8184      3.820      5.541    14.4764   999.2139 0.0000e+00
      3.910      0.065     5.8496     82.016     40.678  32.115548     2.5522      7.008   224.2944 1.3086e-01    10.7956      3.834      5.562    14.4757   999.2141 0.0000e+00
      3.924      0.064     5.8484     82.083     40.702  32.134415     2.5671      7.009   224.3938 1.2910e-01    10.7750      3.848      5.581    14.4743   999.2144 0.0000e+00
      3.938      0.064     5.8493     82.146     40.696  32.128739     2.5760      7.010   224.5554 1.2730e-01    10.7986      3.861      5.599    14.4725   999.2147 0.0000e+00
      3.954      0.065     5.8496     82.173     40.674  32.110382     2.5904      7.011   224.7006 1.2695e-01    10.8186      3.876      5.621    14.4718   999.2148 0.0000e+00
      3.973      0.065     5.8522     82.165     40.665  32.102846     2.6373      7.011   224.6868 1.2538e-01    10.6231      3.897      5.651    14.4720   999.2149 0.0000e+00
      3.992      0.065     5.8579     82.136     40.662  32.101077     2.7183      7.011   224.4738 1.2386e-01    10.2047      3.916      5.679    14.4718   999.2150 0.0000e+00
      4.009      0.063     5.8639     82.097     40.647  32.088991     2.7723      7.011   224.3623 1.2376e-01     9.9548      3.931      5.702    14.4702   999.2153 0.0000e+00
      4.024      0.060     5.8657     82.066     40.641  32.083637     2.7877      7.011   224.5433 1.2377e-01     9.9283      3.948      5.726    14.4695   999.2155 0.0000e+00
      4.039      0.056     5.8643     82.049     40.662  32.099800     2.8352      7.012   224.7696 1.2377e-01     9.9821      3.962      5.746    14.4693   999.2156 0.0000e+00
      4.051      0.054     5.8627     82.038     40.654  32.094031     2.9128      7.014   224.7745 1.2371e-01    10.0812      3.972      5.761    14.4688   999.2157 0.0000e+00
      4.064      0.053     5.8588     82.036     40.633  32.077343     2.9456      7.015   224.7754 1.2368e-01    10.1103      3.986      5.781    14.4686   999.2158 0.0000e+00
      4.078      0.053     5.8569     82.080     40.646  32.088417     2.9449      7.015   224.8669 1.2373e-01    10.1368      3.999      5.800    14.4687   999.2159 0.0000e+00
      4.091      0.054     5.8556     82.166     40.662  32.101004     2.9481      7.015   224.9337 1.2379e-01    10.2063      4.012      5.820    14.4686   999.2160 0.0000e+00
      4.105      0.054     5.8556     82.237     40.664  32.102613     2.8898      7.015   224.9815 1.2383e-01    10.3929      4.025      5.839    14.4682   999.2161 0.0000e+00
      4.119      0.054     5.8534     82.274     40.670  32.107865     2.7764      7.015   224.9286 1.2382e-01    10.7547      4.039      5.858    14.4687   999.2160 0.0000e+00
      4.134      0.053     5.8562     82.289     40.662  32.101048     2.7224      7.015   224.8096 1.2379e-01    10.9753      4.054      5.878    14.4693   999.2160 0.0000e+00
      4.149      0.050     5.8651     82.288     40.640  32.083648     2.7216      7.015   224.8338 1.2377e-01    10.9958      4.069      5.901    14.4697   999.2160 0.0000e+00
      4.162      0.046     5.8702     82.294     40.646  32.087857     2.7056      7.015   224.9625 1.2375e-01    10.8389      4.082      5.921    14.4701   999.2161 0.0000e+00
      4.172      0.045     5.8719     82.315     40.646  32.088482     2.6681      7.015   225.0753 1.2373e-01    10.5201      4.091      5.935    14.4702   999.2161 0.0000e+00
      4.182      0.045     5.8738     82.342     40.650  32.091205     2.6510      7.015   225.1657 1.2369e-01    10.3536      4.102      5.949    14.4701   999.2162 0.0000e+00
      4.190      0.046     5.8723     82.388     40.688  32.120777     2.6621      7.015   224.8506 1.2366e-01    10.3656      4.109      5.959    14.4697   999.2162 0.0000e+00
      4.199      0.049     5.8725     82.451     40.698  32.128738     2.6810      7.015   224.3632 1.2368e-01    10.5999      4.115      5.969    14.4695   999.2163 0.0000e+00
      4.214      0.052     5.8754     82.514     40.692  32.124002     2.7061      7.015   224.3491 1.2373e-01    11.0239      4.132      5.993    14.4694   999.2164 0.0000e+00
      4.232      0.054     5.8755     82.549     40.697  32.126962     2.7140      7.015   224.5933 1.2376e-01    11.2314      4.151      6.021    14.4689   999.2165 0.0000e+00
      4.248      0.054     5.8798     82.541     40.665  32.101077     2.7155      7.014   224.8210 1.2378e-01    11.2406      4.167      6.044    14.4687   999.2167 0.0000e+00
      4.261      0.053     5.8842     82.524     40.620  32.064867     2.8204      7.014   224.9513 1.2382e-01    11.1027      4.179      6.062    14.4687   999.2167 0.0000e+00
      4.273      0.052     5.8898     82.513     40.626  32.069908     3.0204      7.014   224.6196 1.2378e-01    10.7759      4.191      6.078    14.4686   999.2168 0.0000e+00
      4.285      0.051     5.8935     82.494     40.664  32.098553     3.1299      7.014   223.9083 1.2370e-01    10.5666      4.203      6.096    14.4677   999.2170 0.0000e+00
      4.297      0.051     5.8911     82.471     40.659  32.093919     3.1310      7.014   223.5785 1.2370e-01    10.5382      4.213      6.111    14.4665   999.2172 0.0000e+00
      4.311      0.051     5.8897     82.457     40.639  32.077340     3.1293      7.014   223.7291 1.2372e-01    10.5647      4.226      6.130    14.4663   999.2173 0.0000e+00
      4.326      0.050     5.8898     82.458     40.653  32.088471     3.1435      7.015   223.9220 1.2376e-01    10.6241      4.242      6.153    14.4664   999.2173 0.0000e+00
      4.340      0.048     5.8881     82.461     40.669  32.101589     3.1470      7.015   224.0185 1.2384e-01    10.6338      4.257      6.175    14.4649   999.2176 0.0000e+00
      4.352      0.045     5.8865     82.444     40.679  32.109023     3.1368      7.014   223.9493 1.2390e-01    10.5833      4.270      6.193    14.4631   999.2180 0.0000e+00
      4.362      0.041     5.8852     82.398     40.686  32.114896     3.1328      7.014   223.6876 1.2385e-01    10.5378      4.278      6.205    14.4626   999.2180 0.0000e+00
      4.371      0.037     5.8859     82.349     40.678  32.109137     3.1239      7.013   223.5209 1.2376e-01    10.4446      4.286      6.217    14.4627   999.2181 0.0000e+00
      4.380      0.035     5.8865     82.310     40.670  32.102849     3.0981      7.013   223.5694 1.2372e-01    10.2756      4.297      6.232    14.4630   999.2181 0.0000e+00
      4.388      0.034     5.8859     82.263     40.669  32.102329     3.0732      7.014   223.5852 1.2372e-01    10.1334      4.304      6.243    14.4632   999.2181 0.0000e+00
      4.396      0.034     5.8815     82.209     40.670  32.102860     3.0659      7.014   223.5403 1.2371e-01    10.1011      4.310      6.251    14.4636   999.2181 0.0000e+00
      4.405      0.034     5.8770     82.165     40.679  32.109262     3.0870      7.013   223.8005 1.2381e-01    10.3442      4.319      6.265    14.4640   999.2181 0.0000e+00
      4.414      0.035     5.8759     82.164     40.688  32.116279     3.1202      7.013   224.1500 1.2394e-01    10.7787      4.330      6.280    14.4640   999.2181 0.0000e+00
      4.423      0.037     5.8717     82.202     40.698  32.124242     3.1382      7.014   224.0659 1.2390e-01    10.9960      4.338      6.291    14.4639   999.2181 0.0000e+00
      4.432      0.039     5.8679     82.241     40.720  32.142080     3.1401      7.015   223.9890 1.2379e-01    11.0059      4.345      6.303    14.4636   999.2182 0.0000e+00
      4.443      0.039     5.8636     82.272     40.720  32.141570     3.0740      7.015   223.9947 1.2369e-01    11.0611      4.357      6.319    14.4631   999.2183 0.0000e+00
      4.455      0.038     5.8632     82.307     40.690  32.118078     2.9548      7.014   223.7899 1.2367e-01    11.1720      4.368      6.336    14.4631   999.2184 0.0000e+00
      4.465      0.037     5.8683     82.348     40.683  32.111883     2.9030      7.013   224.0081 1.2369e-01    11.2330      4.379      6.351    14.4634   999.2184 0.0000e+00
      4.474      0.037     5.8702     82.374     40.707  32.130125     2.9080      7.012   224.7404 1.2369e-01    11.2408      4.389      6.364    14.4637   999.2184 0.0000e+00
      4.482      0.037     5.8725     82.348     40.732  32.148265     2.8765      7.013   225.1584 1.2371e-01    11.1354      4.395      6.375    14.4636   999.2185 0.0000e+00
      4.490      0.037     5.8746     82.276     40.726  32.140822     2.8079      7.013   225.2766 1.2375e-01    10.9093      4.402      6.384    14.4631   999.2186 0.0000e+00
      4.499      0.037     5.8781     82.200     40.682  32.103589     2.7729      7.013   225.2227 1.2379e-01    10.8004      4.411      6.397    14.4624   999.2187 0.0000e+00
      4.510      0.038     5.8820     82.148     40.653  32.078839     2.7822      7.012   224.8510 1.2379e-01    10.8677      4.423      6.414    14.4615   999.2189 0.0000e+00
      4.521      0.040     5.8796     82.102     40.675  32.095418     2.8594      7.010   224.8267 1.2378e-01    11.0674      4.435      6.432    14.4601   999.2192 0.0000e+00
      4.531      0.042     5.8739     82.047     40.699  32.113662     2.9948      7.010   225.3582 1.2378e-01    11.3139      4.445      6.446    14.4568   999.2197 0.0000e+00
      4.541      0.043     5.8675     81.993     40.693  32.109037     3.0669      7.010   225.7709 1.2377e-01    11.4239      4.452      6.457    14.4529   999.2203 0.0000e+00
      4.551      0.044     5.8653     81.949     40.685  32.102965     3.0814      7.009   225.8585 1.2371e-01    11.4470      4.461      6.472    14.4504   999.2207 0.0000e+00
      4.563      0.045     5.8627     81.939     40.686  32.103704     3.0925      7.007   225.8154 1.2368e-01    11.4618      4.475      6.491    14.4492   999.2209 0.0000e+00
      4.575      0.047     5.8579     81.966     40.703  32.117966     3.1141      7.006   225.6805 1.2374e-01    11.2755      4.486      6.507    14.4490   999.2210 0.0000e+00
      4.588      0.049     5.8545     82.007     40.742  32.148494     3.1602      7.006   225.4329 1.2380e-01    10.9315      4.498      6.526    14.4494   999.2210 0.0000e+00
      4.600      0.050     5.8502     82.053     40.752  32.155512     3.1904      7.006   225.3169 1.2384e-01    10.7757      4.511      6.544    14.4497   999.2210 0.0000e+00
      4.613      0.050     5.8492     82.098     40.732  32.139360     3.2016      7.006   225.4814 1.2381e-01    10.7691      4.523      6.560    14.4501   999.2210 0.0000e+00
      4.626      0.049     5.8523     82.140     40.738  32.143579     3.2179      7.005   225.7012 1.2374e-01    10.6218      4.537      6.579    14.4506   999.2210 0.0000e+00
      4.639      0.047     5.8549     82.188     40.738  32.143069     3.2228      7.003   225.8239 1.2372e-01    10.3383      4.549      6.598    14.4507   999.2211 0.0000e+00
      4.651      0.045     5.8587     82.222     40.726  32.133185     3.2085      7.002   225.7603 1.2374e-01    10.1598      4.561      6.616    14.4501   999.2212 0.0000e+00
      4.663      0.042     5.8623     82.234     40.749  32.151003     3.2015      7.002   225.2758 1.2376e-01    10.1353      4.573      6.633    14.4489   999.2214 0.0000e+00
      4.673      0.040     5.8644     82.236     40.771  32.168120     3.2248      7.002   224.5264 1.2376e-01    10.2058      4.583      6.647    14.4478   999.2217 0.0000e+00
      4.682      0.038     5.8691     82.219     40.747  32.149765     3.2568      7.002   224.2709 1.2383e-01    10.3230      4.592      6.659    14.4472   999.2218 0.0000e+00
      4.690      0.038     5.8720     82.197     40.709  32.119445     3.2667      7.003   224.5949 1.2385e-01    10.3403      4.600      6.672    14.4468   999.2218 0.0000e+00
      4.698      0.039     5.8713     82.175     40.708  32.118830     3.2580      7.003   225.0027 1.2379e-01    10.2848      4.607      6.682    14.4467   999.2219 0.0000e+00
      4.708      0.042     5.8730     82.134     40.738  32.142322     3.1779      7.002   225.2435 1.2376e-01    10.2416      4.616      6.695    14.4468   999.2220 0.0000e+00
      4.719      0.045     5.8710     82.096     40.747  32.149641     3.0351      7.001   225.0119 1.2375e-01    10.1776      4.628      6.713    14.4467   999.2220 0.0000e+00
      4.732      0.047     5.8687     82.085     40.739  32.143862     2.9620      7.001   224.5252 1.2373e-01    10.1340      4.640      6.731    14.4463   999.2221 0.0000e+00
      4.746      0.049     5.8691     82.081     40.729  32.135912     2.9530      7.001   224.4358 1.2370e-01    10.1401      4.654      6.751    14.4465   999.2222 0.0000e+00
      4.759      0.049     5.8645     82.069     40.705  32.116980     2.9347      7.000   224.6186 1.2374e-01    10.2513      4.667      6.770    14.4469   999.2222 0.0000e+00
      4.771      0.048     5.8609     82.072     40.690  32.105340     2.9140      6.999   224.7567 1.2377e-01    10.4632      4.678      6.785    14.4470   999.2222 0.0000e+00
      4.783      0.047     5.8610     82.101     40.711  32.122086     2.9022      6.998   224.9013 1.2372e-01    10.5718      4.691      6.803    14.4470   999.2222 0.0000e+00
      4.795      0.046     5.8617     82.134     40.801  32.192545     2.8962      6.998   225.0768 1.2374e-01    10.5483      4.704      6.822    14.4473   999.2223 0.0000e+00
      4.806      0.045     5.8593     82.150     41.048  32.386110     2.9019      6.999   225.1577 1.2379e-01    10.5072      4.713      6.837    14.4478   999.2222 0.0000e+00
      4.817      0.043     5.8592     82.155     41.514  32.749009     2.9625      6.999   225.0182 1.2385e-01    10.3038      4.724      6.852    14.4480   999.2223 0.0000e+00
      4.829      0.041     5.8622     82.155     42.446  33.470694     3.0653      6.998   224.8532 1.2390e-01     9.9244      4.735      6.868    14.4481   999.2223 0.0000e+00
      4.839      0.041     5.8651     82.126     44.043  34.702030     3.1308      6.997   224.7969 1.2384e-01     9.6884      4.746      6.884    14.4478   999.2224 0.0000e+00
      4.849      0.042     5.8664     82.054     45.774  36.022485     3.1566      6.996   224.7675 1.2374e-01     9.6459      4.756      6.898    14.4471   999.2226 0.0000e+00
      4.858      0.043     5.8661     81.908     47.073  36.996059     3.2286      6.995   224.8423 1.2371e-01     9.8693      4.763      6.909    14.4431   999.2235 0.0000e+00
      4.868      0.046     5.8696     81.600     47.881  37.587085     3.3599      6.994   225.0992 1.2373e-01    10.3243      4.772      6.922    14.4301   999.2255 0.0000e+00
      4.881      0.048     5.8710     81.028     48.327  37.899973     3.4350      6.994   225.2927 1.2374e-01    10.5928      4.786      6.942    14.4006   999.2304 0.0000e+00
      4.895      0.049     5.8727     80.060     48.719  38.176535     3.4346      6.994   225.2888 1.2375e-01    10.6253      4.801      6.963    14.3483   999.2387 0.0000e+00
      4.909      0.050     5.8730     78.590     49.186  38.518730     3.3551      6.993   225.3106 1.2373e-01    10.6516      4.814      6.982    14.2905   999.2474 0.0000e+00
      4.922      0.050     5.8582     76.569     49.571  38.799922     3.2121      6.990   225.4695 1.2365e-01    10.7471      4.828      7.001    14.2445   999.2543 0.0000e+00
      4.934      0.049     5.8267     74.097     49.817  38.973668     3.1352      6.986   225.5757 1.2362e-01    10.8301      4.839      7.018    14.2067   999.2598 0.0000e+00
      4.946      0.047     5.7631     71.440     49.912  39.032413     3.1267      6.982   225.5625 1.2362e-01    10.8683      4.850      7.034    14.1747   999.2645 0.0000e+00
      4.957      0.047     5.6622     68.832     49.890  39.002328     3.0762      6.977   225.5677 1.2364e-01    10.9141      4.861      7.050    14.1515   999.2680 0.0000e+00
      4.969      0.046     5.5183     66.432     49.887  38.990796     2.9664      6.971   225.5525 1.2371e-01    10.9574      4.873      7.067    14.1325   999.2708 0.0000e+00
      4.981      0.045     5.3331     64.355     49.933  39.019941     2.9000      6.964   225.5505 1.2376e-01    10.9984      4.885      7.085    14.1125   999.2738 0.0000e+00
      4.993      0.043     5.1388     62.643     50.043  39.100780     2.8890      6.957   225.5441 1.2380e-01    11.0174      4.897      7.102    14.0959   999.2762 0.0000e+00
      5.005      0.040     4.9487     61.278     50.266  39.269905     2.8419      6.952   225.3896 1.2380e-01    10.7939      4.910      7.119    14.0840   999.2779 0.0000e+00
      5.015      0.037     4.7735     60.235     50.623  39.541227     2.7640      6.945   225.3166 1.2376e-01    10.3602      4.919      7.134    14.0753   999.2792 0.0000e+00
      5.024      0.035     4.6237     59.460     51.184  39.968927     2.7275      6.938   225.4349 1.2379e-01    10.1325      4.926      7.145    14.0686   999.2801 0.0000e+00
      5.031      0.033     4.5021     58.836     51.807  40.441650     2.7215      6.932   225.5303 1.2385e-01    10.1379      4.934      7.156    14.0634   999.2809 0.0000e+00
      5.038      0.033     4.4045     58.279     52.127  40.685899     2.7174      6.926   225.6095 1.2381e-01    10.1309      4.940      7.165    14.0590   999.2816 0.0000e+00
      5.045      0.034     4.3307     57.803     52.133  40.700098     2.7299      6.919   225.7041 1.2375e-01    10.1131      4.947      7.175    14.0532   999.2826 0.0000e+00
      5.055      0.036     4.2797     57.442     52.329  40.867291     2.7336      6.911   225.7286 1.2380e-01    10.1841      4.957      7.190    14.0426   999.2844 0.0000e+00
      5.064      0.039     4.2393     57.152     53.059  41.437653     2.7194      6.904   225.6473 1.2383e-01    10.3017      4.967      7.204    14.0261   999.2869 0.0000e+00
      5.074      0.041     4.1988     56.827     53.897  42.072734     2.7229      6.898   225.4946 1.2387e-01    10.3879      4.975      7.217    14.0152   999.2886 0.0000e+00
      5.085      0.042     4.1617     56.397     54.582  42.577899     2.7749      6.892   225.6026 1.2393e-01    10.4722      4.987      7.233    14.0288   999.2867 0.0000e+00
      5.098      0.043     4.1349     55.867     55.373  43.164550     2.8542      6.885   226.0076 1.2388e-01    10.5671      5.000      7.252    14.0513   999.2836 0.0000e+00
      5.109      0.044     4.1171     55.249     56.115  43.705328     2.8936      6.878   226.2613 1.2381e-01    10.5849      5.011      7.268    14.0521   999.2838 0.0000e+00
      5.119      0.046     4.0980     54.511     56.607  44.036715     2.9039      6.872   226.2608 1.2380e-01    10.5568      5.020      7.281    14.0317   999.2871 0.0000e+00
      5.129      0.047     4.0690     53.618     56.950  44.250401     2.9877      6.864   226.2595 1.2380e-01    10.5873      5.029      7.294    13.9988   999.2919 0.0000e+00
      5.141      0.047     4.0321     52.552     57.176  44.383982     3.1259      6.856   226.5910 1.2381e-01    10.6264      5.042      7.313    13.9744   999.2957 0.0000e+00
      5.155      0.047     3.9916     51.353     57.292  44.445307     3.1888      6.850   227.0848 1.2380e-01    10.6360      5.055      7.334    13.9467   999.2998 0.0000e+00
      5.169      0.047     3.9435     50.131     57.367  44.483860     3.1925      6.843   227.3264 1.2376e-01    10.6380      5.069      7.352    13.8936   999.3074 0.0000e+00
      5.182      0.046     3.8838     48.957     57.450  44.532600     3.1972      6.835   227.3606 1.2377e-01    10.6838      5.084      7.374    13.8422   999.3146 0.0000e+00
      5.192      0.044     3.8098     47.869     57.542  44.590102     3.2027      6.827   227.3266 1.2382e-01    10.7969      5.092      7.386    13.8062   999.3196 0.0000e+00
      5.202      0.042     3.7202     46.889     57.663  44.671103     3.2062      6.820   227.3447 1.2384e-01    10.8580      5.099      7.396    13.7815   999.3231 0.0000e+00
      5.213      0.041     3.6320     46.037     57.779  44.749962     3.1873      6.814   227.4069 1.2381e-01    10.8327      5.112      7.414    13.7667   999.3251 0.0000e+00
      5.223      0.039     3.5469     45.397     57.833  44.781567     3.0174      6.808   227.3905 1.2377e-01    10.8193      5.123      7.429    13.7545   999.3269 0.0000e+00
      5.234      0.039     3.4679     45.002     57.866  44.799219     2.7127      6.802   227.4045 1.2369e-01    10.8269      5.132      7.443    13.7418   999.3287 0.0000e+00
      5.244      0.039     3.3990     44.794     57.923  44.836388     2.5465      6.797   227.5765 1.2362e-01    10.8255      5.144      7.460    13.7311   999.3302 0.0000e+00
      5.253      0.039     3.3338     44.716     58.031  44.913463     2.5337      6.791   227.5778 1.2368e-01    10.8351      5.153      7.473    13.7218   999.3316 0.0000e+00
      5.261      0.040     3.2869     44.718     58.193  45.032605     2.5320      6.784   227.6782 1.2379e-01    10.8449      5.159      7.482    13.7126   999.3329 0.0000e+00
      5.271      0.041     3.2618     44.784     58.332  45.133907     2.4820      6.779   228.5327 1.2382e-01    10.8789      5.169      7.497    13.7054   999.3339 0.0000e+00
      5.282      0.042     3.2475     44.923     58.405  45.185763     2.3894      6.773   229.4774 1.2377e-01    10.9514      5.180      7.513    13.7001   999.3347 0.0000e+00
      5.293      0.043     3.2444     45.090     58.447  45.215086     2.3395      6.768   229.8083 1.2375e-01    11.0005      5.191      7.528    13.6943   999.3356 0.0000e+00
      5.306      0.043     3.2452     45.237     58.475  45.234435     2.3296      6.763   229.5218 1.2373e-01    11.0463      5.204      7.547    13.6889   999.3364 0.0000e+00
      5.318      0.043     3.2490     45.334     58.473  45.229198     2.2434      6.759   229.1110 1.2368e-01    11.1769      5.215      7.564    13.6836   999.3372 0.0000e+00
      5.328      0.042     3.2618     45.388     58.460  45.215270     2.0783      6.754   229.2286 1.2366e-01    11.3671      5.225      7.578    13.6788   999.3380 0.0000e+00
      5.339      0.041     3.2746     45.437     58.517  45.256540     1.9893      6.749   229.7397 1.2366e-01    11.4782      5.236      7.594    13.6765   999.3383 0.0000e+00
      5.349      0.039     3.2866     45.492     58.637  45.347171     1.9906      6.745   230.1282 1.2368e-01    11.5037      5.246      7.609    13.6752   999.3386 0.0000e+00
      5.358      0.038     3.2939     45.539     58.738  45.422054     2.0680      6.742   229.9681 1.2372e-01    11.4466      5.254      7.620    13.6731   999.3389 0.0000e+00
      5.367      0.038     3.2962     45.559     58.798  45.463410     2.2052      6.739   229.4384 1.2377e-01    11.3456      5.264      7.633    13.6689   999.3395 0.0000e+00
      5.377      0.039     3.3002     45.581     58.808  45.466190     2.2710      6.735   229.0588 1.2381e-01    11.2974      5.274      7.649    13.6657   999.3400 0.0000e+00
      5.386      0.040     3.3044     45.659     58.799  45.455661     2.2663      6.731   228.8203 1.2382e-01    11.2573      5.282      7.661    13.6649   999.3401 0.0000e+00
      5.396      0.043     3.3090     45.760     58.811  45.463099     2.2085      6.726   228.6192 1.2378e-01    11.2874      5.291      7.674    13.6616   999.3407 0.0000e+00
      5.407      0.045     3.3103     45.804     58.768  45.429114     2.1018      6.722   228.5200 1.2375e-01    11.3991      5.303      7.691    13.6568   999.3414 0.0000e+00
      5.420      0.046     3.3094     45.797     58.679  45.362263     2.0421      6.718   228.4810 1.2378e-01    11.4608      5.316      7.709    13.6527   999.3420 0.0000e+00
      5.432      0.047     3.3164     45.786     58.663  45.353330     2.0333      6.714   228.4927 1.2377e-01    11.4760      5.327      7.726    13.6497   999.3425 0.0000e+00
      5.445      0.047     3.3276     45.763     58.699  45.384609     2.0041      6.709   228.6612 1.2372e-01    11.5173      5.340      7.745    13.6477   999.3428 0.0000e+00
      5.457      0.046     3.3301     45.706     58.747  45.422949     1.9491      6.704   229.3139 1.2370e-01    11.6002      5.352      7.762    13.6470   999.3430 0.0000e+00
      5.469      0.045     3.3271     45.628     58.766  45.435891     1.9144      6.701   230.1898 1.2373e-01    11.6913      5.363      7.779    13.6485   999.3427 0.0000e+00
      5.480      0.044     3.3270     45.562     58.742  45.414080     1.9144      6.699   230.6465 1.2379e-01    11.7336      5.374      7.794    13.6519   999.3424 0.0000e+00
      5.491      0.041     3.3260     45.541     58.744  45.413241     1.9143      6.696   230.7925 1.2383e-01    11.7185      5.384      7.809    13.6559   999.3419 0.0000e+00
      5.502      0.039     3.3209     45.553     58.763  45.425742     1.7656      6.693   230.8369 1.2380e-01    11.7054      5.395      7.825    13.6574   999.3417 0.0000e+00
      5.512      0.036     3.3149     45.555     58.779  45.438225     1.4766      6.691   231.2699 1.2377e-01    11.7065      5.406      7.841    13.6553   999.3421 0.0000e+00
      5.521      0.033     3.3090     45.553     58.778  45.437167     1.3171      6.688   232.4130 1.2381e-01    11.6987      5.414      7.852    13.6522   999.3425 0.0000e+00
      5.528      0.029     3.3077     45.575     58.748  45.412948     1.3020      6.684   233.9899 1.2384e-01    11.7099      5.421      7.862    13.6500   999.3429 0.0000e+00
      5.536      0.026     3.3108     45.594     58.731  45.399407     1.2768      6.681   235.3653 1.2379e-01    11.8415      5.429      7.874    13.6487   999.3431 0.0000e+00
      5.542      0.025     3.3107     45.584     58.732  45.400447     1.2199      6.678   235.9640 1.2371e-01    12.0441      5.435      7.884    13.6481   999.3432 0.0000e+00
      5.545      0.025     3.3087     45.556     58.764  45.425515     1.1778      6.676   236.7545 1.2373e-01    12.1280      5.438      7.887    13.6477   999.3433 0.0000e+00
      5.550      0.025     3.3119     45.521     58.794  45.448492     1.1660      6.674   238.3844 1.2377e-01    12.1352      5.440      7.890    13.6474   999.3433 0.0000e+00
      5.558      0.028     3.3145     45.503     58.763  45.424256     1.1210      6.672   239.8399 1.2374e-01    12.2946      5.450      7.906    13.6473   999.3434 0.0000e+00
      5.566      0.033     3.3123     45.510     58.714  45.386489     1.0411      6.670   240.4150 1.2373e-01    12.5806      5.460      7.920    13.6473   999.3434 0.0000e+00
      5.573      0.039     3.3110     45.515     58.697  45.372861     0.9974      6.668   240.5190 1.2378e-01    12.7751      5.465      7.925    13.6471   999.3434 0.0000e+00
      5.581      0.045     3.3071     45.506     58.715  45.386488     0.9834      6.665   240.5816 1.2381e-01    12.8764      5.471      7.935    13.6470   999.3435 0.0000e+00
      5.594      0.051     3.3056     45.508     58.765  45.424247     0.8886      6.662   240.7413 1.2376e-01    13.2155      5.484      7.954    13.6471   999.3436 0.0000e+00
      5.611      0.057     3.3071     45.524     58.796  45.448386     0.7100      6.659   241.2461 1.2374e-01    13.8272      5.502      7.981    13.6470   999.3436 0.0000e+00
      5.628      0.061     3.3081     45.530     58.764  45.424349     0.6098      6.657   241.9531 1.2381e-01    14.1764      5.520      8.005    13.6467   999.3437 0.0000e+00
      5.644      0.062     3.3064     45.552     58.715  45.387623     0.6038      6.654   242.4923 1.2381e-01    14.2262      5.533      8.024    13.6465   999.3438 0.0000e+00
      5.661      0.061     3.3058     45.607     58.711  45.385344     0.6031      6.651   242.4312 1.2372e-01    14.3966      5.552      8.052    13.6463   999.3440 0.0000e+00
      5.678      0.059     3.3093     45.613     58.726  45.396795     0.6017      6.648   242.0733 1.2366e-01    14.6639      5.570      8.079    13.6462   999.3441 0.0000e+00
      5.690      0.058     3.3080     45.548     58.730  45.399076     0.6041      6.646   242.2952 1.2361e-01    14.8043      5.580      8.093    13.6467   999.3441 0.0000e+00
      5.702      0.058     3.3081     45.507     58.748  45.412920     0.5973      6.643   242.7921 1.2362e-01    14.8808      5.591      8.109    13.6479   999.3439 0.0000e+00
      5.717      0.058     3.3154     45.462     58.779  45.437184     0.5628      6.640   242.8323 1.2367e-01    15.2282      5.606      8.131    13.6486   999.3439 0.0000e+00
      5.732      0.058     3.3185     45.395     58.780  45.438436     0.5081      6.636   242.5234 1.2369e-01    15.8258      5.620      8.151    13.6480   999.3441 0.0000e+00
      5.748      0.058     3.3067     45.360     58.766  45.428054     0.4734      6.634   242.3266 1.2370e-01    16.1423      5.635      8.173    13.6476   999.3442 0.0000e+00
      5.766      0.057     3.3070     45.306     58.781  45.438664     0.4724      6.633   242.4320 1.2377e-01    16.1713      5.655      8.202    13.6477   999.3443 0.0000e+00
      5.782      0.055     3.3064     45.292     58.782  45.439715     0.4790      6.631   242.7652 1.2383e-01    16.2084      5.671      8.226    13.6479   999.3443 0.0000e+00
      5.793      0.051     3.2940     45.342     58.784  45.440759     0.4665      6.628   243.0860 1.2379e-01    16.1977      5.681      8.239    13.6481   999.3444 0.0000e+00
      5.805      0.050     3.3000     45.379     58.799  45.451274     0.4343      6.626   243.2993 1.2377e-01    16.1400      5.692      8.255    13.6481   999.3444 0.0000e+00
      5.817      0.055     3.2897     45.404     58.785  45.439850     0.4102      6.621   243.5365 1.2377e-01    16.1333      5.706      8.275    13.6480   999.3445 0.0000e+00
      5.827      0.065     3.2881     45.444     58.773  45.429641     0.4087      6.616   243.6315 1.2374e-01    16.1827      5.714      8.287    13.6476   999.3446 0.0000e+00
      5.837      0.076     3.2968     45.482     58.807  45.454831     0.4080      6.612   243.5874 1.2372e-01    16.2127      5.720      8.296    13.6473   999.3446 0.0000e+00
      5.859      0.085     3.2974     45.498     58.854  45.490415     0.4019      6.609   243.7776 1.2372e-01    16.2009      5.741      8.326    13.6468   999.3448 0.0000e+00
      5.892      0.090     3.2990     45.520     58.839  45.478870     0.4034      6.606   244.0389 1.2371e-01    16.2047      5.778      8.381    13.6461   999.3451 0.0000e+00
      5.925      0.091     3.3015     45.499     58.791  45.442246     0.4096      6.603   244.0790 1.2366e-01    16.2255      5.815      8.434    13.6451   999.3454 0.0000e+00
      5.949      0.086     3.3077     45.454     58.772  45.428610     0.4163      6.600   244.0050 1.2366e-01    16.2225      5.838      8.467    13.6444   999.3456 0.0000e+00
      5.966      0.076     3.3035     45.431     58.786  45.440998     0.4240      6.599   243.9180 1.2372e-01    16.2342      5.849      8.485    13.6439   999.3458 0.0000e+00
      5.982      0.065     3.3111     45.407     58.816  45.465025     0.4325      6.597   244.0598 1.2377e-01    16.2359      5.867      8.509    13.6431   999.3459 0.0000e+00
      5.996      0.055     3.3069     45.388     58.815  45.465117     0.4329      6.595   244.4284 1.2383e-01    16.1778      5.882      8.530    13.6432   999.3460 0.0000e+00
      6.007      0.050     3.3013     45.388     58.786  45.442122     0.4376      6.595   244.5884 1.2387e-01    16.2208      5.889      8.541    13.6448   999.3458 0.0000e+00
      6.019      0.046     3.3025     45.415     58.786  45.440987     0.4626      6.594   244.5327 1.2386e-01    16.3613      5.903      8.561    13.6462   999.3457 0.0000e+00
      6.032      0.043     3.2989     45.468     58.801  45.451389     0.4752      6.592   244.5293 1.2379e-01    16.4019      5.917      8.583    13.6474   999.3456 0.0000e+00
      6.042      0.039     3.2978     45.518     58.788  45.440885     0.4686      6.592   244.6333 1.2375e-01    16.3845      5.926      8.595    13.6482   999.3455 0.0000e+00
      6.051      0.038     3.2973     45.527     58.788  45.440999     0.4521      6.591   244.8435 1.2381e-01    16.3796      5.933      8.606    13.6478   999.3456 0.0000e+00
      6.061      0.039     3.2995     45.509     58.802  45.452763     0.4235      6.589   245.0919 1.2381e-01    16.3760      5.945      8.622    13.6467   999.3458 0.0000e+00
      6.068      0.042     3.3036     45.476     58.806  45.456113     0.4082      6.586   245.2273 1.2368e-01    16.3736      5.953      8.633    13.6452   999.3460 0.0000e+00
      6.075      0.047     3.3098     45.442     58.839  45.481504     0.4152      6.583   245.1902 1.2367e-01    16.3506      5.955      8.636    13.6446   999.3461 0.0000e+00
      6.088      0.053     3.3084     45.435     58.870  45.505759     0.4216      6.582   245.1595 1.2376e-01    16.3605      5.966      8.654    13.6448   999.3461 0.0000e+00
      6.107      0.059     3.3076     45.435     58.858  45.495368     0.3992      6.581   245.2865 1.2378e-01    16.4599      5.990      8.689    13.6453   999.3462 0.0000e+00
      6.124      0.065     3.3051     45.426     58.843  45.482869     0.3611      6.580   245.4345 1.2377e-01    16.6015      6.008      8.713    13.6459   999.3462 0.0000e+00
      6.139      0.068     3.3004     45.421     58.843  45.481629     0.3496      6.577   245.4867 1.2375e-01    16.6975      6.019      8.728    13.6460   999.3462 0.0000e+00
      6.158      0.067     3.3018     45.432     58.842  45.480381     0.3644      6.575   245.4019 1.2373e-01    16.7021      6.038      8.757    13.6459   999.3464 0.0000e+00
      6.179      0.063     3.3020     45.446     58.826  45.467777     0.3764      6.574   245.2698 1.2373e-01    16.6249      6.061      8.791    13.6452   999.3466 0.0000e+00
      6.196      0.059     3.3009     45.439     58.811  45.456239     0.3726      6.573   245.2659 1.2369e-01    16.5173      6.079      8.815    13.6438   999.3468 0.0000e+00
      6.209      0.054     3.3004     45.421     58.826  45.467879     0.3623      6.571   245.3551 1.2365e-01    16.4493      6.090      8.833    13.6428   999.3470 0.0000e+00
      6.220      0.050     3.3010     45.398     58.844  45.481515     0.3561      6.571   245.4886 1.2374e-01    16.4591      6.099      8.847    13.6425   999.3471 0.0000e+00
      6.232      0.047     3.3041     45.377     58.859  45.494101     0.3586      6.571   245.5886 1.2388e-01    16.6359      6.112      8.865    13.6428   999.3471 0.0000e+00
      6.242      0.046     3.3018     45.369     58.858  45.493052     0.3657      6.570   245.6177 1.2390e-01    16.9158      6.121      8.879    13.6429   999.3471 0.0000e+00
      6.251      0.048     3.3012     45.361     58.827  45.468834     0.3645      6.570   245.7545 1.2377e-01    17.0244      6.128      8.888    13.6426   999.3472 0.0000e+00
      6.264      0.053     3.2992     45.345     58.810  45.455294     0.3530      6.568   245.9520 1.2366e-01    16.9663      6.143      8.910    13.6428   999.3472 0.0000e+00
      6.279      0.059     3.2968     45.323     58.811  45.456344     0.3645      6.565   246.0264 1.2368e-01    16.8689      6.160      8.934    13.6433   999.3473 0.0000e+00
      6.292      0.061     3.2973     45.303     58.844  45.481528     0.4090      6.564   246.0521 1.2374e-01    16.7313      6.169      8.946    13.6433   999.3473 0.0000e+00
      6.309      0.060     3.2966     45.298     58.876  45.505774     0.4307      6.563   246.0904 1.2377e-01    16.6464      6.184      8.970    13.6431   999.3474 0.0000e+00
      6.332      0.057     3.2956     45.325     58.862  45.495495     0.4187      6.561   246.1456 1.2372e-01    16.6282      6.213      9.011    13.6430   999.3476 0.0000e+00
      6.351      0.055     3.2937     45.370     58.848  45.484254     0.4120      6.560   246.2892 1.2368e-01    16.6097      6.233      9.040    13.6427   999.3477 0.0000e+00
      6.359      0.055     3.2922     45.411     58.865  45.496859     0.4189      6.559   246.5362 1.2371e-01    16.6518      6.237      9.046    13.6425   999.3477 0.0000e+00
      6.364      0.057     3.2905     45.443     58.897  45.520898     0.4237      6.557   246.7223 1.2375e-01    16.7438      6.239      9.049    13.6425   999.3478 0.0000e+00
      6.373      0.060     3.2936     45.463     58.897  45.520898     0.4269      6.555   246.7337 1.2373e-01    16.7718      6.245      9.059    13.6425   999.3478 0.0000e+00
      6.393      0.063     3.2973     45.471     58.867  45.496860     0.4311      6.553   246.6737 1.2371e-01    16.7289      6.265      9.087    13.6425   999.3479 0.0000e+00
      6.418      0.068     3.3004     45.467     58.851  45.484266     0.4221      6.552   246.6846 1.2376e-01    16.6188      6.295      9.130    13.6423   999.3480 0.0000e+00
      6.441      0.073     3.3029     45.448     58.865  45.495622     0.4138      6.551   246.8653 1.2383e-01    16.4883      6.319      9.165    13.6418   999.3482 0.0000e+00
      6.457      0.076     3.3042     45.406     58.880  45.507160     0.4178      6.549   246.9662 1.2384e-01    16.4620      6.334      9.187    13.6409   999.3484 0.0000e+00
      6.470      0.077     3.3051     45.356     58.867  45.496759     0.4187      6.546   246.8717 1.2380e-01    16.4650      6.342      9.199    13.6403   999.3485 0.0000e+00
      6.486      0.076     3.3043     45.297     58.867  45.496872     0.4154      6.544   246.8417 1.2381e-01    16.5578      6.358      9.221    13.6402   999.3486 0.0000e+00
      6.509      0.074     3.3041     45.226     58.882  45.508523     0.4134      6.542   246.8611 1.2380e-01    16.8298      6.383      9.257    13.6403   999.3487 0.0000e+00
      6.534      0.070     3.2999     45.158     58.885  45.510623     0.4116      6.540   246.7617 1.2373e-01    17.0011      6.409      9.295    13.6408   999.3488 0.0000e+00
      6.557      0.063     3.2963     45.098     58.901  45.522265     0.4108      6.538   246.6727 1.2360e-01    16.9906      6.433      9.330    13.6409   999.3489 0.0000e+00
      6.573      0.055     3.2927     45.043     58.901  45.522284     0.3951      6.538   246.7311 1.2352e-01    16.8987      6.450      9.354    13.6410   999.3489 0.0000e+00
      6.582      0.049     3.2863     44.988     58.886  45.510853     0.3691      6.538   246.8655 1.2362e-01    16.7426      6.457      9.365    13.6408   999.3490 0.0000e+00
      6.585      0.050     3.2820     44.945     58.887  45.511054     0.3560      6.536   247.1794 1.2372e-01    16.6431      6.458      9.366    13.6403   999.3491 0.0000e+00
      6.590      0.060     3.2773     44.921     58.905  45.524709     0.3499      6.531   247.5158 1.2376e-01    16.6466      6.459      9.368    13.6401   999.3491 0.0000e+00
      6.603      0.075     3.2737     44.891     58.937  45.548948     0.3648      6.526   247.5766 1.2373e-01    16.7191      6.471      9.386    13.6401   999.3492 0.0000e+00
      6.626      0.087     3.2694     44.849     58.940  45.550116     0.3979      6.523   247.4843 1.2365e-01    16.8317      6.495      9.420    13.6399   999.3493 0.0000e+00
      6.660      0.095     3.2653     44.820     58.927  45.538841     0.4114      6.523   247.4328 1.2363e-01    16.8940      6.529      9.469    13.6393   999.3495 0.0000e+00
      6.698      0.095     3.2654     44.808     58.928  45.539623     0.4076      6.522   247.4698 1.2368e-01    16.9148      6.571      9.531    13.6389   999.3498 0.0000e+00
      6.728      0.090     3.2630     44.803     58.953  45.559568     0.3943      6.522   247.6739 1.2374e-01    16.9197      6.605      9.579    13.6391   999.3500 0.0000e+00
      6.744      0.080     3.2590     44.816     58.992  45.589485     0.3722      6.522   247.9216 1.2377e-01    16.9198      6.615      9.594    13.6381   999.3501 0.0000e+00
      6.754      0.070     3.2570     44.854     58.986  45.583827     0.3581      6.521   247.8835 1.2379e-01    16.9498      6.621      9.603    13.6367   999.3503 0.0000e+00
      6.768      0.061     3.2568     44.897     58.950  45.554658     0.3536      6.520   247.7294 1.2379e-01    16.9543      6.636      9.624    13.6371   999.3504 0.0000e+00
      6.784      0.057     3.2558     44.940     58.951  45.554316     0.3597      6.520   247.6932 1.2378e-01    16.8754      6.654      9.650    13.6378   999.3503 0.0000e+00
      6.800      0.056     3.2561     44.983     58.985  45.579686     0.3810      6.520   247.8762 1.2377e-01    16.7503      6.670      9.673    13.6370   999.3505 0.0000e+00
      6.815      0.055     3.2604     45.003     59.022  45.607391     0.4035      6.519   248.3073 1.2377e-01    16.6866      6.683      9.692    13.6359   999.3508 0.0000e+00
      6.830      0.056     3.2633     44.985     59.059  45.635295     0.4142      6.516   248.6888 1.2385e-01    16.6620      6.698      9.715    13.6349   999.3510 0.0000e+00
      6.843      0.063     3.2662     44.947     59.095  45.663057     0.4150      6.511   248.8753 1.2390e-01    16.6174      6.712      9.737    13.6341   999.3511 0.0000e+00
      6.853      0.073     3.2704     44.905     59.130  45.689041     0.4126      6.507   248.8424 1.2385e-01    16.6704      6.721      9.747    13.6333   999.3513 0.0000e+00
      6.864      0.080     3.2727     44.848     59.140  45.695456     0.4113      6.504   248.8924 1.2377e-01    16.8121      6.725      9.754    13.6325   999.3514 0.0000e+00
      6.889      0.083     3.2703     44.788     59.119  45.677103     0.4173      6.503   249.2220 1.2374e-01    16.8888      6.748      9.787    13.6322   999.3516 0.0000e+00
      6.927      0.084     3.2669     44.745     59.095  45.657653     0.4243      6.503   249.4727 1.2379e-01    16.8770      6.797      9.857    13.6321   999.3518 0.0000e+00
      6.959      0.084     3.2647     44.689     59.086  45.650792     0.4086      6.502   249.4280 1.2384e-01    16.8330      6.833      9.911    13.6314   999.3521 0.0000e+00
      6.973      0.080     3.2606     44.616     59.094  45.657653     0.3746      6.501   249.1970 1.2380e-01    16.8163      6.841      9.921    13.6295   999.3524 0.0000e+00
      6.981      0.076     3.2546     44.571     59.119  45.677105     0.3519      6.499   249.1758 1.2376e-01    16.8383      6.843      9.925    13.6281   999.3526 0.0000e+00
      6.996      0.075     3.2536     44.537     59.143  45.695472     0.3434      6.497   249.4288 1.2378e-01    16.8696      6.861      9.951    13.6276   999.3527 0.0000e+00
      7.015      0.077     3.2499     44.508     59.136  45.689226     0.3576      6.495   249.5888 1.2378e-01    16.8668      6.880      9.979    13.6279   999.3528 0.0000e+00
      7.036      0.081     3.2416     44.508     59.106  45.665084     0.3935      6.495   249.6479 1.2371e-01    16.8369      6.895     10.002    13.6284   999.3528 0.0000e+00
      7.065      0.083     3.2402     44.523     59.097  45.657580     0.4139      6.495   249.5414 1.2367e-01    16.8366      6.927     10.048    13.6287   999.3529 0.0000e+00
      7.094      0.080     3.2378     44.538     59.102  45.661996     0.4126      6.495   249.1615 1.2377e-01    16.8633      6.962     10.099    13.6286   999.3531 0.0000e+00
      7.113      0.075     3.2342     44.563     59.092  45.654979     0.4124      6.494   248.9261 1.2384e-01    16.8321      6.978     10.121    13.6279   999.3533 0.0000e+00
      7.125      0.066     3.2354     44.604     59.067  45.636240     0.4120      6.493   249.1045 1.2378e-01    16.7534      6.985     10.131    13.6271   999.3534 0.0000e+00
      7.140      0.059     3.2370     44.649     59.053  45.625933     0.4075      6.493   249.4256 1.2375e-01    16.6988      7.001     10.154    13.6265   999.3536 0.0000e+00
      7.156      0.058     3.2376     44.685     59.093  45.657361     0.4104      6.491   249.3681 1.2380e-01    16.6635      7.020     10.181    13.6265   999.3537 0.0000e+00
      7.167      0.066     3.2389     44.709     59.147  45.698723     0.4129      6.488   249.0106 1.2380e-01    16.7846      7.031     10.197    13.6272   999.3536 0.0000e+00
      7.177      0.076     3.2425     44.717     59.125  45.681505     0.4113      6.485   248.9750 1.2380e-01    17.0491      7.036     10.204    13.6279   999.3535 0.0000e+00
      7.193      0.086     3.2462     44.706     59.072  45.639685     0.4173      6.483   249.1957 1.2382e-01    17.2068      7.048     10.223    13.6283   999.3535 0.0000e+00
      7.221      0.091     3.2486     44.674     59.070  45.637614     0.4250      6.482   249.2701 1.2381e-01    17.2173      7.079     10.268    13.6285   999.3537 0.0000e+00
      7.257      0.092     3.2507     44.635     59.095  45.656458     0.4175      6.481   249.1852 1.2380e-01    17.2086      7.120     10.326    13.6286   999.3539 0.0000e+00
      7.289      0.089     3.2509     44.606     59.122  45.677009     0.4039      6.479   249.0307 1.2377e-01    17.2323      7.153     10.374    13.6280   999.3541 0.0000e+00
      7.309      0.083     3.2509     44.581     59.146  45.695591     0.4085      6.479   248.8647 1.2375e-01    17.2427      7.171     10.401    13.6276   999.3542 0.0000e+00
      7.322      0.075     3.2477     44.550     59.140  45.690623     0.4208      6.479   248.8123 1.2379e-01    17.2686      7.181     10.415    13.6271   999.3543 0.0000e+00
      7.334      0.067     3.2446     44.531     59.128  45.680441     0.4227      6.478   248.9147 1.2380e-01    17.2828      7.190     10.428    13.6267   999.3544 0.0000e+00
      7.349      0.062     3.2425     44.516     59.153  45.699483     0.4138      6.477   249.0693 1.2376e-01    17.1844      7.205     10.451    13.6264   999.3545 0.0000e+00
      7.369      0.062     3.2417     44.483     59.193  45.730354     0.3994      6.477   249.1327 1.2372e-01    17.0623      7.228     10.483    13.6261   999.3547 0.0000e+00
      7.387      0.063     3.2385     44.471     59.201  45.736180     0.3962      6.477   249.0795 1.2371e-01    17.0188      7.247     10.510    13.6258   999.3548 0.0000e+00
      7.402      0.062     3.2363     44.468     59.163  45.706417     0.4018      6.476   249.0290 1.2367e-01    17.0203      7.258     10.528    13.6255   999.3549 0.0000e+00
      7.417      0.058     3.2385     44.437     59.139  45.688010     0.4067      6.474   249.2093 1.2361e-01    17.0144      7.272     10.547    13.6255   999.3550 0.0000e+00
      7.433      0.053     3.2321     44.406     59.160  45.704133     0.4114      6.474   249.5383 1.2361e-01    16.9472      7.291     10.575    13.6254   999.3551 0.0000e+00
      7.447      0.049     3.2325     44.377     59.168  45.710851     0.4068      6.474   249.5659 1.2370e-01    16.8627      7.305     10.595    13.6249   999.3552 0.0000e+00
      7.457      0.045     3.2349     44.330     59.161  45.705731     0.4036      6.473   249.2852 1.2370e-01    16.8453      7.312     10.606    13.6246   999.3553 0.0000e+00
      7.467      0.041     3.2297     44.269     59.161  45.705729     0.3982      6.473   249.0701 1.2365e-01    16.9336      7.321     10.619    13.6241   999.3554 0.0000e+00
      7.477      0.040     3.2284     44.203     59.167  45.710819     0.3761      6.473   249.4594 1.2368e-01    17.1107      7.333     10.636    13.6240   999.3555 0.0000e+00
      7.486      0.040     3.2269     44.126     59.158  45.703774     0.3536      6.471   250.2066 1.2372e-01    17.2175      7.343     10.649    13.6242   999.3555 0.0000e+00
      7.495      0.041     3.2234     44.075     59.132  45.684055     0.3503      6.470   250.4467 1.2376e-01    17.2085      7.350     10.660    13.6246   999.3555 0.0000e+00
      7.504      0.043     3.2181     44.076     59.104  45.662915     0.3716      6.471   250.2121 1.2381e-01    17.2641      7.358     10.672    13.6252   999.3554 0.0000e+00
      7.517      0.043     3.2146     44.119     59.073  45.638677     0.3941      6.471   249.9508 1.2378e-01    17.3984      7.371     10.690    13.6254   999.3555 0.0000e+00
      7.531      0.042     3.2073     44.203     59.081  45.645009     0.4056      6.470   250.0407 1.2376e-01    17.4550      7.385     10.711    13.6254   999.3556 0.0000e+00
      7.543      0.040     3.2021     44.312     59.121  45.675969     0.4156      6.469   250.4385 1.2383e-01    17.4571      7.397     10.727    13.6255   999.3555 0.0000e+00
      7.553      0.040     3.2041     44.431     59.146  45.695496     0.4189      6.469   250.6312 1.2384e-01    17.4573      7.407     10.742    13.6256   999.3556 0.0000e+00
      7.561      0.042     3.2059     44.544     59.140  45.690595     0.4030      6.469   250.6496 1.2379e-01    17.4569      7.415     10.755    13.6256   999.3556 0.0000e+00
      7.566      0.045     3.2132     44.630     59.126  45.680213     0.3790      6.468   250.7475 1.2381e-01    17.4854      7.419     10.760    13.6258   999.3556 0.0000e+00
      7.575      0.049     3.2213     44.685     59.148  45.696975     0.3718      6.467   250.6100 1.2378e-01    17.5071      7.425     10.769    13.6258   999.3556 0.0000e+00
      7.591      0.052     3.2300     44.706     59.156  45.702755     0.3682      6.465   250.3640 1.2373e-01    17.4900      7.443     10.795    13.6258   999.3557 0.0000e+00
      7.611      0.053     3.2393     44.698     59.135  45.686585     0.3697      6.464   250.5265 1.2375e-01    17.5075      7.464     10.825    13.6261   999.3558 0.0000e+00
      7.629      0.053     3.2452     44.674     59.143  45.691980     0.3993      6.463   250.8529 1.2377e-01    17.6205      7.482     10.852    13.6263   999.3558 0.0000e+00
      7.642      0.054     3.2495     44.637     59.159  45.704481     0.4218      6.461   250.9549 1.2377e-01    17.7093      7.496     10.874    13.6262   999.3559 0.0000e+00
      7.650      0.054     3.2509     44.582     59.167  45.710728     0.4172      6.458   250.6422 1.2376e-01    17.6956      7.503     10.882    13.6259   999.3560 0.0000e+00
      7.657      0.053     3.2497     44.539     59.158  45.704010     0.4132      6.456   250.1691 1.2374e-01    17.5537      7.505     10.884    13.6256   999.3561 0.0000e+00
      7.671      0.051     3.2480     44.518     59.136  45.686752     0.4165      6.456   250.0534 1.2376e-01    17.3375      7.519     10.904    13.6251   999.3562 0.0000e+00
      7.693      0.049     3.2460     44.489     59.143  45.692573     0.4305      6.456   250.2752 1.2384e-01    17.2443      7.546     10.944    13.6251   999.3564 0.0000e+00
      7.710      0.048     3.2408     44.449     59.166  45.710893     0.4437      6.455   250.2695 1.2383e-01    17.2461      7.566     10.973    13.6254   999.3564 0.0000e+00
      7.719      0.047     3.2367     44.409     59.175  45.717750     0.4203      6.454   249.7265 1.2371e-01    17.1293      7.570     10.980    13.6254   999.3564 0.0000e+00
      7.724      0.045     3.2373     44.379     59.167  45.711976     0.3733      6.453   249.3888 1.2366e-01    16.9143      7.573     10.984    13.6257   999.3563 0.0000e+00
      7.732      0.045     3.2343     44.370     59.158  45.704584     0.3437      6.451   249.6280 1.2373e-01    16.8088      7.583     10.997    13.6258   999.3564 0.0000e+00
      7.743      0.047     3.2315     44.370     59.142  45.691875     0.3403      6.451   249.9516 1.2380e-01    16.8052      7.593     11.013    13.6258   999.3565 0.0000e+00
      7.758      0.051     3.2285     44.380     59.133  45.685315     0.3663      6.451   249.9455 1.2384e-01    16.8702      7.606     11.032    13.6263   999.3565 0.0000e+00
      7.775      0.052     3.2251     44.392     59.138  45.688775     0.4058      6.450   249.6410 1.2382e-01    17.0048      7.625     11.059    13.6263   999.3565 0.0000e+00
      7.792      0.052     3.2259     44.391     59.113  45.670201     0.4197      6.449   249.4528 1.2374e-01    17.0564      7.644     11.086    13.6258   999.3567 0.0000e+00
      7.805      0.049     3.2253     44.403     59.088  45.651255     0.4135      6.449   249.4759 1.2374e-01    17.0024      7.656     11.103    13.6256   999.3568 0.0000e+00
      7.814      0.045     3.2261     44.445     59.087  45.650204     0.4000      6.450   249.5773 1.2377e-01    16.9739      7.663     11.114    13.6259   999.3568 0.0000e+00
      7.824      0.043     3.2282     44.480     59.096  45.657500     0.3778      6.450   249.7321 1.2371e-01    17.0079      7.674     11.129    13.6261   999.3568 0.0000e+00
      7.834      0.044     3.2268     44.482     59.119  45.675960     0.3617      6.449   249.7986 1.2370e-01    17.0524      7.685     11.145    13.6262   999.3568 0.0000e+00
      7.843      0.049     3.2265     44.482     59.128  45.682890     0.3525      6.447   249.6934 1.2386e-01    17.0532      7.691     11.154    13.6263   999.3568 0.0000e+00
      7.853      0.054     3.2316     44.497     59.122  45.677790     0.3443      6.446   249.5787 1.2397e-01    17.0175      7.698     11.165    13.6264   999.3568 0.0000e+00
      7.869      0.058     3.2349     44.512     59.123  45.677791     0.3405      6.446   249.5291 1.2386e-01    17.0470      7.715     11.188    13.6266   999.3569 0.0000e+00
      7.889      0.061     3.2336     44.517     59.129  45.682901     0.3422      6.446   249.7816 1.2370e-01    17.1475      7.738     11.222    13.6268   999.3570 0.0000e+00
      7.909      0.062     3.2330     44.507     59.120  45.676074     0.3468      6.445   250.3096 1.2371e-01    17.2169      7.759     11.253    13.6269   999.3571 0.0000e+00
      7.924      0.059     3.2352     44.476     59.098  45.658759     0.3525      6.443   250.4929 1.2376e-01    17.2303      7.771     11.271    13.6268   999.3571 0.0000e+00
      7.937      0.054     3.2362     44.461     59.105  45.664050     0.3682      6.443   250.2776 1.2378e-01    17.2770      7.783     11.288    13.6266   999.3572 0.0000e+00
      7.950      0.048     3.2364     44.469     59.121  45.676542     0.3984      6.442   250.0292 1.2381e-01    17.3884      7.797     11.308    13.6266   999.3573 0.0000e+00
      7.962      0.044     3.2369     44.485     59.130  45.682788     0.4143      6.441   250.2431 1.2382e-01    17.4631      7.809     11.326    13.6263   999.3574 0.0000e+00
      7.972      0.044     3.2325     44.523     59.121  45.676068     0.4124      6.440   250.8850 1.2381e-01    17.4926      7.819     11.340    13.6260   999.3574 0.0000e+00
      7.979      0.045     3.2315     44.560     59.098  45.658800     0.4099      6.440   251.1648 1.2381e-01    17.5476      7.825     11.349    13.6259   999.3575 0.0000e+00
      7.989      0.046     3.2333     44.572     59.105  45.664518     0.4019      6.439   250.9580 1.2381e-01    17.6041      7.831     11.359    13.6260   999.3575 0.0000e+00
      8.004      0.048     3.2330     44.603     59.127  45.681695     0.4020      6.437   250.8799 1.2376e-01    17.6184      7.848     11.383    13.6260   999.3576 0.0000e+00
      8.020      0.052     3.2365     44.643     59.119  45.675975     0.4111      6.436   251.2534 1.2373e-01    17.6222      7.867     11.410    13.6261   999.3577 0.0000e+00
      8.032      0.056     3.2412     44.646     59.097  45.658855     0.4082      6.435   251.6028 1.2376e-01    17.4862      7.877     11.425    13.6264   999.3577 0.0000e+00
      8.044      0.058     3.2391     44.646     59.106  45.665215     0.4012      6.434   251.6618 1.2380e-01    17.1871      7.885     11.437    13.6267   999.3577 0.0000e+00
      8.059      0.057     3.2413     44.646     59.137  45.689367     0.4054      6.434   251.6234 1.2379e-01    17.0211      7.901     11.460    13.6269   999.3578 0.0000e+00
      8.079      0.055     3.2483     44.626     59.147  45.696864     0.4155      6.433   251.4820 1.2377e-01    17.0189      7.923     11.492    13.6268   999.3579 0.0000e+00
      8.095      0.054     3.2448     44.604     59.141  45.692355     0.4195      6.433   251.3293 1.2376e-01    17.0296      7.939     11.516    13.6267   999.3579 0.0000e+00
      8.107      0.051     3.2455     44.575     59.149  45.698350     0.4187      6.433   251.3254 1.2375e-01    17.0190      7.950     11.531    13.6267   999.3580 0.0000e+00
      8.117      0.047     3.2470     44.541     59.159  45.705845     0.4228      6.432   251.5206 1.2378e-01    17.0210      7.959     11.544    13.6268   999.3580 0.0000e+00
      8.127      0.043     3.2435     44.521     59.177  45.719482     0.4261      6.431   251.7973 1.2381e-01    17.0207      7.969     11.559    13.6267   999.3581 0.0000e+00
      8.137      0.041     3.2430     44.500     59.199  45.736224     0.4239      6.431   251.5735 1.2383e-01    16.9833      7.980     11.575    13.6266   999.3582 0.0000e+00
      8.147      0.041     3.2410     44.463     59.176  45.717757     0.4215      6.431   250.9652 1.2385e-01    17.0600      7.989     11.587    13.6266   999.3582 0.0000e+00
      8.159      0.040     3.2372     44.428     59.136  45.686702     0.4240      6.429   250.8102 1.2387e-01    17.2272      8.000     11.604    13.6264   999.3583 0.0000e+00
      8.170      0.040     3.2367     44.401     59.126  45.678262     0.4271      6.429   251.1618 1.2386e-01    17.2686      8.013     11.623    13.6263   999.3584 0.0000e+00
      8.180      0.042     3.2361     44.371     59.127  45.679207     0.4253      6.429   251.6030 1.2383e-01    17.1996      8.022     11.635    13.6258   999.3585 0.0000e+00
      8.189      0.045     3.2321     44.325     59.152  45.698125     0.4198      6.427   251.4115 1.2381e-01    17.1145      8.031     11.648    13.6255   999.3586 0.0000e+00
      8.198      0.046     3.2297     44.259     59.176  45.716488     0.4115      6.423   250.6535 1.2375e-01    17.0589      8.039     11.659    13.6250   999.3586 0.0000e+00
      8.210      0.046     3.2283     44.205     59.169  45.710730     0.4118      6.421   250.3536 1.2369e-01    17.0511      8.048     11.671    13.6246   999.3587 0.0000e+00
      8.227      0.047     3.2260     44.183     59.144  45.692004     0.4239      6.421   250.7102 1.2371e-01    17.0540      8.068     11.702    13.6247   999.3588 0.0000e+00
      8.244      0.052     3.2236     44.172     59.129  45.680581     0.4270      6.419   251.2660 1.2376e-01    17.0938      8.088     11.732    13.6246   999.3589 0.0000e+00
      8.252      0.057     3.2172     44.150     59.154  45.699624     0.4149      6.417   251.3096 1.2380e-01    17.1715      8.093     11.738    13.6243   999.3590 0.0000e+00
      8.257      0.061     3.2125     44.132     59.197  45.731734     0.4076      6.415   250.8070 1.2382e-01    17.2068      8.092     11.738    13.6242   999.3590 0.0000e+00
      8.273      0.061     3.2120     44.151     59.222  45.751309     0.4168      6.413   250.5239 1.2384e-01    17.2259      8.108     11.761    13.6242   999.3591 0.0000e+00
      8.299      0.061     3.2118     44.189     59.215  45.745792     0.4226      6.413   250.5537 1.2386e-01    17.3044      8.140     11.807    13.6245   999.3592 0.0000e+00
      8.323      0.062     3.2101     44.211     59.193  45.728530     0.4167      6.413   250.7374 1.2385e-01    17.4012      8.168     11.846    13.6247   999.3593 0.0000e+00
      8.336      0.061     3.2068     44.211     59.198  45.733108     0.4144      6.412   251.0236 1.2384e-01    17.4463      8.178     11.861    13.6243   999.3594 0.0000e+00
      8.344      0.057     3.2095     44.203     59.204  45.737643     0.4125      6.410   251.0894 1.2379e-01    17.4568      8.179     11.863    13.6238   999.3595 0.0000e+00
      8.355      0.055     3.2133     44.192     59.182  45.719851     0.4111      6.409   250.8446 1.2370e-01    17.3972      8.192     11.880    13.6236   999.3596 0.0000e+00
      8.371      0.057     3.2151     44.182     59.168  45.708495     0.4057      6.409   250.6445 1.2366e-01    17.2818      8.211     11.908    13.6237   999.3596 0.0000e+00
      8.386      0.061     3.2143     44.173     59.192  45.727345     0.3996      6.409   250.9929 1.2367e-01    17.2418      8.224     11.927    13.6239   999.3597 0.0000e+00
      8.401      0.062     3.2138     44.162     59.231  45.757256     0.4068      6.409   251.5298 1.2372e-01    17.2408      8.235     11.944    13.6237   999.3598 0.0000e+00
      8.421      0.058     3.2130     44.147     59.225  45.752632     0.4056      6.408   251.6298 1.2378e-01    17.1721      8.257     11.976    13.6234   999.3599 0.0000e+00
      8.441      0.051     3.2119     44.117     59.202  45.734945     0.3854      6.406   251.5996 1.2378e-01    17.0657      8.281     12.010    13.6228   999.3601 0.0000e+00
      8.455      0.044     3.2118     44.077     59.201  45.733906     0.3705      6.406   251.4225 1.2375e-01    17.0034      8.293     12.028    13.6225   999.3602 0.0000e+00
      8.461      0.038     3.2107     44.046     59.209  45.740066     0.3739      6.405   251.3810 1.2370e-01    17.0088      8.298     12.036    13.6229   999.3602 0.0000e+00
      8.465      0.037     3.2102     44.018     59.217  45.745922     0.3738      6.404   251.9582 1.2364e-01    17.0326      8.301     12.039    13.6231   999.3602 0.0000e+00
      8.469      0.043     3.2079     43.983     59.212  45.741202     0.3774      6.403   252.4652 1.2363e-01    17.0952      8.303     12.043    13.6228   999.3602 0.0000e+00
      8.476      0.055     3.2041     43.970     59.219  45.746501     0.4008      6.402   252.4350 1.2364e-01    17.2089      8.309     12.051    13.6226   999.3603 0.0000e+00
      8.490      0.068     3.2021     43.973     59.219  45.746492     0.4143      6.401   252.1088 1.2369e-01    17.2602      8.322     12.069    13.6225   999.3603 0.0000e+00
      8.513      0.077     3.2011     43.953     59.212  45.741087     0.4191      6.399   252.0495 1.2374e-01    17.2562      8.347     12.105    13.6221   999.3605 0.0000e+00
      8.543      0.081     3.1968     43.931     59.216  45.744652     0.4333      6.399   252.4923 1.2376e-01    17.2916      8.379     12.153    13.6219   999.3607 0.0000e+00
      8.572      0.081     3.1958     43.926     59.192  45.726096     0.4388      6.399   252.9027 1.2379e-01    17.3926      8.409     12.196    13.6217   999.3609 0.0000e+00
      8.593      0.081     3.1987     43.906     59.167  45.707246     0.4240      6.395   253.0533 1.2379e-01    17.4944      8.431     12.227    13.6216   999.3610 0.0000e+00
      8.605      0.079     3.1956     43.869     59.167  45.707236     0.4182      6.391   253.1078 1.2376e-01    17.5071      8.440     12.241    13.6218   999.3610 0.0000e+00
      8.615      0.075     3.1928     43.842     59.192  45.725983     0.4299      6.390   252.9593 1.2375e-01    17.4808      8.444     12.247    13.6217   999.3610 0.0000e+00
      8.635      0.070     3.1949     43.829     59.215  45.743408     0.4267      6.390   252.6348 1.2373e-01    17.4715      8.463     12.274    13.6217   999.3611 0.0000e+00
      8.664      0.065     3.1929     43.822     59.194  45.727399     0.4144      6.391   252.6262 1.2373e-01    17.4596      8.500     12.327    13.6218   999.3613 0.0000e+00
      8.688      0.063     3.1889     43.810     59.188  45.722932     0.4117      6.391   252.9416 1.2374e-01    17.4676      8.526     12.367    13.6217   999.3614 0.0000e+00
      8.698      0.061     3.1873     43.782     59.228  45.752904     0.3941      6.391   252.6624 1.2376e-01    17.5354      8.532     12.374    13.6215   999.3614 0.0000e+00
      8.703      0.057     3.1866     43.757     59.253  45.772273     0.3663      6.390   251.8324 1.2380e-01    17.6242      8.532     12.375    13.6213   999.3615 0.0000e+00
      8.713      0.053     3.1858     43.729     59.246  45.766605     0.3614      6.389   251.5096 1.2380e-01    17.6572      8.541     12.388    13.6217   999.3615 0.0000e+00
      8.729      0.052     3.1864     43.692     59.221  45.747866     0.3612      6.389   251.7701 1.2378e-01    17.6387      8.559     12.413    13.6218   999.3615 0.0000e+00
      8.749      0.054     3.1827     43.664     59.206  45.736217     0.3549      6.389   252.0576 1.2379e-01    17.4667      8.581     12.445    13.6217   999.3617 0.0000e+00
      8.766      0.056     3.1814     43.640     59.227  45.752759     0.3545      6.389   251.8013 1.2374e-01    17.1826      8.599     12.470    13.6217   999.3618 0.0000e+00
      8.778      0.056     3.1802     43.615     59.233  45.757373     0.3648      6.389   251.1673 1.2369e-01    17.0555      8.610     12.487    13.6216   999.3618 0.0000e+00
      8.788      0.056     3.1756     43.593     59.196  45.728494     0.3759      6.389   250.9311 1.2374e-01    17.0105      8.618     12.498    13.6216   999.3618 0.0000e+00
      8.799      0.060     3.1750     43.584     59.186  45.721103     0.3665      6.389   251.0957 1.2379e-01    16.9665      8.627     12.512    13.6216   999.3619 0.0000e+00
      8.814      0.067     3.1728     43.587     59.199  45.731513     0.3734      6.387   251.4368 1.2378e-01    17.1140      8.642     12.535    13.6216   999.3620 0.0000e+00
      8.832      0.075     3.1713     43.596     59.194  45.727348     0.4073      6.384   251.6996 1.2378e-01    17.3850      8.660     12.561    13.6217   999.3621 0.0000e+00
      8.853      0.078     3.1688     43.611     59.203  45.734251     0.4205      6.383   251.5204 1.2373e-01    17.5225      8.679     12.589    13.6217   999.3621 0.0000e+00
      8.879      0.075     3.1686     43.615     59.225  45.751478     0.4205      6.383   251.2496 1.2365e-01    17.5313      8.706     12.627    13.6215   999.3623 0.0000e+00
      8.906      0.071     3.1693     43.620     59.216  45.745128     0.4253      6.382   251.2646 1.2361e-01    17.4584      8.738     12.672    13.6218   999.3624 0.0000e+00
      8.925      0.070     3.1690     43.648     59.185  45.720978     0.4259      6.380   251.3561 1.2364e-01    17.3299      8.758     12.703    13.6218   999.3625 0.0000e+00
      8.932      0.069     3.1717     43.691     59.175  45.713483     0.4276      6.378   251.5816 1.2377e-01    17.2878      8.760     12.706    13.6220   999.3625 0.0000e+00
      8.938      0.066     3.1710     43.714     59.180  45.718013     0.4284      6.376   251.9267 1.2386e-01    17.3103      8.760     12.705    13.6224   999.3624 0.0000e+00
      8.957      0.062     3.1706     43.715     59.172  45.712245     0.4192      6.376   252.0015 1.2379e-01    17.2416      8.778     12.732    13.6223   999.3625 0.0000e+00
      8.985      0.059     3.1729     43.721     59.166  45.707248     0.4110      6.376   251.7978 1.2373e-01    17.1124      8.813     12.781    13.6222   999.3627 0.0000e+00
      9.009      0.059     3.1772     43.724     59.185  45.721093     0.4160      6.375   251.5281 1.2372e-01    17.0594      8.841     12.821    13.6224   999.3628 0.0000e+00
      9.020      0.058     3.1792     43.719     59.225  45.752635     0.4278      6.375   251.7526 1.2371e-01    17.0594      8.848     12.833    13.6226   999.3628 0.0000e+00
      9.024      0.055     3.1773     43.722     59.249  45.771108     0.4316      6.375   252.4463 1.2371e-01    17.1454      8.848     12.832    13.6228   999.3627 0.0000e+00
      9.031      0.054     3.1791     43.737     59.227  45.753946     0.4196      6.375   252.6025 1.2368e-01    17.3445      8.853     12.841    13.6229   999.3628 0.0000e+00
      9.045      0.055     3.1792     43.760     59.203  45.735634     0.4034      6.375   252.1786 1.2368e-01    17.4348      8.867     12.861    13.6228   999.3628 0.0000e+00
      9.066      0.059     3.1781     43.791     59.209  45.740206     0.4000      6.374   252.2253 1.2374e-01    17.3851      8.889     12.892    13.6229   999.3630 0.0000e+00
      9.087      0.064     3.1787     43.826     59.216  45.745717     0.4131      6.373   252.9095 1.2377e-01    17.3346      8.913     12.927    13.6230   999.3631 0.0000e+00
      9.103      0.065     3.1795     43.851     59.207  45.738769     0.4237      6.373   253.3103 1.2369e-01    17.2830      8.928     12.950    13.6231   999.3631 0.0000e+00
      9.117      0.062     3.1815     43.868     59.182  45.719707     0.4151      6.373   253.1994 1.2362e-01    17.2196      8.939     12.965    13.6231   999.3631 0.0000e+00
      9.132      0.056     3.1832     43.871     59.163  45.705748     0.4041      6.373   252.9453 1.2369e-01    17.1901      8.954     12.986    13.6230   999.3632 0.0000e+00
      9.149      0.052     3.1870     43.856     59.152  45.696994     0.4044      6.373   252.8191 1.2379e-01    17.2213      8.974     13.014    13.6228   999.3633 0.0000e+00
      9.162      0.052     3.1883     43.848     59.127  45.677371     0.4100      6.372   252.9641 1.2379e-01    17.2036      8.988     13.035    13.6228   999.3634 0.0000e+00
      9.169      0.056     3.1895     43.848     59.103  45.658999     0.4198      6.371   253.1494 1.2378e-01    17.0741      8.992     13.042    13.6229   999.3634 0.0000e+00
      9.178      0.062     3.1906     43.851     59.112  45.665358     0.4278      6.370   253.1662 1.2380e-01    16.9669      8.997     13.050    13.6229   999.3634 0.0000e+00
      9.193      0.067     3.1877     43.855     59.144  45.690749     0.4198      6.369   253.1674 1.2380e-01    16.9564      9.011     13.070    13.6232   999.3635 0.0000e+00
      9.216      0.072     3.1880     43.852     59.171  45.711993     0.4098      6.368   252.9923 1.2374e-01    17.0458      9.036     13.106    13.6234   999.3635 0.0000e+00
      9.242      0.075     3.1877     43.853     59.196  45.731711     0.4106      6.367   252.5980 1.2370e-01    17.1956      9.065     13.148    13.6232   999.3637 0.0000e+00
      9.264      0.073     3.1879     43.858     59.205  45.738645     0.4119      6.366   252.4437 1.2368e-01    17.2611      9.087     13.179    13.6231   999.3638 0.0000e+00
      9.283      0.064     3.1889     43.863     59.197  45.732323     0.4085      6.366   252.6743 1.2369e-01    17.2473      9.104     13.205    13.6235   999.3639 0.0000e+00
      9.298      0.053     3.1877     43.893     59.180  45.718773     0.4041      6.366   252.9772 1.2379e-01    17.2582      9.120     13.228    13.6237   999.3639 0.0000e+00
      9.310      0.044     3.1880     43.939     59.158  45.701823     0.4105      6.366   252.5782 1.2386e-01    17.2941      9.131     13.244    13.6238   999.3640 0.0000e+00
      9.317      0.040     3.1889     43.962     59.179  45.717888     0.4250      6.366   251.7231 1.2385e-01    17.3208      9.138     13.254    13.6239   999.3640 0.0000e+00
      9.321      0.043     3.1882     43.972     59.184  45.722511     0.4327      6.365   251.5005 1.2381e-01    17.3189      9.140     13.257    13.6236   999.3640 0.0000e+00
      9.327      0.050     3.1901     43.976     59.148  45.694213     0.4253      6.365   251.8651 1.2378e-01    17.4022      9.143     13.261    13.6237   999.3640 0.0000e+00
      9.339      0.059     3.1961     43.959     59.147  45.693259     0.4135      6.364   252.1734 1.2381e-01    17.5743      9.154     13.277    13.6238   999.3640 0.0000e+00
      9.359      0.066     3.1962     43.940     59.169  45.710974     0.4114      6.363   251.8719 1.2384e-01    17.6299      9.174     13.306    13.6237   999.3642 0.0000e+00
      9.385      0.067     3.1965     43.913     59.178  45.717894     0.4177      6.361   251.1455 1.2381e-01    17.6159      9.203     13.349    13.6239   999.3643 0.0000e+00
      9.410      0.063     3.1987     43.867     59.173  45.713423     0.4114      6.360   250.7904 1.2380e-01    17.6010      9.231     13.389    13.6240   999.3644 0.0000e+00
      9.427      0.055     3.1951     43.833     59.182  45.720415     0.3779      6.360   250.9345 1.2377e-01    17.5150      9.248     13.413    13.6240   999.3645 0.0000e+00
      9.434      0.045     3.1948     43.831     59.206  45.738938     0.3504      6.360   251.1669 1.2371e-01    17.4608      9.253     13.421    13.6241   999.3645 0.0000e+00
      9.438      0.036     3.1936     43.861     59.216  45.746865     0.3482      6.360   251.1049 1.2369e-01    17.5038      9.254     13.421    13.6240   999.3645 0.0000e+00
      9.443      0.030     3.1885     43.907     59.223  45.752764     0.3682      6.359   250.7005 1.2371e-01    17.6420      9.259     13.429    13.6241   999.3645 0.0000e+00
      9.452      0.030     3.1861     43.952     59.215  45.746753     0.4017      6.358   250.3212 1.2373e-01    17.8537      9.269     13.444    13.6240   999.3646 0.0000e+00
      9.461      0.032     3.1858     44.001     59.204  45.737695     0.4151      6.358   250.1327 1.2376e-01    17.9654      9.278     13.457    13.6241   999.3646 0.0000e+00
      9.469      0.034     3.1882     44.049     59.246  45.770245     0.4092      6.357   250.2282 1.2385e-01    17.9441      9.285     13.467    13.6240   999.3647 0.0000e+00
      9.479      0.038     3.1926     44.064     59.313  45.822805     0.4085      6.357   250.4442 1.2392e-01    17.8910      9.296     13.481    13.6239   999.3647 0.0000e+00
      9.489      0.043     3.1952     44.039     59.368  45.865161     0.4159      6.356   250.3350 1.2387e-01    17.7162      9.306     13.497    13.6239   999.3648 0.0000e+00
      9.497      0.048     3.1986     43.992     59.498  45.964842     0.4208      6.355   250.0261 1.2379e-01    17.4371      9.313     13.508    13.6240   999.3648 0.0000e+00
      9.506      0.052     3.2036     43.941     59.724  46.138990     0.4145      6.354   249.7205 1.2375e-01    17.2690      9.319     13.516    13.6240   999.3648 0.0000e+00
      9.523      0.054     3.2048     43.889     60.041  46.383162     0.4098      6.354   249.7371 1.2380e-01    17.2236      9.335     13.540    13.6241   999.3649 0.0000e+00
      9.544      0.054     3.2023     43.829     60.526  46.757926     0.4157      6.353   250.0541 1.2383e-01    17.2820      9.362     13.579    13.6241   999.3651 0.0000e+00
      9.562      0.054     3.1983     43.762     60.905  47.050377     0.4250      6.352   250.0264 1.2377e-01    17.4184      9.381     13.605    13.6239   999.3652 0.0000e+00
      9.572      0.051     3.1946     43.694     60.919  47.061363     0.4352      6.350   249.5741 1.2371e-01    17.4962      9.387     13.615    13.6234   999.3654 0.0000e+00
      9.580      0.044     3.1911     43.617     60.863  47.017784     0.4356      6.350   248.9746 1.2372e-01    17.5014      9.393     13.623    13.6229   999.3655 0.0000e+00
      9.592      0.037     3.1868     43.499     61.127  47.222049     0.4291      6.350   248.6280 1.2380e-01    17.4806      9.405     13.641    13.6228   999.3658 0.0000e+00
      9.603      0.034     3.1816     43.317     62.801  48.514993     0.4274      6.349   248.4808 1.2382e-01    17.4741      9.418     13.662    13.6226   999.3662 0.0000e+00
      9.610      0.035     3.1767     43.079     69.590  53.758946     0.4234      6.347   248.0548 1.2374e-01    17.4892      9.426     13.672    13.6227   999.3661 0.0000e+00
      9.614      0.036     3.1721     42.795     81.195  62.722822     0.4156      6.345   247.5215 1.2369e-01    17.4994      9.428     13.674    13.6228   999.3659 0.0000e+00
      9.621      0.036     3.1647     42.458     88.187  68.124308     0.4109      6.343   246.9368 1.2377e-01    17.5318      9.432     13.680    13.6227   999.3662 0.0000e+00
      9.633      0.035     3.1506     42.023     86.259  66.636667     0.4092      6.342   246.3193 1.2386e-01    17.5858      9.445     13.699    13.6227   999.3661 0.0000e+00
      9.648      0.035     3.1330     41.338     82.430  63.679939     0.4045      6.342   245.9058 1.2380e-01    17.6276      9.462     13.724    13.6220   999.3683 0.0000e+00
      9.659      0.034     3.1125     40.142     98.594  76.169292     0.4051      6.342   245.1209 1.2373e-01    17.6439      9.474     13.740    13.6210   999.3742 0.0000e+00
      9.665      0.032     3.0885     38.260    176.594 136.435171     0.4090      6.342   244.1431 1.2375e-01    17.5535      9.478     13.747    13.6215   999.3779 0.0000e+00
      9.669      0.029     3.0602     35.799    293.951 227.130420     0.4077      6.341   243.7189 1.2379e-01    17.3870      9.482     13.752    13.6228   999.3747 0.0000e+00
      9.674      0.027     3.0185     33.103    365.735 282.653633     0.4069      6.340   243.1755 1.2374e-01    17.3021      9.487     13.759    13.6235   999.3737 0.0000e+00
      9.681      0.027     2.9381     30.626    383.935 296.806156     0.4077      6.339   242.3054 1.2365e-01    17.2808      9.493     13.768    13.6241   999.3694 0.0000e+00
      9.690      0.027     2.7963     28.656    388.460 300.405419     0.4093      6.339   241.6301 1.2369e-01    17.2606      9.502     13.782    13.6242   999.3975 0.0000e+00
      9.699      0.026     2.6077     27.003    391.477 302.833059     0.4085      6.339   241.3777 1.2381e-01    17.2535      9.512     13.796    13.6274   999.4626 0.0000e+00
      9.706      0.026     2.3970     24.940    397.257 307.381979     0.4157      6.339   241.3177 1.2388e-01    17.2613      9.519     13.806    13.6371   999.4840 0.0000e+00
      9.710      0.026     2.2077     21.757    406.106 314.304336     0.4266      6.336   240.9047 1.2391e-01    17.2898      9.524     13.812    13.6491   999.4806 0.0000e+00
      9.715      0.025     2.0672     17.375    412.531 319.366696     0.4192      6.330   240.5147 1.2385e-01    17.4004      9.526     13.815    13.6633   999.4821 0.0000e+00
      9.720      0.023     1.9686     12.203    414.403 320.911788     0.4047      6.323   240.4748 1.2375e-01    17.5834      9.530     13.822    13.6764   999.4795 0.0000e+00
      9.729      0.021     1.8433      6.764    413.357 320.179119     0.4063      6.317   240.5942 1.2373e-01    17.6678      9.540     13.837    13.6847   999.4810 0.0000e+00
      9.736      0.019     1.6100      1.578    411.196 318.552814     0.4212      6.312   240.7532 1.2373e-01    17.6666      9.550     13.851    13.6928   999.4844 0.0000e+00
      9.741      0.017     1.2802     -2.777    410.259 317.852925     0.4287      6.307   240.4182 1.2373e-01    17.6340      9.554     13.856    13.7046   999.4856 0.0000e+00
      9.743      0.014     0.8901     -5.842    410.206 317.831235     0.4277      6.304   239.6418 1.2378e-01    17.5355      9.555     13.858    13.7175   999.4838 0.0000e+00
      9.744      0.011     0.4850     -7.495    409.608 317.389655     0.4264      6.302   239.3672 1.2382e-01    17.4916      9.555     13.859    13.7274   999.4823 0.0000e+00
      9.746      0.010     0.0930     -7.860    408.436 316.503691     0.4222      6.299   239.5934 1.2381e-01    17.4975      9.557     13.862    13.7327   999.4800 0.0000e+00
      9.749      0.011    -0.2367     -7.301    406.596 315.098668     0.4023      6.295   239.6231 1.2377e-01    17.4095      9.561     13.867    13.7349   999.4797 0.0000e+00
      9.752      0.012    -0.4591     -6.263    402.140 311.662482     0.3683      6.291   239.2963 1.2373e-01    17.2804      9.564     13.871    13.7369   999.4797 0.0000e+00
      9.755      0.013    -0.5770     -5.118    391.533 303.457538     0.3486      6.288   238.9977 1.2373e-01    17.2465      9.566     13.875    13.7398   999.4787 0.0000e+00
      9.759      0.013    -0.5939     -4.565    384.253 297.822523     0.3462      6.287   238.9374 1.2373e-01    17.2627      9.570     13.881    13.7427   999.4783 0.0000e+00
      9.763 -9.990e-29    -0.5376 -9.990e-29 -9.990e-29 -9.990e-29 -9.990e-29 -9.990e-29 -9.990e-29 1.2374e-01 -9.990e-29      9.575     13.888    13.7453   999.4769 0.0000e+00
      9.767 -9.990e-29    -0.4605 -9.990e-29 -9.990e-29 -9.990e-29 -9.990e-29 -9.990e-29 -9.990e-29 1.2378e-01 -9.990e-29      9.578     13.891    13.7470   999.4766 0.0000e+00
      9.769 -9.990e-29    -0.3577 -9.990e-29 -9.990e-29 -9.990e-29 -9.990e-29 -9.990e-29 -9.990e-29 1.2380e-01 -9.990e-29      9.580     13.894    13.7494   999.4709 0.0000e+00
      9.769 -9.990e-29    -0.2899 -9.990e-29 -9.990e-29 -9.990e-29 -9.990e-29 -9.990e-29 -9.990e-29 1.2380e-01 -9.990e-29      9.581     13.896    13.7513   999.4640 0.0000e+00
