* Sea-Bird SBE19plus  Data File:
* FileName = C:\DATA\102319_fcr_0002.hex
* Software version 2.8.0.119 SB_Terminal.dll
* Temperature SN = 7809
* Conductivity SN = 7809
* System UpLoad Time = Oct 23 2019 15:55:55
* <ApplicationData>
* <Seaterm232>
* <SoftwareVersion>2.8.0.119</SoftwareVersion>
* <BuildDate>07-Nov-2018</BuildDate>
* </Seaterm232>
* </ApplicationData>
* cast   2 23 Oct 2019 11:10:58 samples 399 to 885, avg = 1, stop = mag switch
# nquan = 16
# nvalues = 437                         
# units = specified
# name 0 = depFM: Depth [fresh water, m]
# name 1 = dz/dtM: Descent Rate [m/s]
# name 2 = sbeox0ML/L: Oxygen, SBE 43 [ml/l]
# name 3 = sbeox0PS: Oxygen, SBE 43 [% saturation]
# name 4 = specc: Specific Conductance [uS/cm]
# name 5 = c0uS/cm: Conductivity [uS/cm]
# name 6 = flECO-AFL: Fluorescence, WET Labs ECO-AFL/FL [mg/m^3]
# name 7 = ph: pH
# name 8 = orp: Oxidation Reduction Potential [mV]
# name 9 = par/sat/log: PAR/Logarithmic, Satlantic
# name 10 = turbWETntu0: Turbidity, WET Labs ECO [NTU]
# name 11 = prdM: Pressure, Strain Gauge [db]
# name 12 = prdE: Pressure, Strain Gauge [psi]
# name 13 = tv290C: Temperature [ITS-90, deg C]
# name 14 = density00: Density [density, kg/m^3]
# name 15 = flag:  0.000e+00
# span 0 =     -0.406,      3.244       
# span 1 =     -0.020,      0.168       
# span 2 =     4.2731,     7.1200       
# span 3 =     60.065,     99.905       
# span 4 =     40.678,     41.534       
# span 5 =  32.084009,  32.881251       
# span 6 =     1.3617,     4.0610       
# span 7 =      7.035,      8.626       
# span 8 =   179.6417,   247.3973       
# span 9 = 2.0592e+00, 1.3134e+03       
# span 10 =    -8.3892,     9.9717      
# span 11 =     -0.404,      3.182      
# span 12 =     -0.587,      4.615      
# span 13 =    14.0378,    14.6214      
# span 14 =   999.1754,   999.2734      
# span 15 = 0.0000e+00, 0.0000e+00      
# interval = seconds: 0.25
# start_time = Oct 23 2019 11:10:58 [Instrument's time stamp, header]
# bad_flag = -9.990e-29
# <Sensors count="9" >
#   <sensor Channel="1" >
#     <!-- Count, Temperature -->
#     <TemperatureSensor SensorID="58" >
#       <SerialNumber>7809</SerialNumber>
#       <CalibrationDate>24-Mar-19</CalibrationDate>
#       <A0>1.21792325e-003</A0>
#       <A1>2.81669265e-004</A1>
#       <A2>-1.60333336e-006</A2>
#       <A3>1.98414625e-007</A3>
#       <Slope>1.00000000</Slope>
#       <Offset>0.0000</Offset>
#     </TemperatureSensor>
#   </sensor>
#   <sensor Channel="2" >
#     <!-- Frequency 0, Conductivity -->
#     <ConductivitySensor SensorID="3" >
#       <SerialNumber>7809</SerialNumber>
#       <CalibrationDate>24-Mar-19</CalibrationDate>
#       <UseG_J>1</UseG_J>
#       <!-- Cell const and series R are applicable only for wide range sensors. -->
#       <SeriesR>0.0000</SeriesR>
#       <CellConst>2000.0000</CellConst>
#       <ConductivityType>0</ConductivityType>
#       <Coefficients equation="0" >
#         <A>0.00000000e+000</A>
#         <B>0.00000000e+000</B>
#         <C>0.00000000e+000</C>
#         <D>0.00000000e+000</D>
#         <M>0.0</M>
#         <CPcor>-9.57000000e-008</CPcor>
#       </Coefficients>
#       <Coefficients equation="1" >
#         <G>-1.00589325e+000</G>
#         <H>1.26816302e-001</H>
#         <I>-1.51560448e-004</I>
#         <J>2.67137274e-005</J>
#         <CPcor>-9.57000000e-008</CPcor>
#         <CTcor>3.2500e-006</CTcor>
#         <!-- WBOTC not applicable unless ConductivityType = 1. -->
#         <WBOTC>0.00000000e+000</WBOTC>
#       </Coefficients>
#       <Slope>1.00000000</Slope>
#       <Offset>0.00000</Offset>
#     </ConductivitySensor>
#   </sensor>
#   <sensor Channel="3" >
#     <!-- Count, Pressure, Strain Gauge -->
#     <PressureSensor SensorID="46" >
#       <SerialNumber>7809</SerialNumber>
#       <CalibrationDate>11-Mar-19</CalibrationDate>
#       <PA0>4.56561833e-002</PA0>
#       <PA1>4.85095118e-004</PA1>
#       <PA2>-2.88327090e-012</PA2>
#       <PTEMPA0>-5.48784562e+001</PTEMPA0>
#       <PTEMPA1>5.53756816e+001</PTEMPA1>
#       <PTEMPA2>-5.86727098e-001</PTEMPA2>
#       <PTCA0>5.25246745e+005</PTCA0>
#       <PTCA1>1.22304214e+001</PTCA1>
#       <PTCA2>-3.56745036e-001</PTCA2>
#       <PTCB0>2.51668750e+001</PTCB0>
#       <PTCB1>3.75000000e-004</PTCB1>
#       <PTCB2>0.00000000e+000</PTCB2>
#       <Offset>0.000000</Offset>
#     </PressureSensor>
#   </sensor>
#   <sensor Channel="4" >
#     <!-- A/D voltage 0, Oxygen, SBE 43 -->
#     <OxygenSensor SensorID="38" >
#       <SerialNumber>0434</SerialNumber>
#       <CalibrationDate>13-Apr-19</CalibrationDate>
#       <Use2007Equation>1</Use2007Equation>
#       <CalibrationCoefficients equation="0" >
#         <!-- Coefficients for Owens-Millard equation. -->
#         <Boc>0.0000</Boc>
#         <Soc>0.0000e+000</Soc>
#         <offset>0.0000</offset>
#         <Pcor>0.00e+000</Pcor>
#         <Tcor>0.0000</Tcor>
#         <Tau>0.0</Tau>
#       </CalibrationCoefficients>
#       <CalibrationCoefficients equation="1" >
#         <!-- Coefficients for Sea-Bird equation - SBE calibration in 2007 and later. -->
#         <Soc>4.2007e-001</Soc>
#         <offset>-0.6109</offset>
#         <A>-4.3656e-003</A>
#         <B> 1.7017e-004</B>
#         <C>-2.5341e-006</C>
#         <D0> 2.5826e+000</D0>
#         <D1> 1.92634e-004</D1>
#         <D2>-4.64803e-002</D2>
#         <E> 3.6000e-002</E>
#         <Tau20> 1.1800</Tau20>
#         <H1>-3.3000e-002</H1>
#         <H2> 5.0000e+003</H2>
#         <H3> 1.4500e+003</H3>
#       </CalibrationCoefficients>
#     </OxygenSensor>
#   </sensor>
#   <sensor Channel="5" >
#     <!-- A/D voltage 1, PAR/Logarithmic, Satlantic -->
#     <PARLog_SatlanticSensor SensorID="76" >
#       <SerialNumber>1122</SerialNumber>
#       <CalibrationDate>08-May-2019</CalibrationDate>
#       <a0>9.7456e-001</a0>
#       <a1>8.1640e-001</a1>
#       <Im>1.3589e+000</Im>
#       <Multiplier>1.0000e+000</Multiplier>
#     </PARLog_SatlanticSensor>
#   </sensor>
#   <sensor Channel="6" >
#     <!-- A/D voltage 2, pH -->
#     <pH_Sensor SensorID="43" >
#       <SerialNumber>0363</SerialNumber>
#       <CalibrationDate>15-Apr-19</CalibrationDate>
#       <Slope>4.5952</Slope>
#       <Offset>2.5370</Offset>
#     </pH_Sensor>
#   </sensor>
#   <sensor Channel="7" >
#     <!-- A/D voltage 3, Oxidation Reduction Potential -->
#     <OxidationReductionPotentialSensor SensorID="41" >
#       <SerialNumber>0363</SerialNumber>
#       <CalibrationDate>15-Apr-19</CalibrationDate>
#       <B>2.499480</B>
#       <M>-0.496195</M>
#       <Offset>0.0</Offset>
#     </OxidationReductionPotentialSensor>
#   </sensor>
#   <sensor Channel="8" >
#     <!-- A/D voltage 4, Fluorometer, WET Labs ECO-AFL/FL -->
#     <FluoroWetlabECO_AFL_FL_Sensor SensorID="20" >
#       <SerialNumber>FLNTURT-2496</SerialNumber>
#       <CalibrationDate>08-May-2019</CalibrationDate>
#       <ScaleFactor>5.00000000e+001</ScaleFactor>
#       <!-- Dark output -->
#       <Vblank>0.0550</Vblank>
#     </FluoroWetlabECO_AFL_FL_Sensor>
#   </sensor>
#   <sensor Channel="9" >
#     <!-- A/D voltage 5, Turbidity Meter, WET Labs, ECO-NTU -->
#     <TurbidityMeter SensorID="67" >
#       <SerialNumber>FLNTURT-2496</SerialNumber>
#       <CalibrationDate>08-May-2019</CalibrationDate>
#       <ScaleFactor>189.000000</ScaleFactor>
#       <!-- Dark output -->
#       <DarkVoltage>0.071000</DarkVoltage>
#     </TurbidityMeter>
#   </sensor>
# </Sensors>
# datcnv_date = Oct 23 2019 16:06:16, 7.26.7.129 [datcnv_vars = 15]
# datcnv_in = C:\DATA\102319_fcr20.hex C:\DATA\SBE19plusV2_7809.xmlcon
# datcnv_skipover = 0
# datcnv_ox_hysteresis_correction = yes
# datcnv_ox_tau_correction = yes
# filter_date = Oct 23 2019 16:06:38, 7.26.7.129
# filter_in = C:\DATA\102319_fcr20.cnv
# filter_low_pass_tc_A = 0.030
# filter_low_pass_tc_B = 0.150
# filter_low_pass_A_vars = sbeox0ML/L prdM prdE tv290C density00
# filter_low_pass_B_vars = depFM dz/dtM sbeox0PS specc c0uS/cm flECO-AFL ph orp par/sat/log turbWETntu0
# alignctd_date = Oct 23 2019 16:06:56, 7.26.7.129
# alignctd_in = C:\DATA\102319_fcr20.cnv
# alignctd_adv = dz/dtM 1.000, sbeox0PS 1.000, specc 1.000, c0uS/cm 1.000, flECO-AFL 1.000, ph 1.000, orp 1.000, turbWETntu0 1.000                                                                                                   
# file_type = ascii
*END*
     -0.406      0.075     6.9394     97.036     40.728  32.146422     2.3488      8.452   182.7604 4.3484e+02    -8.3892     -0.404     -0.587    14.3210   999.2116 0.0000e+00
     -0.384      0.105     6.9326     97.060     40.806  32.229651     2.4073      8.537   179.6417 5.2931e+02    -8.3693     -0.380     -0.552    14.3728   999.2087 0.0000e+00
     -0.348      0.132     6.9268     97.114     40.826  32.265804     2.3848      8.587   183.9411 6.2173e+02    -6.4891     -0.345     -0.501    14.4151   999.2036 0.0000e+00
     -0.302      0.152     6.9281     97.220     40.806  32.266260     2.1300      8.614   189.8321 5.9628e+02    -0.7636     -0.299     -0.434    14.4372   999.2001 0.0000e+00
     -0.251      0.165     6.9278     97.389     40.752  32.235185     1.6758      8.623   192.5337 5.9554e+02     5.8659     -0.243     -0.354    14.4599   999.1974 0.0000e+00
     -0.204      0.168     6.9231     97.631     40.706  32.207391     1.4179      8.622   193.5484 8.1395e+02     8.7125     -0.196     -0.284    14.4869   999.1936 0.0000e+00
     -0.165      0.162     6.9229     97.956     40.747  32.247517     1.3709      8.616   193.4967 8.8407e+02     8.9437     -0.163     -0.236    14.5155   999.1897 0.0000e+00
     -0.126      0.150     6.9271     98.372     40.774  32.276124     1.3756      8.606   194.1451 7.8715e+02     8.9565     -0.127     -0.184    14.5343   999.1871 0.0000e+00
     -0.084      0.134     6.9366     98.826     40.718  32.235988     1.4144      8.598   195.3655 9.0968e+02     8.9651     -0.080     -0.116    14.5488   999.1852 0.0000e+00
     -0.048      0.115     6.9527     99.242     40.678  32.206468     1.4323      8.602   196.2072 1.1220e+03     8.9822     -0.044     -0.064    14.5583   999.1839 0.0000e+00
     -0.020      0.092     6.9732     99.582     40.715  32.236500     1.4276      8.612   197.3522 1.2508e+03     8.9677     -0.019     -0.027    14.5675   999.1828 0.0000e+00
      0.001      0.067     7.0031     99.818     40.773  32.281809     1.4094      8.622   198.7989 1.3134e+03     8.8549      0.004      0.006    14.5768   999.1816 0.0000e+00
      0.015      0.041     7.0378     99.905     40.810  32.310065     1.3778      8.626   199.5890 1.3104e+03     8.6672      0.020      0.028    14.5819   999.1809 0.0000e+00
      0.019      0.020     7.0663     99.692     40.830  32.324298     1.3654      8.626   199.8502 1.2716e+03     8.5667      0.022      0.030    14.5842   999.1805 0.0000e+00
      0.016      0.005     7.0925     99.111     40.831  32.326973     1.3813      8.626   199.8915 1.2012e+03     8.5566      0.016      0.023    14.5856   999.1803 0.0000e+00
      0.012     -0.004     7.1082     98.277     40.847  32.342412     1.4052      8.625   199.8300 1.1246e+03     8.5453      0.012      0.017    14.5845   999.1805 0.0000e+00
      0.007     -0.006     7.1200     97.099     40.895  32.384055     1.4290      8.620   200.0532 1.0944e+03     8.5611      0.007      0.010    14.5814   999.1809 0.0000e+00
      0.003     -0.002     7.1107     95.379     40.972  32.449720     1.4443      8.611   200.4389 1.0974e+03     8.5836      0.002      0.001    14.5799   999.1811 0.0000e+00
      0.002      0.003     7.0585     93.117     41.031  32.501747     1.4419      8.600   200.7939 1.0851e+03     8.5878      0.000     -0.001    14.5819   999.1809 0.0000e+00
      0.005      0.007     7.0043     90.538     41.031  32.505428     1.4266      8.587   201.2491 1.0332e+03     8.5794      0.004      0.006    14.5858   999.1803 0.0000e+00
      0.011      0.009     6.9270     87.978     41.013  32.494224     1.4146      8.575   201.7263 9.8269e+02     8.5473      0.011      0.016    14.5903   999.1796 0.0000e+00
      0.017      0.008     6.8024     85.599     41.011  32.493206     1.4182      8.563   202.0034 9.8012e+02     8.5272      0.018      0.026    14.5965   999.1788 0.0000e+00
      0.019      0.006     6.6361     83.434     41.011  32.493122     1.4362      8.552   202.1906 1.0042e+03     8.5332      0.022      0.031    14.6033   999.1778 0.0000e+00
      0.018      0.003     6.4392     81.545     41.012  32.493208     1.4415      8.542   202.5276 1.0431e+03     8.5218      0.019      0.027    14.6082   999.1771 0.0000e+00
      0.016     -0.000     6.2543     80.000     41.014  32.494248     1.4122      8.533   202.8941 1.0650e+03     8.4874      0.014      0.021    14.6113   999.1767 0.0000e+00
      0.015     -0.001     6.0857     78.849     41.028  32.505693     1.3762      8.526   203.2672 1.0239e+03     8.4789      0.015      0.022    14.6129   999.1764 0.0000e+00
      0.016      0.001     5.9290     78.077     41.026  32.504665     1.3710      8.520   203.5966 9.8570e+02     8.5167      0.016      0.023    14.6122   999.1766 0.0000e+00
      0.016      0.006     5.7936     77.554     40.997  32.481822     1.3843      8.513   203.9514 1.0118e+03     8.5504      0.015      0.022    14.6100   999.1768 0.0000e+00
      0.016      0.009     5.6826     77.164     40.998  32.483342     1.3802      8.503   204.5457 1.0462e+03     8.3952      0.015      0.022    14.6091   999.1769 0.0000e+00
      0.019      0.010     5.5993     76.809     41.048  32.523050     1.3647      8.494   205.1038 1.0278e+03     8.0819      0.018      0.025    14.6098   999.1769 0.0000e+00
      0.025      0.011     5.5496     76.340     41.120  32.581163     1.3617      8.487   205.3643 9.9533e+02     7.9092      0.024      0.035    14.6109   999.1767 0.0000e+00
      0.031      0.011     5.5153     75.769     41.161  32.614824     1.3704      8.481   205.4584 9.8450e+02     7.8801      0.031      0.045    14.6115   999.1767 0.0000e+00
      0.033      0.011     5.4875     75.281     41.157  32.612735     1.3910      8.475   205.6398 9.7526e+02     7.8291      0.033      0.048    14.6118   999.1767 0.0000e+00
      0.033      0.009     5.4693     75.006     41.164  32.619378     1.4209      8.468   206.0085 9.6572e+02     7.7174      0.031      0.045    14.6129   999.1765 0.0000e+00
      0.034      0.006     5.4354     75.011     41.179  32.631676     1.4368      8.462   206.5610 9.6317e+02     7.6440      0.031      0.046    14.6145   999.1763 0.0000e+00
      0.037      0.004     5.3869     75.313     41.182  32.634512     1.4366      8.454   206.9853 9.6276e+02     7.6622      0.037      0.053    14.6160   999.1761 0.0000e+00
      0.039      0.002     5.3505     75.856     41.206  32.653665     1.4352      8.445   207.0946 9.5279e+02     7.7081      0.041      0.058    14.6169   999.1760 0.0000e+00
      0.039      0.001     5.3289     76.567     41.230  32.672871     1.4380      8.439   207.2808 9.5632e+02     7.7076      0.038      0.056    14.6174   999.1759 0.0000e+00
      0.037     -0.001     5.3281     77.314     41.234  32.676345     1.4356      8.434   207.6882 9.6207e+02     7.6565      0.035      0.051    14.6177   999.1759 0.0000e+00
      0.035     -0.002     5.3522     77.931     41.259  32.695655     1.4322      8.429   208.0623 9.4459e+02     7.6150      0.034      0.049    14.6182   999.1758 0.0000e+00
      0.035     -0.001     5.3915     78.328     41.285  32.715967     1.4399      8.424   208.3628 9.5104e+02     7.5982      0.035      0.050    14.6190   999.1757 0.0000e+00
      0.035      0.002     5.4454     78.497     41.304  32.731557     1.4415      8.421   208.6535 9.7366e+02     7.6167      0.035      0.051    14.6194   999.1756 0.0000e+00
      0.035      0.007     5.5039     78.473     41.336  32.757212     1.4349      8.417   208.9109 9.7886e+02     7.6431      0.034      0.050    14.6193   999.1756 0.0000e+00
      0.035      0.012     5.5497     78.341     41.355  32.772321     1.4295      8.412   209.2379 9.8018e+02     7.6224      0.033      0.048    14.6187   999.1757 0.0000e+00
      0.039      0.016     5.5778     78.181     41.374  32.787324     1.4369      8.403   209.5950 9.7205e+02     7.6935      0.036      0.053    14.6186   999.1757 0.0000e+00
      0.046      0.018     5.5892     78.049     41.404  32.811679     1.4714      8.395   209.9590 9.5472e+02     7.9131      0.045      0.065    14.6188   999.1758 0.0000e+00
      0.055      0.018     5.5851     77.982     41.405  32.812947     1.5010      8.388   210.2839 9.6727e+02     8.0500      0.054      0.079    14.6192   999.1758 0.0000e+00
      0.061      0.014     5.5731     77.949     41.392  32.802657     1.5001      8.381   210.4264 9.7973e+02     8.0699      0.062      0.090    14.6197   999.1757 0.0000e+00
      0.066      0.008     5.5611     77.884     41.406  32.814196     1.4952      8.376   210.6489 9.1499e+02     8.0551      0.066      0.095    14.6201   999.1757 0.0000e+00
      0.066      0.000     5.5497     77.753     41.421  32.825534     1.4842      8.373   211.1677 8.5515e+02     8.1016      0.066      0.096    14.6204   999.1757 0.0000e+00
      0.064     -0.006     5.5461     77.522     41.405  32.812823     1.4630      8.371   211.6228 9.0107e+02     8.2383      0.062      0.090    14.6207   999.1756 0.0000e+00
      0.059     -0.010     5.5462     77.179     41.373  32.787428     1.4560      8.368   211.7630 9.6299e+02     8.2987      0.058      0.083    14.6210   999.1755 0.0000e+00
      0.054     -0.012     5.5415     76.731     41.354  32.772334     1.4421      8.364   211.9172 9.8476e+02     8.2742      0.052      0.075    14.6213   999.1755 0.0000e+00
      0.050     -0.010     5.5337     76.183     41.336  32.757250     1.4342      8.359   212.1964 1.0154e+03     8.2698      0.048      0.070    14.6214   999.1755 0.0000e+00
      0.048     -0.006     5.5174     75.547     41.304  32.731969     1.4638      8.353   212.4704 1.0334e+03     8.3113      0.047      0.068    14.6214   999.1755 0.0000e+00
      0.047     -0.001     5.4926     74.865     41.290  32.720517     1.4880      8.346   212.7353 1.0320e+03     8.3500      0.045      0.065    14.6213   999.1754 0.0000e+00
      0.047      0.003     5.4607     74.204     41.323  32.745701     1.4930      8.338   213.0768 1.0255e+03     8.3450      0.045      0.065    14.6205   999.1755 0.0000e+00
      0.049      0.006     5.4219     73.605     41.370  32.782624     1.5155      8.331   213.5025 1.0040e+03     8.2830      0.048      0.070    14.6199   999.1757 0.0000e+00
      0.053      0.007     5.3754     73.084     41.375  32.786171     1.5522      8.323   213.8379 1.0026e+03     8.1903      0.052      0.076    14.6196   999.1757 0.0000e+00
      0.055      0.007     5.3250     72.646     41.379  32.788583     1.5642      8.315   214.0351 1.0213e+03     8.1416      0.055      0.080    14.6190   999.1758 0.0000e+00
      0.057      0.006     5.2770     72.269     41.409  32.811793     1.5559      8.307   214.0804 1.0148e+03     8.1196      0.056      0.082    14.6182   999.1759 0.0000e+00
      0.058      0.003     5.2342     71.903     41.412  32.812948     1.5561      8.299   214.1264 1.0068e+03     8.1542      0.057      0.083    14.6177   999.1760 0.0000e+00
      0.059      0.001     5.1972     71.556     41.401  32.802545     1.5576      8.292   214.3336 1.0037e+03     8.2649      0.058      0.085    14.6170   999.1761 0.0000e+00
      0.059     -0.001     5.1658     71.215     41.415  32.812940     1.5571      8.287   214.6064 9.6933e+02     8.3119      0.058      0.085    14.6164   999.1762 0.0000e+00
      0.058     -0.001     5.1423     70.831     41.414  32.811702     1.5596      8.282   214.9298 9.5823e+02     8.3288      0.057      0.083    14.6158   999.1763 0.0000e+00
      0.056     -0.002     5.1147     70.426     41.385  32.787577     1.5611      8.276   215.3183 9.8503e+02     8.4693      0.055      0.079    14.6142   999.1765 0.0000e+00
      0.056     -0.002     5.0899     70.003     41.370  32.775093     1.5676      8.269   215.6046 9.8559e+02     8.6673      0.054      0.078    14.6124   999.1768 0.0000e+00
      0.057     -0.001     5.0697     69.557     41.386  32.787681     1.5672      8.263   215.6381 9.7443e+02     8.7563      0.056      0.081    14.6113   999.1770 0.0000e+00
      0.057      0.000     5.0392     69.125     41.419  32.812847     1.5564      8.259   215.4650 9.7848e+02     8.7585      0.056      0.081    14.6107   999.1771 0.0000e+00
      0.056      0.003     5.0114     68.707     41.436  32.825528     1.5588      8.258   215.3185 9.7771e+02     8.7597      0.055      0.080    14.6100   999.1771 0.0000e+00
      0.056      0.007     4.9822     68.289     41.422  32.814084     1.5785      8.257   215.3290 9.8286e+02     8.8034      0.055      0.080    14.6092   999.1773 0.0000e+00
      0.056      0.013     4.9482     67.910     41.407  32.801402     1.6045      8.252   215.4200 9.8685e+02     8.9263      0.055      0.080    14.6085   999.1774 0.0000e+00
      0.058      0.019     4.9181     67.597     41.405  32.799114     1.6212      8.241   215.6448 9.5978e+02     9.0331      0.055      0.080    14.6075   999.1775 0.0000e+00
      0.065      0.024     4.8898     67.340     41.390  32.786423     1.6247      8.227   215.8104 9.2921e+02     9.0462      0.062      0.088    14.6066   999.1777 0.0000e+00
      0.076      0.026     4.8582     67.156     41.378  32.774876     1.6215      8.218   215.8738 9.7400e+02     9.0526      0.075      0.109    14.6064   999.1778 0.0000e+00
      0.087      0.025     4.8298     67.032     41.395  32.786424     1.6168      8.213   216.0667 9.8017e+02     9.1436      0.086      0.125    14.6056   999.1779 0.0000e+00
      0.095      0.021     4.8099     66.917     41.413  32.799116     1.6196      8.210   216.1642 8.7827e+02     9.2601      0.095      0.137    14.6045   999.1782 0.0000e+00
      0.098      0.015     4.7896     66.799     41.417  32.801414     1.6209      8.208   216.1926 8.8775e+02     9.2496      0.098      0.143    14.6033   999.1783 0.0000e+00
      0.098      0.010     4.7774     66.672     41.433  32.814200     1.5970      8.204   216.4097 8.8734e+02     8.9511      0.097      0.141    14.6006   999.1787 0.0000e+00
      0.098      0.006     4.7711     66.530     41.448  32.826788     1.5647      8.195   216.7247 6.8952e+02     8.5346      0.095      0.138    14.5979   999.1791 0.0000e+00
      0.098      0.004     4.7625     66.367     41.448  32.826694     1.5605      8.187   216.9892 4.8152e+02     8.3756      0.095      0.137    14.5965   999.1793 0.0000e+00
      0.100      0.004     4.7545     66.175     41.432  32.813066     1.5717      8.180   217.1985 3.8574e+02     8.4051      0.098      0.143    14.5958   999.1794 0.0000e+00
      0.103      0.004     4.7456     65.967     41.402  32.788940     1.5880      8.172   217.4486 4.1547e+02     8.4650      0.101      0.147    14.5960   999.1794 0.0000e+00
      0.104      0.004     4.7355     65.745     41.403  32.788837     1.6104      8.166   217.6040 4.7144e+02     8.5427      0.103      0.150    14.5967   999.1793 0.0000e+00
      0.105      0.002     4.7245     65.492     41.433  32.811819     1.6174      8.162   217.5281 4.5173e+02     8.5588      0.102      0.149    14.5967   999.1793 0.0000e+00
      0.106      0.001     4.7103     65.211     41.436  32.812963     1.6199      8.160   217.5636 4.7290e+02     8.5616      0.103      0.151    14.5956   999.1795 0.0000e+00
      0.106      0.003     4.6952     64.921     41.423  32.802664     1.6409      8.155   217.8613 5.3641e+02     8.8046      0.105      0.153    14.5945   999.1796 0.0000e+00
      0.104      0.006     4.6806     64.638     41.437  32.814211     1.6631      8.139   218.2026 6.1830e+02     9.2362      0.101      0.147    14.5936   999.1798 0.0000e+00
      0.102      0.010     4.6624     64.365     41.452  32.825653     1.6720      8.114   218.4206 7.9482e+02     9.4545      0.098      0.143    14.5928   999.1799 0.0000e+00
      0.106      0.012     4.6419     64.107     41.438  32.814097     1.6784      8.094   218.5186 9.4349e+02     9.4449      0.102      0.148    14.5919   999.1800 0.0000e+00
      0.115      0.012     4.6207     63.874     41.423  32.801404     1.6796      8.083   218.6989 9.4203e+02     9.4154      0.112      0.163    14.5911   999.1802 0.0000e+00
      0.122      0.010     4.6009     63.673     41.420  32.799105     1.6700      8.078   218.9659 1.0158e+03     9.3926      0.121      0.176    14.5912   999.1802 0.0000e+00
      0.124      0.007     4.5810     63.476     41.404  32.786310     1.6655      8.075   219.2516 1.1519e+03     9.3331      0.124      0.179    14.5917   999.1802 0.0000e+00
      0.123      0.002     4.5628     63.252     41.389  32.773618     1.6686      8.072   219.5725 1.0345e+03     9.2847      0.121      0.175    14.5906   999.1803 0.0000e+00
      0.121     -0.003     4.5455     62.993     41.388  32.772568     1.6733      8.067   219.9206 8.9917e+02     9.2666      0.118      0.171    14.5895   999.1804 0.0000e+00
      0.118     -0.008     4.5324     62.707     41.390  32.773618     1.6790      8.058   220.2762 9.2152e+02     9.0159      0.115      0.168    14.5892   999.1805 0.0000e+00
      0.116     -0.012     4.5194     62.424     41.406  32.786310     1.6852      8.051   220.5168 9.2557e+02     8.5479      0.113      0.165    14.5890   999.1805 0.0000e+00
      0.115     -0.016     4.5030     62.139     41.421  32.799107     1.6881      8.047   220.6784 9.1357e+02     8.2948      0.113      0.164    14.5890   999.1805 0.0000e+00
      0.112     -0.019     4.4856     61.841     41.424  32.801415     1.6800      8.045   220.8541 9.0895e+02     8.2821      0.112      0.162    14.5883   999.1806 0.0000e+00
      0.106     -0.020     4.4630     61.548     41.441  32.814212     1.6816      8.042   221.0058 9.1857e+02     8.2310      0.105      0.152    14.5873   999.1807 0.0000e+00
      0.096     -0.018     4.4440     61.278     41.458  32.826914     1.6897      8.033   221.2221 9.3713e+02     8.1029      0.095      0.137    14.5878   999.1806 0.0000e+00
      0.088     -0.013     4.4240     61.048     41.461  32.828069     1.6830      8.019   221.4911 9.2634e+02     8.0436      0.085      0.123    14.5888   999.1804 0.0000e+00
      0.083     -0.008     4.4017     60.862     41.462  32.828175     1.6783      8.007   221.7621 9.7152e+02     8.0707      0.078      0.115    14.5887   999.1804 0.0000e+00
      0.085     -0.003     4.3808     60.693     41.463  32.828195     1.7023      7.997   222.0038 1.0486e+03     8.2352      0.081      0.118    14.5880   999.1805 0.0000e+00
      0.090      0.001     4.3612     60.524     41.465  32.828310     1.7486      7.987   222.0049 1.0412e+03     8.5572      0.090      0.130    14.5866   999.1807 0.0000e+00
      0.095      0.003     4.3445     60.376     41.467  32.829568     1.7610      7.979   221.3456 1.0210e+03     8.7518      0.094      0.137    14.5856   999.1809 0.0000e+00
      0.095      0.007     4.3323     60.246     41.485  32.843404     1.7471      7.977   220.8287 9.5797e+02     8.7866      0.094      0.137    14.5853   999.1810 0.0000e+00
      0.093      0.015     4.3216     60.125     41.517  32.868674     1.7626      7.977   221.6061 8.4762e+02     9.0111      0.091      0.132    14.5839   999.1811 0.0000e+00
      0.089      0.027     4.3079     60.065     41.534  32.881251     1.7926      7.973   222.3123 8.2802e+02     9.4338      0.086      0.125    14.5823   999.1813 0.0000e+00
      0.091      0.042     4.2979     60.130     41.519  32.868550     1.8076      7.966   222.3128 9.3671e+02     9.6690      0.084      0.122    14.5810   999.1815 0.0000e+00
      0.106      0.055     4.2898     60.368     41.486  32.842032     1.8051      7.959   222.5575 1.1091e+03     9.6922      0.098      0.143    14.5801   999.1817 0.0000e+00
      0.131      0.062     4.2791     60.790     41.451  32.814474     1.7966      7.954   222.6046 1.0863e+03     9.6813      0.129      0.186    14.5810   999.1818 0.0000e+00
      0.160      0.061     4.2731     61.339     41.416  32.789198     1.8268      7.948   220.5598 7.8560e+02     9.6683      0.158      0.228    14.5809   999.1819 0.0000e+00
      0.182      0.052     4.2770     61.924     41.411  32.790272     1.8920      7.943   216.6767 5.4884e+02     9.6666      0.184      0.266    14.5792   999.1822 0.0000e+00
      0.192      0.040     4.2930     62.472     41.454  32.827460     1.9256      7.937   214.1991 6.5631e+02     9.6606      0.193      0.280    14.5779   999.1825 0.0000e+00
      0.192      0.032     4.3251     62.925     41.493  32.858060     1.9296      7.928   213.5765 8.7977e+02     9.6609      0.188      0.273    14.5772   999.1826 0.0000e+00
      0.188      0.029     4.3666     63.283     41.397  32.779484     1.9581      7.918   213.3649 9.0045e+02     9.7360      0.183      0.265    14.5806   999.1821 0.0000e+00
      0.189      0.030     4.4087     63.605     41.143  32.575481     2.0104      7.908   213.2753 9.0331e+02     9.8804      0.181      0.262    14.5884   999.1808 0.0000e+00
      0.200      0.033     4.4494     63.993     40.954  32.422257     2.0415      7.898   213.0944 9.6723e+02     9.9644      0.191      0.278    14.5928   999.1803 0.0000e+00
      0.220      0.036     4.4817     64.768     40.914  32.386481     2.0483      7.889   212.8994 8.8043e+02     9.9330      0.217      0.314    14.5919   999.1806 0.0000e+00
      0.238      0.036     4.5055     66.495     40.932  32.396754     2.0753      7.882   212.8961 7.4970e+02     9.7626      0.237      0.344    14.5888   999.1811 0.0000e+00
      0.246      0.033     4.5273     69.414     40.966  32.419534     2.1252      7.876   212.9692 7.0742e+02     9.5763      0.243      0.352    14.5849   999.1816 0.0000e+00
      0.247      0.028     4.5499     73.161     40.955  32.408073     2.1574      7.872   212.9226 6.5524e+02     9.5478      0.242      0.351    14.5805   999.1822 0.0000e+00
      0.247      0.023     4.5861     77.211     40.929  32.385088     2.1702      7.869   212.7624 6.0096e+02     9.5498      0.241      0.349    14.5750   999.1830 0.0000e+00
      0.252      0.022     4.7002     81.123     40.944  32.395473     2.1755      7.865   212.7525 5.8752e+02     9.5997      0.245      0.356    14.5694   999.1838 0.0000e+00
      0.260      0.024     4.9241     84.588     40.960  32.406707     2.1779      7.857   212.9753 5.8540e+02     9.7911      0.255      0.370    14.5651   999.1845 0.0000e+00
      0.269      0.027     5.2034     87.335     40.946  32.393997     2.1733      7.846   213.2203 5.3319e+02     9.9303      0.264      0.382    14.5618   999.1850 0.0000e+00
      0.276      0.029     5.5045     89.102     40.914  32.368715     2.1629      7.836   213.3909 4.6732e+02     9.9717      0.270      0.393    14.5583   999.1855 0.0000e+00
      0.283      0.029     5.7902     89.846     40.894  32.354879     2.1919      7.825   213.4891 4.5982e+02     9.8652      0.278      0.404    14.5565   999.1859 0.0000e+00
      0.290      0.029     6.0422     89.802     40.890  32.353621     2.2543      7.814   213.5477 4.8428e+02     9.6267      0.285      0.413    14.5554   999.1860 0.0000e+00
      0.296      0.029     6.2479     89.308     40.888  32.353506     2.2852      7.804   213.5832 6.0467e+02     9.5134      0.290      0.420    14.5533   999.1864 0.0000e+00
      0.305      0.028     6.3745     88.617     40.888  32.353496     2.2874      7.796   213.6602 7.0518e+02     9.4784      0.299      0.433    14.5536   999.1863 0.0000e+00
      0.313      0.027     6.4203     87.876     40.889  32.353495     2.2902      7.789   213.9620 6.3116e+02     9.3992      0.308      0.447    14.5567   999.1859 0.0000e+00
      0.320      0.025     6.4066     87.173     40.893  32.353494     2.3013      7.783   214.3931 5.4782e+02     9.2444      0.314      0.455    14.5592   999.1856 0.0000e+00
      0.326      0.023     6.3654     86.537     40.897  32.353486     2.3262      7.777   214.6570 5.1839e+02     9.0491      0.320      0.464    14.5605   999.1854 0.0000e+00
      0.331      0.020     6.3131     85.995     40.899  32.353393     2.3483      7.772   214.8295 4.9749e+02     8.9714      0.323      0.469    14.5608   999.1854 0.0000e+00
      0.336      0.018     6.2578     85.586     40.898  32.352363     2.3607      7.769   215.0160 4.6991e+02     8.9924      0.329      0.478    14.5598   999.1856 0.0000e+00
      0.340      0.016     6.2080     85.250     40.883  32.341034     2.3192      7.767   215.1905 4.6206e+02     8.9095      0.334      0.485    14.5561   999.1861 0.0000e+00
      0.344      0.015     6.1637     84.924     40.885  32.343341     2.2199      7.764   215.4776 5.0538e+02     8.6901      0.338      0.490    14.5509   999.1869 0.0000e+00
      0.347      0.014     6.1222     84.651     40.932  32.380253     2.1654      7.761   215.8191 5.2619e+02     8.5681      0.340      0.494    14.5484   999.1873 0.0000e+00
      0.350      0.013     6.0956     84.442     40.967  32.406572     2.1719      7.756   216.0501 4.9433e+02     8.5825      0.343      0.497    14.5489   999.1872 0.0000e+00
      0.354      0.012     6.0750     84.273     40.970  32.407717     2.2039      7.752   216.2061 4.9698e+02     8.7332      0.347      0.503    14.5500   999.1871 0.0000e+00
      0.358      0.012     6.0479     84.133     40.953  32.394089     2.2493      7.749   216.4160 5.2677e+02     9.0133      0.350      0.509    14.5506   999.1870 0.0000e+00
      0.360      0.012     6.0292     84.000     40.921  32.368725     2.2782      7.746   216.6942 5.0468e+02     9.1837      0.353      0.512    14.5497   999.1872 0.0000e+00
      0.362      0.013     6.0156     83.885     40.902  32.354881     2.2927      7.743   216.9885 4.6802e+02     9.2199      0.355      0.516    14.5482   999.1874 0.0000e+00
      0.364      0.015     6.0034     83.815     40.899  32.353621     2.3034      7.740   217.3071 4.3914e+02     9.1892      0.356      0.517    14.5469   999.1876 0.0000e+00
      0.368      0.017     5.9945     83.769     40.899  32.353498     2.3036      7.737   217.6219 4.7298e+02     9.0745      0.360      0.522    14.5464   999.1877 0.0000e+00
      0.373      0.020     5.9848     83.720     40.899  32.353393     2.2941      7.733   217.9550 5.1430e+02     8.9808      0.365      0.531    14.5469   999.1876 0.0000e+00
      0.379      0.022     5.9747     83.677     40.898  32.352352     2.2937      7.729   218.2370 4.6640e+02     9.0068      0.371      0.538    14.5488   999.1873 0.0000e+00
      0.386      0.023     5.9707     83.649     40.883  32.340910     2.3163      7.725   218.4502 4.4351e+02     9.1588      0.379      0.550    14.5505   999.1871 0.0000e+00
      0.393      0.023     5.9687     83.622     40.883  32.341969     2.3419      7.724   218.7259 4.3166e+02     9.3441      0.386      0.560    14.5496   999.1874 0.0000e+00
      0.398      0.024     5.9643     83.580     40.913  32.365149     2.3431      7.723   219.0752 3.6968e+02     9.4442      0.391      0.566    14.5489   999.1875 0.0000e+00
      0.403      0.026     5.9613     83.537     40.917  32.367343     2.3307      7.720   219.4907 3.2967e+02     9.4843      0.396      0.574    14.5492   999.1874 0.0000e+00
      0.409      0.027     5.9594     83.509     40.920  32.368496     2.3306      7.715   219.9632 3.3850e+02     9.5023      0.400      0.580    14.5496   999.1874 0.0000e+00
      0.416      0.027     5.9582     83.499     40.936  32.379089     2.3419      7.710   220.3997 3.6864e+02     9.5297      0.407      0.590    14.5507   999.1872 0.0000e+00
      0.425      0.026     5.9546     83.508     40.929  32.368498     2.3464      7.705   220.6388 3.7534e+02     9.5861      0.417      0.605    14.5506   999.1873 0.0000e+00
      0.434      0.023     5.9509     83.531     40.934  32.367356     2.3404      7.699   220.7033 3.6170e+02     9.5941      0.426      0.618    14.5488   999.1876 0.0000e+00
      0.440      0.019     5.9496     83.565     40.934  32.365266     2.3394      7.693   220.8368 3.6658e+02     9.5944      0.433      0.628    14.5484   999.1877 0.0000e+00
      0.444      0.015     5.9485     83.599     40.908  32.343230     2.3600      7.688   221.1338 3.9562e+02     9.6547      0.436      0.632    14.5467   999.1880 0.0000e+00
      0.445      0.014     5.9509     83.617     40.925  32.354760     2.3992      7.684   221.4552 4.1577e+02     9.7004      0.436      0.632    14.5385   999.1892 0.0000e+00
      0.445      0.017     5.9532     83.604     40.956  32.377751     2.4223      7.679   221.8829 4.1437e+02     9.6891      0.436      0.632    14.5311   999.1903 0.0000e+00
      0.447      0.026     5.9562     83.556     40.945  32.367366     2.4237      7.665   222.3468 4.0361e+02     9.6818      0.438      0.634    14.5295   999.1905 0.0000e+00
      0.451      0.039     5.9593     83.473     40.934  32.356123     2.4503      7.645   222.5906 3.7620e+02     9.7429      0.442      0.640    14.5279   999.1908 0.0000e+00
      0.460      0.051     5.9608     83.338     40.957  32.368729     2.5103      7.628   222.7651 3.4854e+02     9.8388      0.448      0.651    14.5262   999.1910 0.0000e+00
      0.478      0.059     5.9610     83.170     40.995  32.392857     2.5511      7.616   222.9092 3.3670e+02     9.8903      0.463      0.673    14.5243   999.1914 0.0000e+00
      0.504      0.062     5.9568     83.020     41.000  32.393992     2.5619      7.609   223.0427 3.2612e+02     9.8742      0.496      0.720    14.5221   999.1918 0.0000e+00
      0.528      0.060     5.9528     82.925     40.985  32.382452     2.6323      7.607   223.2594 3.1209e+02     9.6433      0.522      0.758    14.5199   999.1923 0.0000e+00
      0.543      0.055     5.9431     82.893     40.980  32.380259     2.7691      7.607   223.5500 3.0155e+02     9.2292      0.534      0.775    14.5126   999.1934 0.0000e+00
      0.551      0.048     5.9307     82.889     40.962  32.367472     2.8381      7.607   223.8890 2.8589e+02     8.9963      0.541      0.785    14.5037   999.1948 0.0000e+00
      0.556      0.041     5.9199     82.876     40.945  32.354772     2.8414      7.604   224.1754 2.6563e+02     8.9898      0.543      0.788    14.4997   999.1954 0.0000e+00
      0.564      0.037     5.9120     82.851     40.944  32.353628     2.8613      7.598   224.4318 2.5712e+02     9.2166      0.551      0.799    14.5012   999.1951 0.0000e+00
      0.575      0.037     5.9110     82.856     40.945  32.353637     2.8888      7.590   224.6661 2.5253e+02     9.6420      0.563      0.817    14.5045   999.1947 0.0000e+00
      0.587      0.037     5.9112     82.894     40.949  32.354876     2.9043      7.584   224.8573 2.4195e+02     9.9059      0.576      0.835    14.5062   999.1945 0.0000e+00
      0.598      0.037     5.9109     82.891     40.968  32.368607     2.9009      7.579   225.1093 2.3285e+02     9.9167      0.588      0.853    14.5072   999.1944 0.0000e+00
      0.608      0.035     5.9070     82.860     41.001  32.392733     2.8831      7.574   225.4749 2.2982e+02     9.8699      0.597      0.866    14.5068   999.1945 0.0000e+00
      0.616      0.030     5.9068     82.858     41.004  32.392733     2.8358      7.570   225.6647 2.3460e+02     9.8315      0.604      0.876    14.5046   999.1949 0.0000e+00
      0.622      0.027     5.9139     82.859     40.975  32.368606     2.7631      7.565   225.5968 2.4031e+02     9.7475      0.609      0.885    14.5028   999.1952 0.0000e+00
      0.627      0.027     5.9135     82.899     40.957  32.354866     2.7234      7.562   225.6868 2.3811e+02     9.6741      0.615      0.892    14.5012   999.1954 0.0000e+00
      0.632      0.029     5.9070     82.966     40.955  32.353514     2.7209      7.562   225.9783 2.3666e+02     9.6320      0.621      0.901    14.4985   999.1959 0.0000e+00
      0.637      0.034     5.9121     83.009     40.956  32.352256     2.7235      7.560   226.2829 2.4156e+02     9.6317      0.624      0.905    14.4952   999.1964 0.0000e+00
      0.645      0.038     5.9086     83.049     40.945  32.339659     2.7199      7.558   226.5305 2.4115e+02     9.6711      0.631      0.915    14.4937   999.1966 0.0000e+00
      0.659      0.041     5.9113     83.029     40.935  32.328121     2.7213      7.555   226.7343 2.2882e+02     9.6817      0.645      0.936    14.4949   999.1965 0.0000e+00
      0.674      0.043     5.9210     82.971     40.955  32.339670     2.7316      7.551   226.9405 2.1705e+02     9.6613      0.662      0.961    14.4964   999.1963 0.0000e+00
      0.687      0.043     5.9183     82.938     40.976  32.352361     2.7397      7.547   227.0446 2.1139e+02     9.4908      0.675      0.980    14.4931   999.1969 0.0000e+00
      0.697      0.040     5.9288     82.922     40.984  32.354649     2.7591      7.542   227.1322 2.0431e+02     9.1933      0.684      0.992    14.4870   999.1979 0.0000e+00
      0.705      0.035     5.9247     82.887     41.004  32.367330     2.7835      7.538   227.3125 1.9492e+02     9.0457      0.690      1.001    14.4833   999.1983 0.0000e+00
      0.714      0.031     5.9188     82.804     41.021  32.378764     2.7920      7.534   227.4180 1.8866e+02     9.0171      0.701      1.017    14.4787   999.1990 0.0000e+00
      0.721      0.029     5.9187     82.699     41.006  32.365969     2.7668      7.531   227.5461 1.8650e+02     8.9134      0.709      1.028    14.4733   999.1999 0.0000e+00
      0.726      0.030     5.9180     82.637     40.973  32.339546     2.7213      7.527   227.8290 1.8461e+02     8.7751      0.711      1.032    14.4694   999.2005 0.0000e+00
      0.732      0.032     5.9182     82.622     40.940  32.313132     2.7017      7.525   228.0855 1.8164e+02     8.7214      0.717      1.041    14.4649   999.2012 0.0000e+00
      0.741      0.033     5.9111     82.600     40.926  32.300441     2.7120      7.523   228.3247 1.7708e+02     8.7556      0.725      1.051    14.4611   999.2017 0.0000e+00
      0.751      0.033     5.9025     82.608     40.946  32.313019     2.7498      7.519   228.5692 1.7133e+02     8.8281      0.736      1.067    14.4609   999.2018 0.0000e+00
      0.762      0.033     5.8957     82.648     40.982  32.338279     2.8033      7.514   228.7188 1.6864e+02     8.9426      0.748      1.086    14.4620   999.2018 0.0000e+00
      0.772      0.032     5.9002     82.677     41.002  32.352009     2.8303      7.508   228.8428 1.6930e+02     9.0261      0.758      1.099    14.4618   999.2018 0.0000e+00
      0.780      0.029     5.8947     82.725     41.004  32.352112     2.8343      7.503   228.9503 1.6815e+02     9.0501      0.765      1.109    14.4592   999.2022 0.0000e+00
      0.785      0.026     5.8957     82.762     40.989  32.339527     2.8337      7.498   228.9861 1.6609e+02     9.0691      0.770      1.116    14.4551   999.2028 0.0000e+00
      0.790      0.024     5.9031     82.737     40.973  32.326760     2.8148      7.492   229.1038 1.6747e+02     9.1901      0.773      1.123    14.4512   999.2034 0.0000e+00
      0.796      0.024     5.9015     82.669     40.971  32.324672     2.7873      7.486   229.3410 1.6927e+02     9.4650      0.779      1.130    14.4474   999.2040 0.0000e+00
      0.802      0.025     5.9075     82.596     40.958  32.314277     2.7785      7.479   229.5314 1.6619e+02     9.6726      0.786      1.140    14.4452   999.2043 0.0000e+00
      0.808      0.026     5.9121     82.529     40.977  32.327997     2.7862      7.472   229.6841 1.6173e+02     9.7009      0.792      1.149    14.4457   999.2043 0.0000e+00
      0.814      0.028     5.9090     82.490     41.023  32.363642     2.8200      7.466   229.8969 1.5979e+02     9.3489      0.799      1.158    14.4458   999.2043 0.0000e+00
      0.821      0.029     5.9031     82.516     41.026  32.364483     2.8760      7.461   230.0392 1.5776e+02     8.6933      0.805      1.167    14.4450   999.2045 0.0000e+00
      0.829      0.029     5.8980     82.588     40.993  32.338164     2.9078      7.458   230.1145 1.5524e+02     8.3617      0.813      1.179    14.4443   999.2046 0.0000e+00
      0.838      0.028     5.8931     82.673     40.944  32.299266     2.9097      7.455   230.2906 1.5359e+02     8.3546      0.822      1.193    14.4435   999.2047 0.0000e+00
      0.846      0.026     5.8885     82.787     40.912  32.274933     2.8386      7.450   230.4485 1.5226e+02     8.2793      0.830      1.204    14.4423   999.2050 0.0000e+00
      0.852      0.025     5.8914     82.902     40.940  32.297800     2.6980      7.445   230.5603 1.5087e+02     8.1393      0.836      1.213    14.4401   999.2053 0.0000e+00
      0.857      0.023     5.8987     82.946     40.970  32.321915     2.6140      7.441   230.7827 1.4939e+02     8.1046      0.840      1.220    14.4395   999.2054 0.0000e+00
      0.862      0.022     5.9027     82.940     40.959  32.312665     2.6032      7.437   231.0722 1.4826e+02     8.1540      0.845      1.225    14.4403   999.2053 0.0000e+00
      0.867      0.022     5.9112     82.920     40.962  32.312872     2.6637      7.434   231.3071 1.4772e+02     8.3765      0.850      1.232    14.4406   999.2052 0.0000e+00
      0.873      0.022     5.9235     82.852     40.980  32.324421     2.7728      7.430   231.4722 1.4627e+02     8.7622      0.856      1.242    14.4413   999.2052 0.0000e+00
      0.879      0.023     5.9248     82.766     40.984  32.325367     2.8295      7.426   231.6061 1.4456e+02     8.9508      0.864      1.253    14.4422   999.2051 0.0000e+00
      0.884      0.025     5.9217     82.702     40.984  32.324309     2.8299      7.423   231.7213 1.4384e+02     8.9530      0.868      1.258    14.4417   999.2052 0.0000e+00
      0.889      0.027     5.9243     82.651     40.968  32.311625     2.7939      7.420   231.8328 1.4187e+02     8.9200      0.871      1.263    14.4395   999.2056 0.0000e+00
      0.896      0.030     5.9179     82.641     40.952  32.298934     2.7417      7.418   231.9213 1.3891e+02     8.8467      0.879      1.275    14.4358   999.2062 0.0000e+00
      0.904      0.034     5.9099     82.667     40.951  32.297781     2.7188      7.414   231.9311 1.3671e+02     8.7872      0.887      1.286    14.4325   999.2066 0.0000e+00
      0.914      0.037     5.9084     82.707     40.953  32.297676     2.7164      7.409   231.9508 1.3439e+02     8.7581      0.895      1.299    14.4311   999.2068 0.0000e+00
      0.925      0.038     5.9018     82.763     40.958  32.297666     2.7124      7.405   232.0733 1.3150e+02     8.7574      0.907      1.315    14.4309   999.2069 0.0000e+00
      0.937      0.037     5.9019     82.803     40.963  32.297666     2.6882      7.401   232.2079 1.2874e+02     8.6800      0.920      1.334    14.4314   999.2069 0.0000e+00
      0.948      0.036     5.9050     82.796     40.968  32.297665     2.6403      7.397   232.2883 1.2669e+02     8.4775      0.930      1.349    14.4316   999.2070 0.0000e+00
      0.957      0.034     5.9067     82.762     40.973  32.297655     2.6101      7.393   232.3569 1.2547e+02     8.3410      0.939      1.363    14.4295   999.2073 0.0000e+00
      0.963      0.032     5.9131     82.720     40.976  32.297531     2.6091      7.389   232.4345 1.2449e+02     8.3408      0.944      1.370    14.4247   999.2080 0.0000e+00
      0.969      0.032     5.9176     82.675     40.975  32.296169     2.6981      7.388   232.5388 1.2303e+02     8.3118      0.949      1.376    14.4194   999.2088 0.0000e+00
      0.976      0.033     5.9169     82.656     40.957  32.281179     2.8613      7.386   232.6715 1.2094e+02     8.1866      0.956      1.387    14.4142   999.2096 0.0000e+00
      0.986      0.037     5.9140     82.669     40.912  32.243207     2.9438      7.381   232.8342 1.1868e+02     8.1047      0.967      1.401    14.4095   999.2103 0.0000e+00
      0.997      0.044     5.9126     82.690     40.886  32.217822     2.9588      7.374   233.0441 1.1669e+02     8.1082      0.978      1.418    14.4064   999.2107 0.0000e+00
      1.007      0.052     5.9074     82.712     40.906  32.228088     2.9741      7.365   233.2293 1.1463e+02     8.2614      0.987      1.432    14.4059   999.2109 0.0000e+00
      1.018      0.058     5.9066     82.745     40.929  32.240406     2.9815      7.355   233.3527 1.1157e+02     8.5812      0.996      1.444    14.4048   999.2111 0.0000e+00
      1.034      0.062     5.9086     82.811     40.931  32.239823     2.9869      7.345   233.4187 1.0755e+02     8.7623      1.013      1.468    14.4021   999.2116 0.0000e+00
      1.056      0.065     5.9108     82.914     40.906  32.221044     2.9874      7.337   233.4252 1.0346e+02     8.7478      1.036      1.503    14.3980   999.2122 0.0000e+00
      1.076      0.065     5.9132     82.974     40.884  32.203732     3.0138      7.331   233.5166 1.0012e+02     8.7990      1.056      1.532    14.3893   999.2136 0.0000e+00
      1.093      0.061     5.9161     82.925     40.907  32.220884     3.0812      7.324   233.7493 9.7535e+01     8.9549      1.073      1.556    14.3806   999.2150 0.0000e+00
      1.108      0.054     5.9201     82.867     40.932  32.238049     3.1259      7.319   233.9153 9.5352e+01     9.0595      1.088      1.577    14.3792   999.2152 0.0000e+00
      1.120      0.045     5.9296     82.904     40.912  32.220875     3.1299      7.312   233.8893 9.3456e+01     9.0481      1.099      1.594    14.3811   999.2150 0.0000e+00
      1.130      0.037     5.9381     82.969     40.892  32.203618     3.0855      7.302   233.8646 9.2022e+01     8.8493      1.109      1.608    14.3806   999.2151 0.0000e+00
      1.138      0.031     5.9300     82.989     40.914  32.219780     3.0052      7.294   233.9613 9.0979e+01     8.5245      1.116      1.618    14.3788   999.2154 0.0000e+00
      1.144      0.026     5.9223     83.025     40.924  32.225904     2.9567      7.291   234.1128 9.0156e+01     8.3659      1.122      1.627    14.3761   999.2158 0.0000e+00
      1.149      0.026     5.9275     83.019     40.910  32.214194     2.9413      7.292   234.3196 8.9651e+01     8.3730      1.127      1.635    14.3741   999.2161 0.0000e+00
      1.154      0.028     5.9384     82.944     40.899  32.205120     2.9403      7.294   234.3967 8.8976e+01     8.3808      1.130      1.640    14.3732   999.2162 0.0000e+00
      1.159      0.033     5.9320     82.906     40.869  32.179651     2.9453      7.295   234.3569 8.7952e+01     8.5916      1.135      1.647    14.3718   999.2165 0.0000e+00
      1.167      0.039     5.9401     82.905     40.849  32.160096     2.9493      7.295   234.4399 8.6462e+01     9.0208      1.142      1.657    14.3698   999.2168 0.0000e+00
      1.178      0.046     5.9420     82.892     40.853  32.159055     2.9542      7.294   234.6269 8.4387e+01     9.2440      1.154      1.674    14.3687   999.2170 0.0000e+00
      1.193      0.052     5.9293     82.886     40.870  32.167060     2.9525      7.294   234.8962 8.2140e+01     9.2257      1.170      1.698    14.3680   999.2172 0.0000e+00
      1.209      0.056     5.9302     82.930     40.910  32.193414     2.9105      7.292   235.1148 7.9613e+01     9.0297      1.185      1.718    14.3664   999.2175 0.0000e+00
      1.225      0.057     5.9307     82.967     40.954  32.223847     2.8278      7.290   235.2049 7.7184e+01     8.7091      1.201      1.742    14.3618   999.2182 0.0000e+00
      1.240      0.056     5.9320     82.979     40.950  32.217714     2.7770      7.289   235.2969 7.5266e+01     8.5610      1.217      1.765    14.3562   999.2191 0.0000e+00
      1.254      0.054     5.9269     82.948     40.909  32.182722     2.7730      7.286   235.3677 7.3519e+01     8.5495      1.230      1.784    14.3504   999.2199 0.0000e+00
      1.268      0.054     5.9372     82.829     40.911  32.181527     2.7798      7.283   235.3724 7.2233e+01     8.5705      1.244      1.804    14.3425   999.2212 0.0000e+00
      1.280      0.055     5.9386     82.667     40.943  32.203251     2.7812      7.280   235.4404 7.1188e+01     8.6516      1.255      1.820    14.3373   999.2220 0.0000e+00
      1.291      0.056     5.9398     82.512     40.933  32.191542     2.7725      7.275   235.5878 6.9429e+01     8.7106      1.266      1.836    14.3344   999.2225 0.0000e+00
      1.305      0.059     5.9418     82.369     40.907  32.166868     2.7695      7.271   235.7771 6.7328e+01     8.7269      1.279      1.855    14.3312   999.2229 0.0000e+00
      1.321      0.060     5.9297     82.218     40.899  32.158758     2.7622      7.268   236.0085 6.5342e+01     8.5857      1.294      1.877    14.3278   999.2235 0.0000e+00
      1.340      0.060     5.9190     82.085     40.898  32.156937     2.7371      7.265   236.1482 6.3223e+01     8.2482      1.314      1.906    14.3247   999.2241 0.0000e+00
      1.358      0.058     5.9066     81.977     40.883  32.144855     2.7262      7.261   236.1754 6.1374e+01     8.0550      1.333      1.933    14.3199   999.2248 0.0000e+00
      1.373      0.053     5.9004     81.904     40.877  32.139595     2.7336      7.258   236.1664 5.9926e+01     8.0859      1.347      1.953    14.3126   999.2258 0.0000e+00
      1.386      0.047     5.8869     81.886     40.900  32.156798     2.7749      7.257   236.2109 5.8535e+01     8.1627      1.360      1.972    14.3100   999.2263 0.0000e+00
      1.396      0.042     5.8781     81.896     40.908  32.162472     2.8520      7.257   236.3693 5.7488e+01     8.2620      1.370      1.986    14.3111   999.2263 0.0000e+00
      1.404      0.040     5.8708     81.943     40.887  32.144740     2.8946      7.257   236.5330 5.6939e+01     8.3364      1.377      1.997    14.3104   999.2264 0.0000e+00
      1.411      0.040     5.8633     82.019     40.874  32.132776     2.9004      7.257   236.6410 5.6329e+01     8.3414      1.384      2.007    14.3092   999.2266 0.0000e+00
      1.420      0.042     5.8650     82.070     40.892  32.144740     2.9041      7.256   236.7295 5.5236e+01     8.3225      1.391      2.017    14.3084   999.2267 0.0000e+00
      1.431      0.045     5.8644     82.089     40.917  32.162473     2.9400      7.255   236.8276 5.3782e+01     8.4354      1.402      2.033    14.3070   999.2270 0.0000e+00
      1.445      0.048     5.8677     82.100     40.912  32.156799     3.0049      7.254   236.9675 5.2322e+01     8.6578      1.417      2.056    14.3063   999.2271 0.0000e+00
      1.459      0.050     5.8760     82.096     40.892  32.139597     3.0292      7.252   237.1295 5.1112e+01     8.7502      1.432      2.077    14.3044   999.2274 0.0000e+00
      1.473      0.050     5.8802     82.065     40.899  32.144856     3.0267      7.250   237.2384 5.0092e+01     8.7336      1.444      2.095    14.3003   999.2282 0.0000e+00
      1.485      0.049     5.8801     82.007     40.916  32.156924     3.0004      7.248   237.2524 4.9037e+01     8.6531      1.457      2.112    14.2977   999.2285 0.0000e+00
      1.496      0.047     5.8822     81.915     40.920  32.158588     2.9364      7.246   237.2975 4.7890e+01     8.4649      1.468      2.128    14.2959   999.2289 0.0000e+00
      1.508      0.045     5.8824     81.805     40.929  32.164981     2.8948      7.246   237.4399 4.6716e+01     8.3263      1.479      2.145    14.2948   999.2291 0.0000e+00
      1.519      0.044     5.8797     81.702     40.938  32.170761     2.8869      7.245   237.5972 4.5598e+01     8.2882      1.489      2.160    14.2941   999.2292 0.0000e+00
      1.530      0.043     5.8765     81.605     40.932  32.165008     2.8670      7.244   237.7370 4.4663e+01     8.2335      1.501      2.176    14.2930   999.2295 0.0000e+00
      1.542      0.040     5.8697     81.528     40.925  32.158875     2.8189      7.242   237.8402 4.3974e+01     8.1249      1.513      2.194    14.2917   999.2297 0.0000e+00
      1.552      0.038     5.8607     81.465     40.929  32.160071     2.7819      7.241   237.8981 4.3359e+01     8.0560      1.522      2.209    14.2895   999.2300 0.0000e+00
      1.562      0.035     5.8543     81.392     40.955  32.179472     2.7752      7.239   237.9212 4.2684e+01     8.0895      1.532      2.223    14.2885   999.2302 0.0000e+00
      1.570      0.033     5.8468     81.329     40.986  32.203069     2.8067      7.238   237.9477 4.2012e+01     8.2670      1.540      2.233    14.2877   999.2303 0.0000e+00
      1.577      0.032     5.8409     81.282     40.972  32.191530     2.8682      7.237   238.0462 4.1390e+01     8.5625      1.546      2.242    14.2862   999.2306 0.0000e+00
      1.584      0.032     5.8389     81.231     40.941  32.166880     2.9035      7.236   238.1647 4.0893e+01     8.7460      1.553      2.253    14.2849   999.2308 0.0000e+00
      1.591      0.033     5.8318     81.174     40.931  32.158871     2.9050      7.234   238.1771 4.0382e+01     8.7818      1.560      2.262    14.2831   999.2311 0.0000e+00
      1.600      0.035     5.8275     81.098     40.931  32.158148     2.9116      7.232   238.1954 3.9591e+01     8.7995      1.568      2.274    14.2816   999.2314 0.0000e+00
      1.610      0.035     5.8255     80.991     40.932  32.158134     2.9402      7.231   238.3866 3.8667e+01     8.8290      1.578      2.290    14.2811   999.2315 0.0000e+00
      1.620      0.035     5.8211     80.878     40.933  32.158700     2.9652      7.231   238.6820 3.7848e+01     8.8434      1.589      2.305    14.2814   999.2315 0.0000e+00
      1.630      0.035     5.8177     80.789     40.942  32.164993     2.9710      7.230   238.8420 3.7234e+01     8.8092      1.599      2.320    14.2807   999.2317 0.0000e+00
      1.638      0.036     5.8131     80.716     40.949  32.170762     2.9670      7.228   238.8575 3.6821e+01     8.7436      1.608      2.332    14.2794   999.2319 0.0000e+00
      1.645      0.040     5.8048     80.665     40.943  32.164995     2.9595      7.225   238.9560 3.6374e+01     8.6399      1.613      2.339    14.2786   999.2320 0.0000e+00
      1.653      0.047     5.7950     80.643     40.935  32.158716     2.9587      7.222   239.0860 3.5778e+01     8.4727      1.621      2.351    14.2784   999.2321 0.0000e+00
      1.663      0.055     5.7900     80.642     40.934  32.158314     2.9662      7.219   239.1387 3.4948e+01     8.3284      1.631      2.364    14.2780   999.2322 0.0000e+00
      1.678      0.062     5.7844     80.662     40.937  32.160135     2.9714      7.215   239.1637 3.3648e+01     8.3045      1.643      2.383    14.2773   999.2324 0.0000e+00
      1.699      0.067     5.7801     80.689     40.965  32.180728     2.9960      7.210   239.2158 3.2105e+01     8.4464      1.664      2.416    14.2774   999.2324 0.0000e+00
      1.723      0.069     5.7794     80.711     41.014  32.216916     3.0470      7.206   239.2528 3.0811e+01     8.6669      1.691      2.452    14.2773   999.2326 0.0000e+00
      1.743      0.066     5.7788     80.721     41.017  32.216918     3.0762      7.205   239.2667 2.9864e+01     8.7740      1.711      2.481    14.2765   999.2328 0.0000e+00
      1.760      0.061     5.7810     80.698     40.974  32.180745     3.0804      7.204   239.3842 2.9175e+01     8.7587      1.727      2.504    14.2761   999.2329 0.0000e+00
      1.773      0.053     5.7834     80.643     40.949  32.160319     3.0372      7.203   239.5545 2.8618e+01     8.6787      1.739      2.522    14.2745   999.2332 0.0000e+00
      1.783      0.047     5.7853     80.560     40.949  32.160319     2.9442      7.202   239.6052 2.8079e+01     8.5933      1.749      2.536    14.2715   999.2337 0.0000e+00
      1.793      0.043     5.7874     80.458     40.976  32.180746     2.9009      7.200   239.5667 2.7567e+01     8.5784      1.758      2.550    14.2687   999.2341 0.0000e+00
      1.803      0.042     5.7857     80.368     41.022  32.216920     2.9114      7.199   239.6059 2.7028e+01     8.5963      1.767      2.563    14.2666   999.2344 0.0000e+00
      1.814      0.043     5.7817     80.288     41.022  32.216933     2.9240      7.198   239.7347 2.6434e+01     8.6788      1.778      2.578    14.2655   999.2346 0.0000e+00
      1.825      0.045     5.7761     80.193     40.976  32.180906     2.9412      7.196   239.8332 2.5872e+01     8.8549      1.789      2.595    14.2651   999.2348 0.0000e+00
      1.836      0.048     5.7675     80.096     40.954  32.162077     2.9545      7.192   239.9371 2.5346e+01     8.9886      1.800      2.611    14.2647   999.2349 0.0000e+00
      1.847      0.051     5.7608     80.021     40.982  32.179658     2.9810      7.189   240.1300 2.4716e+01     9.0174      1.810      2.626    14.2645   999.2350 0.0000e+00
      1.861      0.053     5.7567     79.952     41.019  32.203091     3.2529      7.186   240.2721 2.3970e+01     9.0064      1.824      2.646    14.2642   999.2351 0.0000e+00
      1.876      0.055     5.7493     79.893     41.010  32.191554     3.7543      7.183   240.2784 2.3248e+01     9.0189      1.841      2.670    14.2644   999.2351 0.0000e+00
      1.891      0.055     5.7407     79.863     40.982  32.167075     4.0320      7.179   240.2932 2.2573e+01     9.0380      1.855      2.689    14.2638   999.2352 0.0000e+00
      1.906      0.053     5.7376     79.837     40.973  32.160951     4.0610      7.177   240.3656 2.1933e+01     9.0405      1.869      2.711    14.2581   999.2361 0.0000e+00
      1.920      0.050     5.7336     79.802     40.998  32.180977     4.0442      7.175   240.4652 2.1398e+01     9.0170      1.884      2.733    14.2509   999.2373 0.0000e+00
      1.933      0.045     5.7284     79.779     41.047  32.218831     3.8126      7.173   240.5505 2.0967e+01     8.8846      1.896      2.748    14.2444   999.2382 0.0000e+00
      1.943      0.040     5.7286     79.738     41.072  32.237876     3.3934      7.171   240.6228 2.0578e+01     8.6844      1.905      2.764    14.2402   999.2388 0.0000e+00
      1.953      0.036     5.7270     79.664     41.051  32.220867     3.1632      7.170   240.7367 2.0247e+01     8.5633      1.916      2.779    14.2427   999.2386 0.0000e+00
      1.961      0.034     5.7222     79.593     41.029  32.203562     3.1439      7.168   240.8090 1.9962e+01     8.5345      1.923      2.789    14.2451   999.2382 0.0000e+00
      1.967      0.034     5.7226     79.517     41.049  32.219013     3.1775      7.166   240.8949 1.9663e+01     8.4350      1.928      2.797    14.2433   999.2386 0.0000e+00
      1.974      0.034     5.7207     79.420     41.049  32.217296     3.2320      7.165   241.0875 1.9309e+01     8.2119      1.934      2.807    14.2421   999.2388 0.0000e+00
      1.984      0.035     5.7130     79.324     41.007  32.182809     3.2563      7.164   241.2443 1.8918e+01     8.0980      1.944      2.821    14.2413   999.2389 0.0000e+00
      1.995      0.038     5.7093     79.235     41.008  32.182795     3.2538      7.163   241.3288 1.8546e+01     8.1073      1.956      2.837    14.2410   999.2390 0.0000e+00
      2.005      0.040     5.7044     79.160     41.054  32.217124     3.1668      7.161   241.4204 1.8214e+01     8.1277      1.967      2.853    14.2408   999.2392 0.0000e+00
      2.014      0.041     5.6966     79.122     41.056  32.217110     3.0027      7.158   241.4915 1.7916e+01     8.2126      1.976      2.866    14.2393   999.2394 0.0000e+00
      2.024      0.041     5.6895     79.119     41.013  32.182629     2.9081      7.156   241.5005 1.7557e+01     8.2824      1.984      2.877    14.2380   999.2395 0.0000e+00
      2.036      0.040     5.6840     79.125     41.011  32.180978     2.8897      7.155   241.5289 1.7147e+01     8.2832      1.996      2.895    14.2369   999.2397 0.0000e+00
      2.047      0.039     5.6772     79.134     41.031  32.197142     2.8937      7.154   241.6623 1.6825e+01     8.3529      2.009      2.915    14.2345   999.2402 0.0000e+00
      2.057      0.039     5.6752     79.129     41.019  32.187690     2.9051      7.153   241.8228 1.6558e+01     8.5025      2.018      2.926    14.2325   999.2405 0.0000e+00
      2.065      0.040     5.6762     79.099     41.028  32.193614     2.9054      7.150   241.9205 1.6271e+01     8.5847      2.025      2.938    14.2313   999.2407 0.0000e+00
      2.074      0.043     5.6764     79.069     41.044  32.205308     2.9058      7.147   241.9840 1.5988e+01     8.5602      2.033      2.949    14.2308   999.2408 0.0000e+00
      2.083      0.046     5.6775     79.065     41.041  32.202154     2.9094      7.142   241.9879 1.5672e+01     8.4682      2.042      2.961    14.2317   999.2407 0.0000e+00
      2.096      0.047     5.6776     79.060     41.064  32.218941     2.9058      7.136   241.9682 1.5254e+01     8.3579      2.055      2.980    14.2318   999.2407 0.0000e+00
      2.112      0.046     5.6752     79.040     41.063  32.217900     2.8977      7.128   242.0896 1.4784e+01     8.3078      2.070      3.003    14.2308   999.2409 0.0000e+00
      2.127      0.043     5.6708     79.019     41.027  32.189562     2.8986      7.118   242.3380 1.4395e+01     8.3210      2.087      3.027    14.2297   999.2412 0.0000e+00
      2.140      0.039     5.6733     79.001     41.032  32.193614     2.9080      7.110   242.5617 1.4175e+01     8.3217      2.101      3.049    14.2282   999.2414 0.0000e+00
      2.147      0.037     5.6728     78.989     41.044  32.203436     2.8983      7.109   242.7294 1.4080e+01     8.2497      2.107      3.056    14.2268   999.2418 0.0000e+00
      2.151      0.037     5.6709     78.987     41.016  32.181396     2.8682      7.110   242.9035 1.3958e+01     8.1390      2.108      3.057    14.2259   999.2419 0.0000e+00
      2.156      0.038     5.6698     78.998     41.016  32.180964     2.8472      7.108   243.0317 1.3664e+01     8.0653      2.112      3.062    14.2260   999.2418 0.0000e+00
      2.167      0.040     5.6679     79.012     41.039  32.198218     2.8438      7.105   243.1609 1.3239e+01     8.0468      2.124      3.080    14.2270   999.2418 0.0000e+00
      2.182      0.045     5.6673     79.035     41.042  32.199632     2.8872      7.103   243.4329 1.2838e+01     8.1125      2.140      3.104    14.2278   999.2417 0.0000e+00
      2.196      0.049     5.6664     79.076     41.042  32.198059     2.9734      7.100   243.6527 1.2501e+01     8.2360      2.153      3.123    14.2272   999.2418 0.0000e+00
      2.208      0.049     5.6684     79.115     41.020  32.179190     3.0194      7.099   243.6683 1.2191e+01     8.2948      2.166      3.141    14.2269   999.2420 0.0000e+00
      2.220      0.045     5.6688     79.118     41.000  32.161875     3.0091      7.101   243.6219 1.1888e+01     8.2671      2.177      3.158    14.2262   999.2421 0.0000e+00
      2.233      0.041     5.6701     79.063     41.024  32.179077     2.9100      7.104   243.6941 1.1597e+01     8.0971      2.189      3.175    14.2240   999.2425 0.0000e+00
      2.244      0.039     5.6743     78.949     41.049  32.196800     2.7404      7.105   243.9384 1.1386e+01     7.8121      2.202      3.194    14.2217   999.2429 0.0000e+00
      2.251      0.039     5.6783     78.804     41.037  32.185771     2.6662      7.103   244.1655 1.1258e+01     7.6721      2.209      3.204    14.2199   999.2431 0.0000e+00
      2.257      0.039     5.6791     78.668     41.022  32.172649     2.6806      7.098   244.2040 1.1099e+01     7.6830      2.211      3.206    14.2182   999.2435 0.0000e+00
      2.266      0.040     5.6757     78.561     41.014  32.165061     2.6629      7.095   244.1460 1.0884e+01     7.6813      2.221      3.221    14.2160   999.2438 0.0000e+00
      2.279      0.041     5.6670     78.475     41.007  32.157483     2.6166      7.093   244.1520 1.0668e+01     7.6839      2.234      3.242    14.2142   999.2441 0.0000e+00
      2.292      0.042     5.6552     78.388     40.993  32.144480     2.5983      7.092   244.1903 1.0458e+01     7.7144      2.248      3.260    14.2126   999.2444 0.0000e+00
      2.304      0.042     5.6455     78.311     40.983  32.134761     2.5972      7.094   244.2656 1.0266e+01     7.6905      2.260      3.278    14.2110   999.2446 0.0000e+00
      2.314      0.040     5.6379     78.271     41.025  32.166891     2.5686      7.097   244.3733 1.0104e+01     7.6244      2.269      3.291    14.2090   999.2450 0.0000e+00
      2.324      0.036     5.6335     78.254     41.087  32.215666     2.5386      7.099   244.3738 9.9586e+00     7.6031      2.279      3.307    14.2063   999.2454 0.0000e+00
      2.333      0.034     5.6272     78.253     41.089  32.216811     2.5391      7.102   244.3581 9.8284e+00     7.5975      2.289      3.321    14.2037   999.2458 0.0000e+00
      2.339      0.032     5.6201     78.253     41.043  32.180732     2.5392      7.104   244.4425 9.7183e+00     7.5893      2.294      3.328    14.2014   999.2462 0.0000e+00
      2.346      0.032     5.6191     78.247     41.017  32.160196     2.5304      7.105   244.5339 9.5990e+00     7.6016      2.299      3.335    14.2001   999.2464 0.0000e+00
      2.355      0.032     5.6172     78.240     41.016  32.158896     2.5634      7.105   244.5164 9.4554e+00     7.6158      2.308      3.348    14.1998   999.2465 0.0000e+00
      2.365      0.033     5.6177     78.222     41.024  32.165020     2.6257      7.105   244.4034 9.3183e+00     7.6296      2.319      3.364    14.2002   999.2465 0.0000e+00
      2.374      0.035     5.6185     78.203     41.031  32.170772     2.6512      7.105   244.4574 9.2010e+00     7.6371      2.328      3.376    14.2004   999.2465 0.0000e+00
      2.381      0.035     5.6166     78.187     41.025  32.164992     2.6552      7.105   244.6527 9.0886e+00     7.6410      2.335      3.387    14.2001   999.2465 0.0000e+00
      2.390      0.035     5.6179     78.167     41.017  32.158589     2.6481      7.105   244.7001 8.9562e+00     7.6438      2.343      3.400    14.1999   999.2466 0.0000e+00
      2.400      0.035     5.6152     78.155     41.015  32.156811     2.6169      7.104   244.6863 8.8194e+00     7.6391      2.355      3.415    14.1997   999.2467 0.0000e+00
      2.410      0.035     5.6142     78.155     40.999  32.143486     2.5989      7.104   244.7448 8.7097e+00     7.6494      2.365      3.429    14.1993   999.2468 0.0000e+00
      2.418      0.035     5.6135     78.159     40.976  32.124403     2.6038      7.104   244.8905 8.6008e+00     7.6695      2.372      3.440    14.1989   999.2469 0.0000e+00
      2.426      0.035     5.6115     78.142     40.966  32.116454     2.6247      7.103   244.9855 8.4747e+00     7.7183      2.378      3.449    14.1982   999.2470 0.0000e+00
      2.434      0.035     5.6109     78.111     40.960  32.110841     2.6519      7.101   244.9466 8.3575e+00     7.8131      2.387      3.462    14.1973   999.2472 0.0000e+00
      2.444      0.035     5.6106     78.071     40.973  32.120001     2.6548      7.099   245.0233 8.2357e+00     7.8666      2.397      3.475    14.1966   999.2473 0.0000e+00
      2.454      0.036     5.6129     78.034     41.029  32.163735     2.6595      7.099   245.1384 8.0933e+00     7.8728      2.405      3.489    14.1960   999.2474 0.0000e+00
      2.464      0.036     5.6105     78.032     41.070  32.195408     2.8471      7.099   245.1329 7.9534e+00     7.8225      2.417      3.505    14.1951   999.2476 0.0000e+00
      2.473      0.036     5.6085     78.056     41.057  32.185648     3.1895      7.098   245.1294 7.8244e+00     7.6846      2.426      3.517    14.1941   999.2478 0.0000e+00
      2.481      0.036     5.6061     78.096     41.041  32.172650     3.3660      7.097   245.0962 7.7064e+00     7.6150      2.433      3.529    14.1933   999.2479 0.0000e+00
      2.490      0.037     5.6011     78.161     41.031  32.165174     3.3688      7.095   245.0757 7.5989e+00     7.6357      2.442      3.543    14.1928   999.2481 0.0000e+00
      2.498      0.041     5.6027     78.244     41.023  32.158720     3.2585      7.094   245.1394 7.4941e+00     7.7061      2.450      3.553    14.1927   999.2482 0.0000e+00
      2.508      0.046     5.6042     78.320     41.023  32.158072     3.0469      7.093   245.2637 7.3618e+00     7.8104      2.458      3.565    14.1925   999.2482 0.0000e+00
      2.519      0.052     5.6067     78.372     41.023  32.157333     2.9253      7.093   245.4606 7.1933e+00     7.8480      2.470      3.582    14.1925   999.2483 0.0000e+00
      2.533      0.057     5.6117     78.421     41.015  32.149785     2.9069      7.092   245.5413 6.9900e+00     7.8659      2.484      3.601    14.1925   999.2483 0.0000e+00
      2.550      0.061     5.6181     78.460     40.991  32.130274     2.9193      7.092   245.4652 6.7518e+00     7.9616      2.499      3.624    14.1920   999.2485 0.0000e+00
      2.569      0.062     5.6251     78.465     40.968  32.111803     2.9538      7.091   245.3999 6.5262e+00     8.0867      2.520      3.655    14.1914   999.2486 0.0000e+00
      2.588      0.060     5.6271     78.447     40.975  32.116839     2.9698      7.090   245.4413 6.3394e+00     8.1011      2.538      3.682    14.1904   999.2489 0.0000e+00
      2.603      0.056     5.6314     78.417     40.990  32.127705     2.9651      7.088   245.6210 6.1823e+00     8.0367      2.553      3.704    14.1893   999.2491 0.0000e+00
      2.616      0.050     5.6354     78.404     40.976  32.116261     2.9574      7.087   245.7656 6.0588e+00     8.0289      2.566      3.722    14.1889   999.2492 0.0000e+00
      2.627      0.043     5.6347     78.408     40.962  32.105386     2.9375      7.086   245.8133 5.9618e+00     7.9741      2.576      3.737    14.1880   999.2494 0.0000e+00
      2.636      0.037     5.6341     78.388     40.985  32.123133     2.9155      7.086   245.8533 5.8782e+00     7.8008      2.585      3.749    14.1870   999.2495 0.0000e+00
      2.645      0.031     5.6307     78.360     41.007  32.140450     2.9079      7.085   245.9053 5.8071e+00     7.6703      2.594      3.762    14.1863   999.2497 0.0000e+00
      2.653      0.026     5.6290     78.333     40.987  32.124392     2.8970      7.083   245.9260 5.7453e+00     7.6083      2.602      3.774    14.1862   999.2497 0.0000e+00
      2.659      0.022     5.6324     78.300     40.982  32.119361     2.8879      7.083   245.9312 5.7067e+00     7.5754      2.609      3.784    14.1859   999.2498 0.0000e+00
      2.664      0.021     5.6292     78.295     41.014  32.143071     2.9023      7.083   246.0549 5.6946e+00     7.6007      2.613      3.790    14.1854   999.2499 0.0000e+00
      2.666      0.021     5.6267     78.309     41.033  32.157228     2.9148      7.083   246.2167 5.6817e+00     7.6202      2.615      3.792    14.1853   999.2500 0.0000e+00
      2.669      0.022     5.6268     78.314     41.042  32.163612     2.9090      7.082   246.2532 5.6398e+00     7.5807      2.616      3.794    14.1845   999.2501 0.0000e+00
      2.674      0.025     5.6217     78.305     41.035  32.156792     2.9020      7.081   246.2376 5.5583e+00     7.5163      2.621      3.801    14.1837   999.2502 0.0000e+00
      2.683      0.028     5.6224     78.287     41.012  32.138227     2.8993      7.079   246.2865 5.4713e+00     7.4641      2.631      3.815    14.1825   999.2505 0.0000e+00
      2.692      0.033     5.6247     78.274     41.002  32.129528     2.9020      7.078   246.4141 5.3970e+00     7.4420      2.641      3.830    14.1812   999.2507 0.0000e+00
      2.701      0.037     5.6248     78.283     40.984  32.115068     2.8994      7.078   246.5759 5.3160e+00     7.4454      2.649      3.843    14.1805   999.2508 0.0000e+00
      2.710      0.039     5.6246     78.321     40.954  32.090309     2.8415      7.077   246.6949 5.2264e+00     7.4722      2.657      3.854    14.1791   999.2510 0.0000e+00
      2.720      0.041     5.6228     78.362     40.949  32.084009     2.7311      7.075   246.7333 5.1385e+00     7.5042      2.666      3.867    14.1782   999.2512 0.0000e+00
      2.730      0.042     5.6215     78.387     40.975  32.102355     2.6663      7.073   246.7820 5.0447e+00     7.5052      2.677      3.882    14.1777   999.2513 0.0000e+00
      2.743      0.043     5.6218     78.418     41.003  32.121752     2.6649      7.073   246.8531 4.9389e+00     7.4841      2.690      3.901    14.1765   999.2515 0.0000e+00
      2.755      0.044     5.6256     78.476     41.013  32.128154     2.6709      7.073   246.8191 4.8404e+00     7.4453      2.702      3.919    14.1749   999.2518 0.0000e+00
      2.765      0.044     5.6298     78.530     41.000  32.116304     2.6958      7.071   246.8002 4.7364e+00     7.4620      2.712      3.933    14.1730   999.2521 0.0000e+00
      2.776      0.044     5.6312     78.549     40.988  32.105392     2.7483      7.069   246.8831 4.6181e+00     7.5873      2.724      3.949    14.1696   999.2527 0.0000e+00
      2.787      0.043     5.6324     78.544     41.013  32.123125     2.7858      7.068   246.9616 4.5087e+00     7.6828      2.734      3.965    14.1666   999.2531 0.0000e+00
      2.798      0.043     5.6385     78.547     41.038  32.140328     2.7938      7.068   247.0620 4.4042e+00     7.6990      2.743      3.979    14.1648   999.2535 0.0000e+00
      2.810      0.043     5.6435     78.584     41.018  32.123012     2.8017      7.068   247.1502 4.3156e+00     7.6855      2.757      3.998    14.1630   999.2537 0.0000e+00
      2.821      0.043     5.6443     78.650     40.995  32.104136     2.8290      7.068   247.1670 4.2528e+00     7.6498      2.767      4.013    14.1615   999.2540 0.0000e+00
      2.832      0.044     5.6436     78.731     40.995  32.102482     2.8553      7.068   247.1793 4.1869e+00     7.6278      2.777      4.026    14.1594   999.2543 0.0000e+00
      2.842      0.044     5.6432     78.823     40.997  32.103012     2.8596      7.068   247.2126 4.1242e+00     7.6165      2.788      4.044    14.1566   999.2548 0.0000e+00
      2.853      0.045     5.6464     78.916     41.010  32.110540     2.8203      7.068   247.1396 4.0632e+00     7.6440      2.797      4.057    14.1542   999.2552 0.0000e+00
      2.865      0.046     5.6521     78.993     41.040  32.130040     2.7530      7.068   247.0712 3.9806e+00     7.7307      2.809      4.074    14.1524   999.2555 0.0000e+00
      2.878      0.048     5.6578     79.039     41.071  32.148398     2.7215      7.066   247.1592 3.8990e+00     7.8125      2.824      4.095    14.1508   999.2558 0.0000e+00
      2.889      0.051     5.6649     79.038     41.072  32.142120     2.7178      7.066   247.1718 3.8141e+00     7.8475      2.833      4.109    14.1499   999.2560 0.0000e+00
      2.901      0.054     5.6725     78.980     41.047  32.117579     2.6989      7.066   247.1372 3.7270e+00     7.7932      2.843      4.125    14.1474   999.2564 0.0000e+00
      2.915      0.056     5.6787     78.866     41.035  32.105513     2.6672      7.065   247.1714 3.6436e+00     7.6802      2.859      4.147    14.1417   999.2572 0.0000e+00
      2.931      0.056     5.6838     78.695     41.060  32.123141     2.6551      7.065   247.1545 3.5361e+00     7.5952      2.874      4.168    14.1345   999.2583 0.0000e+00
      2.948      0.056     5.6848     78.472     41.084  32.140344     2.6661      7.065   247.1058 3.4252e+00     7.5852      2.891      4.194    14.1252   999.2597 0.0000e+00
      2.963      0.055     5.6817     78.238     41.064  32.123132     2.6786      7.065   247.0985 3.3438e+00     7.7882      2.907      4.217    14.1182   999.2608 0.0000e+00
      2.976      0.052     5.6734     78.031     41.044  32.105410     2.6932      7.065   247.1525 3.2825e+00     8.1161      2.918      4.232    14.1163   999.2611 0.0000e+00
      2.989      0.047     5.6620     77.857     41.063  32.116448     2.7033      7.064   247.2418 3.2177e+00     8.2722      2.930      4.249    14.1144   999.2614 0.0000e+00
      3.002      0.043     5.6447     77.732     41.085  32.129660     2.7146      7.063   247.3182 3.1502e+00     8.2998      2.945      4.271    14.1118   999.2618 0.0000e+00
      3.012      0.040     5.6265     77.656     41.099  32.138227     2.7432      7.063   247.3876 3.1085e+00     8.2853      2.956      4.287    14.1107   999.2620 0.0000e+00
      3.019      0.038     5.6129     77.611     41.123  32.156575     2.7721      7.063   247.3931 3.0881e+00     8.1954      2.960      4.293    14.1081   999.2624 0.0000e+00
      3.027      0.035     5.5997     77.576     41.128  32.161115     2.7775      7.063   247.2983 3.0422e+00     8.0986      2.967      4.303    14.1033   999.2631 0.0000e+00
      3.037      0.033     5.5915     77.538     41.089  32.129662     2.7740      7.063   247.2743 2.9772e+00     8.0642      2.978      4.319    14.0975   999.2640 0.0000e+00
      3.047      0.033     5.5875     77.515     41.046  32.093584     2.7814      7.062   247.3608 2.9242e+00     8.0750      2.989      4.335    14.0938   999.2646 0.0000e+00
      3.056      0.036     5.5841     77.522     41.064  32.105652     2.8152      7.062   247.3973 2.8852e+00     8.0327      2.998      4.348    14.0946   999.2645 0.0000e+00
      3.062      0.041     5.5826     77.537     41.123  32.148656     2.8703      7.061   247.2864 2.8525e+00     7.9133      3.002      4.355    14.0962   999.2643 0.0000e+00
      3.069      0.048     5.5789     77.543     41.158  32.169318     2.9003      7.058   247.0523 2.8025e+00     7.8110      3.007      4.361    14.0947   999.2645 0.0000e+00
      3.079      0.057     5.5768     77.547     41.163  32.165074     2.9098      7.053   246.8897 2.7205e+00     7.8116      3.017      4.377    14.0906   999.2651 0.0000e+00
      3.096      0.064     5.5792     77.551     41.164  32.160802     3.0023      7.049   246.8691 2.6161e+00     7.9861      3.035      4.401    14.0883   999.2656 0.0000e+00
      3.119      0.069     5.5804     77.542     41.192  32.181126     3.1703      7.048   246.8893 2.5101e+00     8.2171      3.059      4.436    14.0865   999.2660 0.0000e+00
      3.143      0.070     5.5820     77.498     41.244  32.220421     3.2581      7.046   246.9615 2.4169e+00     8.3100      3.084      4.473    14.0776   999.2673 0.0000e+00
      3.163      0.066     5.5831     77.383     41.291  32.255146     3.2579      7.043   247.0536 2.3429e+00     8.3233      3.102      4.500    14.0654   999.2691 0.0000e+00
      3.179      0.057     5.5851     77.216     41.330  32.283677     3.1675      7.040   246.9715 2.2826e+00     8.0819      3.118      4.523    14.0593   999.2699 0.0000e+00
      3.191      0.047     5.5845     77.049     41.368  32.311541     2.9985      7.038   246.7430 2.2375e+00     7.5539      3.132      4.542    14.0583   999.2702 0.0000e+00
      3.200      0.037     5.5832     76.874     41.405  32.338211     2.9040      7.036   246.6135 2.2058e+00     7.2161      3.139      4.553    14.0575   999.2704 0.0000e+00
      3.207      0.029     5.5751     76.677     41.426  32.352286     2.8832      7.036   246.6100 2.1733e+00     7.1445      3.145      4.562    14.0548   999.2708 0.0000e+00
      3.213      0.022     5.5603     76.482     41.432  32.354805     2.7908      7.036   246.6140 2.1548e+00     7.2124      3.152      4.572    14.0520   999.2712 0.0000e+00
      3.218      0.017     5.5499     76.307     41.453  32.368662     2.6277      7.036   246.5761 2.1511e+00     7.3489      3.156      4.578    14.0503   999.2715 0.0000e+00
      3.222      0.013     5.5380     76.134     41.485  32.392902     2.5411      7.036   246.5830 2.1429e+00     7.4179      3.159      4.583    14.0483   999.2718 0.0000e+00
      3.224      0.010     5.5232     75.952     41.486  32.394049     2.5335      7.035   246.6105 2.1307e+00     7.4245      3.162      4.587    14.0455   999.2722 0.0000e+00
      3.226      0.008     5.5088     75.728     41.470  32.382520     2.5265      7.035   246.4782 2.1162e+00     7.3634      3.164      4.589    14.0419   999.2728 0.0000e+00
      3.227      0.007     5.4979     75.457     41.466  32.380431     2.5513      7.035   246.2752 2.1138e+00     7.2682      3.165      4.590    14.0389   999.2732 0.0000e+00
      3.228      0.007     5.4850     75.203     41.450  32.368798     2.6163      7.035   246.2199 2.1246e+00     7.2243      3.166      4.592    14.0378   999.2734 0.0000e+00
      3.230      0.008     5.4730     74.985     41.450  32.368789     2.6543      7.035   246.2404 2.1195e+00     7.1931      3.167      4.594    14.0386   999.2732 0.0000e+00
      3.232      0.009     5.4580     74.769     41.465  32.380327     2.6554      7.036   246.2647 2.1005e+00     7.1522      3.169      4.597    14.0403   999.2730 0.0000e+00
      3.235      0.009     5.4346     74.571     41.468  32.381375     2.6814      7.037   246.3411 2.0880e+00     7.0912      3.172      4.602    14.0414   999.2729 0.0000e+00
      3.238      0.009     5.4164     74.485     41.468  32.381462     2.7087      7.037   246.3901 2.0807e+00     7.0455      3.175      4.605    14.0417   999.2728 0.0000e+00
      3.241 -9.990e-29     5.4023 -9.990e-29 -9.990e-29 -9.990e-29 -9.990e-29 -9.990e-29 -9.990e-29 2.0809e+00 -9.990e-29      3.179      4.610    14.0424   999.2728 0.0000e+00
      3.243 -9.990e-29     5.3866 -9.990e-29 -9.990e-29 -9.990e-29 -9.990e-29 -9.990e-29 -9.990e-29 2.0831e+00 -9.990e-29      3.181      4.613    14.0420   999.2728 0.0000e+00
      3.244 -9.990e-29     5.3695 -9.990e-29 -9.990e-29 -9.990e-29 -9.990e-29 -9.990e-29 -9.990e-29 2.0705e+00 -9.990e-29      3.181      4.614    14.0404   999.2730 0.0000e+00
      3.244 -9.990e-29     5.3605 -9.990e-29 -9.990e-29 -9.990e-29 -9.990e-29 -9.990e-29 -9.990e-29 2.0592e+00 -9.990e-29      3.182      4.615    14.0398   999.2731 0.0000e+00
