* Sea-Bird SBE19plus  Data File:
* FileName = C:\R\Reservoirs\Data\DataNotYetUploadedToEDI\Raw_CTD\RawDownloads\102824_ccr50_S8188_0003.hex
* Software version 2.8.0.119
* Temperature SN = 8188
* Conductivity SN = 8188
* System UpLoad Time = Oct 31 2024 10:23:00
* <ApplicationData>
* <Seaterm232>
* <SoftwareVersion>2.8.0.119</SoftwareVersion>
* <BuildDate>07-Nov-2018</BuildDate>
* </Seaterm232>
* </ApplicationData>
* <InstrumentState>
* <HardwareData DeviceType='SBE19plus' SerialNumber='01908188'>
*
*    <Manufacturer>Sea-Bird Electronics, Inc.</Manufacturer>
*
*    <FirmwareVersion>3.1.8</FirmwareVersion>
*
*    <FirmwareDate>Mar  9 2016 16:22:29</FirmwareDate>
*
*    <CommandSetVersion>1.4</CommandSetVersion>
*
*    <PCBAssembly PCBSerialNum='260079' AssemblyNum='41054K'/>
*
*    <PCBAssembly PCBSerialNum='260083' AssemblyNum='41059E'/>
*
*    <PCBAssembly PCBSerialNum='260085' AssemblyNum='41606B'/>
*
*    <PCBAssembly PCBSerialNum='260081' AssemblyNum='41967C'/>
*
*    <MfgDate>30 Mar 2022</MfgDate>
*
*    <InternalSensors>
*
*       <Sensor id='Main Temperature'>
*
*          <type>temperature0</type>
*
*          <SerialNumber>01908188</SerialNumber>
*
*       </Sensor>
*
*       <Sensor id='Main Conductivity'>
*
*          <type>conductivity-0</type>
*
*          <SerialNumber>01908188</SerialNumber>
*
*       </Sensor>
*
*       <Sensor id='Main Pressure'>
*
*          <type>strain-0</type>
*
*          <SerialNumber>12220741</SerialNumber>
*
*       </Sensor>
*
*    </InternalSensors>
*
*    <ExternalSensors>
*
*       <Sensor id='volt 0'>
*
*          <type>CHL</type>
*
*          <SerialNumber>FLNTURT-7096</SerialNumber>
*
*       </Sensor>
*
*       <Sensor id='volt 1'>
*
*          <type>NTU</type>
*
*          <SerialNumber>FLNTURT-7096</SerialNumber>
*
*       </Sensor>
*
*       <Sensor id='volt 2'>
*
*          <type>OXY</type>
*
*          <SerialNumber>43-4269</SerialNumber>
*
*       </Sensor>
*
*       <Sensor id='volt 3'>
*
*          <type>not assigned</type>
*
*          <SerialNumber>not assigned</SerialNumber>
*
*       </Sensor>
*
*       <Sensor id='volt 4'>
*
*          <type>PAR</type>
*
*          <SerialNumber>PARLOGICSW-2209</SerialNumber>
*
*       </Sensor>
*
*       <Sensor id='volt 5'>
*
*          <type>not assigned</type>
*
*          <SerialNumber>not assigned</SerialNumber>
*
*       </Sensor>
*
*       <Sensor id='serial'>
*
*          <type>WETLABS</type>
*
*          <SerialNumber>FL3-7350</SerialNumber>
*
*       </Sensor>
*
*    </ExternalSensors>
*
* </HardwareData>
* <StatusData DeviceType='SBE19plus' SerialNumber='01908188'>
*
*    <DateTime>2024-10-31T10:21:24</DateTime>
*
*    <LoggingState>not logging</LoggingState>
*
*    <EventSummary numEvents='0'/>
*
*    <Power>
*
*       <vMain>12.3</vMain>
*
*       <vLith>8.5</vLith>
*
*       <iMain>61.7</iMain>
*
*       <iPump>57.2</iPump>
*
*       <iExt01>22.7</iExt01>
*
*       <iExt2345>21.3</iExt2345>
*
*       <iSerial>55.4</iSerial>
*
*    </Power>
*
*    <MemorySummary>
*
*       <Bytes>116025</Bytes>
*
*       <Samples>4641</Samples>
*
*       <SamplesFree>2627284</SamplesFree>
*
*       <SampleLength>25</SampleLength>
*
*       <Profiles>3</Profiles>
*
*    </MemorySummary>
*
* </StatusData>
* <ConfigurationData DeviceType='SBE19plus' SerialNumber='01908188'>
*
*    <ProfileMode>
*
*       <ScansToAverage>1</ScansToAverage>
*
*       <MinimumCondFreq>2</MinimumCondFreq>
*
*       <PumpDelay>90</PumpDelay>
*
*       <AutoRun>no</AutoRun>
*
*       <IgnoreSwitch>no</IgnoreSwitch>
*
*    </ProfileMode>
*
*    <Battery>
*
*       <Type>alkaline</Type>
*
*       <CutOff>7.5</CutOff>
*
*    </Battery>
*
*    <DataChannels>
*
*       <ExtVolt0>yes</ExtVolt0>
*
*       <ExtVolt1>yes</ExtVolt1>
*
*       <ExtVolt2>yes</ExtVolt2>
*
*       <ExtVolt3>no</ExtVolt3>
*
*       <ExtVolt4>yes</ExtVolt4>
*
*       <ExtVolt5>no</ExtVolt5>
*
*       <SBE38>no</SBE38>
*
*       <WETLABS>yes</WETLABS>
*
*       <OPTODE>no</OPTODE>
*
*       <SBE63>no</SBE63>
*
*       <SeaFET>no</SeaFET>
*
*       <GTD>no</GTD>
*
*    </DataChannels>
*
*    <EchoCharacters>yes</EchoCharacters>
*
*    <OutputExecutedTag>yes</OutputExecutedTag>
*
*    <OutputFormat>raw HEX</OutputFormat>
*
* </ConfigurationData>
* <CalibrationCoefficients DeviceType='SBE19plus' SerialNumber='01908188'>
*
*    <Calibration format='TEMP1' id='Main Temperature'>
*
*       <SerialNum>01908188</SerialNum>
*
*       <CalDate>07-May-24</CalDate>
*
*       <TA0>1.249325e-03</TA0>
*
*       <TA1>2.751683e-04</TA1>
*
*       <TA2>-1.314205e-06</TA2>
*
*       <TA3>1.914222e-07</TA3>
*
*       <TOFFSET>0.000000e+00</TOFFSET>
*
*    </Calibration>
*
*    <Calibration format='WBCOND0' id='Main Conductivity'>
*
*       <SerialNum>01908188</SerialNum>
*
*       <CalDate>07-May-24</CalDate>
*
*       <G>-1.014855e+00</G>
*
*       <H>1.444624e-01</H>
*
*       <I>-3.430060e-04</I>
*
*       <J>4.842261e-05</J>
*
*       <CPCOR>-9.570000e-08</CPCOR>
*
*       <CTCOR>3.250000e-06</CTCOR>
*
*       <CSLOPE>1.000000e+00</CSLOPE>
*
*    </Calibration>
*
*    <Calibration format='STRAIN0' id='Main Pressure'>
*
*       <SerialNum>12220741</SerialNum>
*
*       <CalDate>03-Apr-24</CalDate>
*
*       <PA0>7.209200e-02</PA0>
*
*       <PA1>4.836684e-04</PA1>
*
*       <PA2>-3.501227e-12</PA2>
*
*       <PTCA0>5.244614e+05</PTCA0>
*
*       <PTCA1>2.020364e+01</PTCA1>
*
*       <PTCA2>-6.074616e-01</PTCA2>
*
*       <PTCB0>2.522087e+01</PTCB0>
*
*       <PTCB1>5.750000e-04</PTCB1>
*
*       <PTCB2>0.000000e+00</PTCB2>
*
*       <PTEMPA0>-5.770713e+01</PTEMPA0>
*
*       <PTEMPA1>5.343973e+01</PTEMPA1>
*
*       <PTEMPA2>-5.775530e-01</PTEMPA2>
*
*       <POFFSET>7.020000e-01</POFFSET>
*
*       <PRANGE>1.600000e+02</PRANGE>
*
*    </Calibration>
*
*    <Calibration format='VOLT0' id='Volt 0'>
*
*       <OFFSET>-4.657200e-02</OFFSET>
*
*       <SLOPE>1.248989e+00</SLOPE>
*
*    </Calibration>
*
*    <Calibration format='VOLT0' id='Volt 1'>
*
*       <OFFSET>-4.600800e-02</OFFSET>
*
*       <SLOPE>1.249849e+00</SLOPE>
*
*    </Calibration>
*
*    <Calibration format='VOLT0' id='Volt 2'>
*
*       <OFFSET>-4.668000e-02</OFFSET>
*
*       <SLOPE>1.250379e+00</SLOPE>
*
*    </Calibration>
*
*    <Calibration format='VOLT0' id='Volt 3'>
*
*       <OFFSET>-4.643200e-02</OFFSET>
*
*       <SLOPE>1.251002e+00</SLOPE>
*
*    </Calibration>
*
*    <Calibration format='VOLT0' id='Volt 4'>
*
*       <OFFSET>-4.606100e-02</OFFSET>
*
*       <SLOPE>1.249962e+00</SLOPE>
*
*    </Calibration>
*
*    <Calibration format='VOLT0' id='Volt 5'>
*
*       <OFFSET>-4.642700e-02</OFFSET>
*
*       <SLOPE>1.248530e+00</SLOPE>
*
*    </Calibration>
*
*    <Calibration format='FREQ0' id='external frequency channel'>
*
*       <EXTFREQSF>1.000018e+00</EXTFREQSF>
*
*    </Calibration>
*
* </CalibrationCoefficients>
* <EventCounters DeviceType='SBE19plus' SerialNumber='01908188'>
*
*    <EventSummary numEvents='0'/>
*
* </EventCounters></InstrumentState>
* <Headers>
*
* cast   3 28 Oct 2024 11:27:57 samples 3782 to 4641, avg = 1, stop = mag switch
*
# nquan = 16
# nvalues = 860                         
# units = specified
# name 0 = depFM: Depth [fresh water, m]
# name 1 = dz/dtM: Descent Rate [m/s]
# name 2 = sbeox0Mg/L: Oxygen, SBE 43 [mg/l]
# name 3 = sbeox0PS: Oxygen, SBE 43 [% saturation]
# name 4 = specc: Specific Conductance [uS/cm]
# name 5 = c0uS/cm: Conductivity [uS/cm]
# name 6 = wetCDOM: Fluorescence, WET Labs CDOM [mg/m^3]
# name 7 = flECO-AFL: Fluorescence, WET Labs ECO-AFL/FL [mg/m^3]
# name 8 = flECO-AFL1: Fluorescence, WET Labs ECO-AFL/FL, 2 [mg/m^3]
# name 9 = flECO-AFL2: Fluorescence, WET Labs ECO-AFL/FL, 3 [mg/m^3]
# name 10 = par/sat/log: PAR/Logarithmic, Satlantic
# name 11 = turbWETntu0: Turbidity, WET Labs ECO [NTU]
# name 12 = prdM: Pressure, Strain Gauge [db]
# name 13 = prdE: Pressure, Strain Gauge [psi]
# name 14 = tv290C: Temperature [ITS-90, deg C]
# name 15 = flag:  0.000e+00
# span 0 =     -0.353,      4.005       
# span 1 =     -0.559,      0.120       
# span 2 =     5.1921,    12.6851       
# span 3 =     53.189,    129.805       
# span 4 =   -573.665,    135.241       
# span 5 =-472.341285, 112.212526       
# span 6 =    -4.5000,    22.7700       
# span 7 =    -2.8595,     9.7749       
# span 8 =    -3.6210,     7.7532       
# span 9 =    -2.6226,     4.6107       
# span 10 = 3.4041e+01, 1.7596e+03      
# span 11 =    -1.0800,   119.8017      
# span 12 =     -0.346,      3.928      
# span 13 =     -0.502,      5.697      
# span 14 =    15.4892,    16.5196      
# span 15 = 0.0000e+00, 0.0000e+00      
# interval = seconds: 0.25
# start_time = Oct 28 2024 11:27:57 [Instrument's time stamp, header]
# bad_flag = -9.990e-29
# <Sensors count="10" >
#   <sensor Channel="1" >
#     <!-- Count, Temperature -->
#     <TemperatureSensor SensorID="58" >
#       <SerialNumber>8188</SerialNumber>
#       <CalibrationDate>07-May-24</CalibrationDate>
#       <A0>1.24932504e-003</A0>
#       <A1>2.75168293e-004</A1>
#       <A2>-1.31420465e-006</A2>
#       <A3>1.91422179e-007</A3>
#       <Slope>1.00000000</Slope>
#       <Offset>0.0000</Offset>
#     </TemperatureSensor>
#   </sensor>
#   <sensor Channel="2" >
#     <!-- Frequency 0, Conductivity -->
#     <ConductivitySensor SensorID="3" >
#       <SerialNumber>8188</SerialNumber>
#       <CalibrationDate>07-May-24</CalibrationDate>
#       <UseG_J>1</UseG_J>
#       <!-- Cell const and series R are applicable only for wide range sensors. -->
#       <SeriesR>0.0000</SeriesR>
#       <CellConst>2000.0000</CellConst>
#       <ConductivityType>0</ConductivityType>
#       <Coefficients equation="0" >
#         <A>0.00000000e+000</A>
#         <B>0.00000000e+000</B>
#         <C>0.00000000e+000</C>
#         <D>0.00000000e+000</D>
#         <M>0.0</M>
#         <CPcor>-9.57000000e-008</CPcor>
#       </Coefficients>
#       <Coefficients equation="1" >
#         <G>-1.01485473e+000</G>
#         <H>1.44462400e-001</H>
#         <I>-3.43006030e-004</I>
#         <J>4.84226116e-005</J>
#         <CPcor>-9.57000000e-008</CPcor>
#         <CTcor>3.2500e-006</CTcor>
#         <!-- WBOTC not applicable unless ConductivityType = 1. -->
#         <WBOTC>0.00000000e+000</WBOTC>
#       </Coefficients>
#       <Slope>1.00000000</Slope>
#       <Offset>0.00000</Offset>
#     </ConductivitySensor>
#   </sensor>
#   <sensor Channel="3" >
#     <!-- Count, Pressure, Strain Gauge -->
#     <PressureSensor SensorID="46" >
#       <SerialNumber>8188</SerialNumber>
#       <CalibrationDate>03-Apr-24</CalibrationDate>
#       <PA0>7.20920045e-002</PA0>
#       <PA1>4.83668449e-004</PA1>
#       <PA2>-3.50122678e-012</PA2>
#       <PTEMPA0>-5.77071299e+001</PTEMPA0>
#       <PTEMPA1>5.34397285e+001</PTEMPA1>
#       <PTEMPA2>-5.77553003e-001</PTEMPA2>
#       <PTCA0>5.24461366e+005</PTCA0>
#       <PTCA1>2.02036405e+001</PTCA1>
#       <PTCA2>-6.07461634e-001</PTCA2>
#       <PTCB0>2.52208750e+001</PTCB0>
#       <PTCB1>5.75000000e-004</PTCB1>
#       <PTCB2>0.00000000e+000</PTCB2>
#       <Offset>0.000000</Offset>
#     </PressureSensor>
#   </sensor>
#   <sensor Channel="4" >
#     <!-- A/D voltage 0, Fluorometer, WET Labs ECO-AFL/FL -->
#     <FluoroWetlabECO_AFL_FL_Sensor SensorID="20" >
#       <SerialNumber>FLNTURT-7096</SerialNumber>
#       <CalibrationDate>21-Mar-2024</CalibrationDate>
#       <ScaleFactor>5.00000000e+001</ScaleFactor>
#       <!-- Dark output -->
#       <Vblank>0.0710</Vblank>
#     </FluoroWetlabECO_AFL_FL_Sensor>
#   </sensor>
#   <sensor Channel="5" >
#     <!-- A/D voltage 1, Turbidity Meter, WET Labs, ECO-NTU -->
#     <TurbidityMeter SensorID="67" >
#       <SerialNumber>FLNTURT-7096</SerialNumber>
#       <CalibrationDate>21-Mar-2024</CalibrationDate>
#       <ScaleFactor>198.000000</ScaleFactor>
#       <!-- Dark output -->
#       <DarkVoltage>0.070000</DarkVoltage>
#     </TurbidityMeter>
#   </sensor>
#   <sensor Channel="6" >
#     <!-- A/D voltage 2, Oxygen, SBE 43 -->
#     <OxygenSensor SensorID="38" >
#       <SerialNumber>4269</SerialNumber>
#       <CalibrationDate>08-May-24</CalibrationDate>
#       <Use2007Equation>1</Use2007Equation>
#       <CalibrationCoefficients equation="0" >
#         <!-- Coefficients for Owens-Millard equation. -->
#         <Boc>0.0000</Boc>
#         <Soc>0.0000e+000</Soc>
#         <offset>0.0000</offset>
#         <Pcor>0.00e+000</Pcor>
#         <Tcor>0.0000</Tcor>
#         <Tau>0.0</Tau>
#       </CalibrationCoefficients>
#       <CalibrationCoefficients equation="1" >
#         <!-- Coefficients for Sea-Bird equation - SBE calibration in 2007 and later. -->
#         <Soc>4.3983e-001</Soc>
#         <offset>-0.4978</offset>
#         <A>-4.5504e-003</A>
#         <B> 2.4929e-004</B>
#         <C>-4.1306e-006</C>
#         <D0> 2.5826e+000</D0>
#         <D1> 1.92634e-004</D1>
#         <D2>-4.64803e-002</D2>
#         <E> 3.6000e-002</E>
#         <Tau20> 1.9700</Tau20>
#         <H1>-3.3000e-002</H1>
#         <H2> 5.0000e+003</H2>
#         <H3> 1.4500e+003</H3>
#       </CalibrationCoefficients>
#     </OxygenSensor>
#   </sensor>
#   <sensor Channel="7" >
#     <!-- A/D voltage 3, PAR/Logarithmic, Satlantic -->
#     <PARLog_SatlanticSensor SensorID="76" >
#       <SerialNumber>2209</SerialNumber>
#       <CalibrationDate>14-Jan-2022</CalibrationDate>
#       <a0>9.8861e-001</a0>
#       <a1>8.0845e-001</a1>
#       <Im>1.3589e+000</Im>
#       <Multiplier>1.0000e+000</Multiplier>
#     </PARLog_SatlanticSensor>
#   </sensor>
#   <sensor Channel="8" >
#     <!-- Serial RS-232, Fluorometer, WET Labs ECO-AFL/FL, 2 -->
#     <FluoroWetlabECO_AFL_FL_Sensor SensorID="20" >
#       <SerialNumber>FL3-7350</SerialNumber>
#       <CalibrationDate>10-Mar-2022</CalibrationDate>
#       <ScaleFactor>4.26000000e-002</ScaleFactor>
#       <!-- Dark output -->
#       <Vblank>50.0000</Vblank>
#     </FluoroWetlabECO_AFL_FL_Sensor>
#   </sensor>
#   <sensor Channel="9" >
#     <!-- Serial RS-232, Fluorometer, WET Labs ECO-AFL/FL, 3 -->
#     <FluoroWetlabECO_AFL_FL_Sensor SensorID="20" >
#       <SerialNumber>FL3-7350</SerialNumber>
#       <CalibrationDate>10-Mar-2022</CalibrationDate>
#       <ScaleFactor>4.23000000e-002</ScaleFactor>
#       <!-- Dark output -->
#       <Vblank>48.0000</Vblank>
#     </FluoroWetlabECO_AFL_FL_Sensor>
#   </sensor>
#   <sensor Channel="10" >
#     <!-- Serial RS-232, Fluorometer, WET Labs ECO CDOM -->
#     <FluoroWetlabCDOM_Sensor SensorID="19" >
#       <SerialNumber>FL3-7350</SerialNumber>
#       <CalibrationDate>10-Mar-2022</CalibrationDate>
#       <ScaleFactor>0.090</ScaleFactor>
#       <!-- Dark output -->
#       <Vblank>50.000</Vblank>
#     </FluoroWetlabCDOM_Sensor>
#   </sensor>
# </Sensors>
# datcnv_date = Oct 31 2024 10:26:32, 7.26.7.129 [datcnv_vars = 15]
# datcnv_in = C:\R\Reservoirs\Data\DataNotYetUploadedToEDI\Raw_CTD\RawDownloads\102824_ccr90_S8188003.hex C:\R\Reservoirs\Data\DataNotYetUploadedToEDI\Raw_CTD\RawDownloads\SBE19plusV2_8188_start20240601.xmlcon
# datcnv_skipover = 0
# datcnv_ox_hysteresis_correction = yes
# datcnv_ox_tau_correction = yes
# filter_date = Oct 31 2024 10:27:17, 7.26.7.129
# filter_in = C:\R\Reservoirs\Data\DataNotYetUploadedToEDI\Raw_CTD\RawDownloads\102824_ccr90_S8188003.cnv
# filter_low_pass_tc_A = 0.500
# filter_low_pass_tc_B = 1.000
# filter_low_pass_A_vars = sbeox0Mg/L sbeox0PS specc c0uS/cm tv290C
# filter_low_pass_B_vars = depFM dz/dtM prdM prdE
# alignctd_date = Oct 31 2024 10:27:47, 7.26.7.129
# alignctd_in = C:\R\Reservoirs\Data\DataNotYetUploadedToEDI\Raw_CTD\RawDownloads\102824_ccr90_S8188003.cnv
# alignctd_adv = dz/dtM 1.000, sbeox0PS 1.000, specc 1.000, c0uS/cm 1.000, flECO-AFL 1.000, turbWETntu0 1.000                                                                                                                        
# file_type = ascii
*END*
      0.034      0.099    10.1301    105.218    134.763 111.857091    -4.5000     1.6495    -2.1300    -2.0304 1.1794e+03     2.2586      0.034      0.049    16.4633 0.0000e+00
      0.064      0.110    10.1459    105.952    134.751 111.843008    -4.5000     1.6571    -2.1300    -2.0304 1.4982e+03     2.1830      0.063      0.091    16.4749 0.0000e+00
      0.097      0.118    10.1726    106.759    134.738 111.822579    -4.5000     1.6228    -2.1300    -2.0304 1.5839e+03     2.2435      0.095      0.138    16.4867 0.0000e+00
      0.131      0.120    10.2146    107.574    134.741 111.814352    20.2500     1.8441     0.1278     0.5076 1.6026e+03     2.2586      0.129      0.186    16.4947 0.0000e+00
      0.164      0.117    10.2731    108.332    134.765 111.824128    20.2500     1.7983     0.1278     0.5076 1.6622e+03     2.1528      0.161      0.233    16.4974 0.0000e+00
      0.194      0.110    10.3450    108.965    134.782 111.830521    20.2500     1.8174     0.1278     0.5076 1.2768e+03     2.2132      0.191      0.276    16.4960 0.0000e+00
      0.222      0.099    10.4245    109.412    134.790 111.831236    20.2500     1.8517     0.1278     0.5076 1.4644e+03     2.2435      0.218      0.316    16.4924 0.0000e+00
      0.247      0.088    10.5050    109.637    134.806 111.838460    20.2500     1.9967     0.1278     0.5076 1.0265e+03     2.2132      0.242      0.350    16.4883 0.0000e+00
      0.267      0.077    10.5799    109.636    134.826 111.850120    20.5200     2.0195     0.0852     0.3807 5.8307e+02     2.1679      0.262      0.380    16.4846 0.0000e+00
      0.284      0.066    10.6423    109.424    134.858 111.873325    20.5200     2.0005     0.0852     0.3807 8.4382e+02     2.2737      0.279      0.404    16.4817 0.0000e+00
      0.299      0.057    10.6865    109.013    134.903 111.910263    20.5200     2.0119     0.0852     0.3807 7.7863e+02     2.2435      0.293      0.425    16.4794 0.0000e+00
      0.311      0.050    10.7090    108.403    134.938 111.942790    20.5200     2.1225     0.0852     0.3807 9.2105e+02     2.2435      0.305      0.443    16.4773 0.0000e+00
      0.322      0.044    10.7093    107.555    134.952 111.963584    20.7000     2.1378     0.0426     0.4230 1.1142e+03     2.1830      0.316      0.458    16.4754 0.0000e+00
      0.333      0.040    10.6888    106.364    134.954 111.978190    20.7000     2.1340     0.0426     0.4230 8.8245e+02     2.2737      0.326      0.473    16.4742 0.0000e+00
      0.342      0.037    10.6488    104.647    134.950 111.990504    20.7000     2.1187     0.0426     0.4230 8.4639e+02     2.1528      0.335      0.486    16.4740 0.0000e+00
      0.351      0.035    10.5889    102.278    134.946 112.001811    20.7000     2.0157     0.0426     0.4230 9.1865e+02     1.9715      0.344      0.499    16.4754 0.0000e+00
      0.360      0.033    10.5053     99.391    134.944 112.013126    20.9700     2.0005     0.0426     0.4230 4.8770e+02     2.0622      0.353      0.512    16.4788 0.0000e+00
      0.368      0.031    10.3880     96.279    134.945 112.023469    20.9700     1.9814     0.0426     0.4230 4.6584e+02     1.9111      0.361      0.523    16.4837 0.0000e+00
      0.376      0.030    10.2191     93.169    134.943 112.027601    20.9700     1.9928     0.0426     0.4230 2.9587e+02     2.0471      0.368      0.534    16.4894 0.0000e+00
      0.383      0.028     9.9865     90.210    134.941 112.028622    20.9700     2.1492     0.0426     0.4230 3.2754e+02     2.2737      0.375      0.544    16.4948 0.0000e+00
      0.389      0.027     9.7037     87.557    134.945 112.030804    20.9700     2.1225     0.0426     0.4230 3.4688e+02     2.1981      0.382      0.554    16.4994 0.0000e+00
      0.396      0.027     9.3992     85.372    134.948 112.030729    21.0600     2.1111     0.0852     0.5076 4.1715e+02     2.1679      0.389      0.563    16.5029 0.0000e+00
      0.403      0.026     9.0951     83.770    134.950 112.028378    21.0600     2.0920     0.0852     0.5076 3.0981e+02     2.2283      0.395      0.573    16.5051 0.0000e+00
      0.409      0.025     8.8061     82.730    134.951 112.025122    21.0600     2.2751     0.0852     0.5076 5.4485e+02     2.2132      0.401      0.582    16.5060 0.0000e+00
      0.416      0.024     8.5472     82.073    134.949 112.020094    21.0600     2.2522     0.0852     0.5076 5.9420e+02     2.2737      0.408      0.591    16.5057 0.0000e+00
      0.422      0.022     8.3340     81.628    134.951 112.017950    21.1500     2.2713     0.0852     0.4653 4.3825e+02     2.2283      0.414      0.601    16.5047 0.0000e+00
      0.428      0.021     8.1779     81.332    134.961 112.022119    21.1500     2.2866     0.0852     0.4653 7.0671e+02     2.2132      0.420      0.609    16.5034 0.0000e+00
      0.433      0.019     8.0766     81.156    134.972 112.027714    21.1500     2.3629     0.0852     0.4653 7.5383e+02     2.2132      0.425      0.616    16.5020 0.0000e+00
      0.437      0.017     8.0127     81.053    134.985 112.034225    21.1500     2.3858     0.0852     0.4653 1.0049e+03     2.1528      0.429      0.622    16.5006 0.0000e+00
      0.441      0.016     7.9695     80.967    134.996 112.039391    21.2400     2.3896     0.0852     0.5922 7.7492e+02     2.3492      0.432      0.627    16.4992 0.0000e+00
      0.444      0.015     7.9407     80.863    134.998 112.036591    21.2400     2.3591     0.0852     0.5922 5.9240e+02     2.1075      0.436      0.632    16.4978 0.0000e+00
      0.448      0.015     7.9238     80.754    134.994 112.029076    21.2400     2.3018     0.0852     0.5922 6.0239e+02     2.1377      0.439      0.637    16.4963 0.0000e+00
      0.451      0.015     7.9140     80.700    134.991 112.022841    21.2400     2.3095     0.0852     0.5922 4.5741e+02     2.3039      0.443      0.642    16.4948 0.0000e+00
      0.455      0.015     7.9059     80.776    134.989 112.016224    21.1500     2.3209     0.0852     0.5499 6.1790e+02     2.0622      0.447      0.648    16.4933 0.0000e+00
      0.459      0.015     7.8960     81.063    134.986 112.009459    21.1500     2.3209     0.0852     0.5499 8.5583e+02     2.1981      0.450      0.653    16.4918 0.0000e+00
      0.463      0.014     7.8856     81.630    134.987 112.006740    21.1500     2.4430     0.0852     0.5499 6.5838e+02     2.3492      0.454      0.659    16.4903 0.0000e+00
      0.467      0.013     7.8806     82.496    134.988 112.005343    21.1500     2.4201     0.0852     0.5499 6.1683e+02     2.4096      0.458      0.664    16.4887 0.0000e+00
      0.470      0.012     7.8883     83.628    134.988 112.004895    21.1500     2.4010     0.0852     0.5499 6.0004e+02     2.2737      0.461      0.669    16.4870 0.0000e+00
      0.473      0.011     7.9166     84.940    134.992 112.009275    21.1500     2.4544     0.0426     0.5499 6.2479e+02     2.3341      0.464      0.673    16.4853 0.0000e+00
      0.475      0.011     7.9722     86.311    134.998 112.015653    21.1500     2.4964     0.0426     0.5499 5.8702e+02     2.2888      0.466      0.676    16.4839 0.0000e+00
      0.478      0.010     8.0570     87.609    135.003 112.021731    21.1500     2.4811     0.0426     0.5499 7.1864e+02     2.4398      0.469      0.680    16.4831 0.0000e+00
      0.480      0.009     8.1675     88.717    135.009 112.029129    21.1500     2.4773     0.0426     0.5499 6.8658e+02     2.3492      0.471      0.683    16.4830 0.0000e+00
      0.483      0.008     8.2955     89.556    135.014 112.033821    21.1500     2.5307     0.0852     0.5076 5.6046e+02     2.3643      0.474      0.687    16.4833 0.0000e+00
      0.485      0.007     8.4294     90.091    135.010 112.031060    21.1500     2.6223     0.0852     0.5076 8.2550e+02     2.2737      0.476      0.690    16.4839 0.0000e+00
      0.487      0.006     8.5560     90.313    135.003 112.024110    21.1500     2.6375     0.0852     0.5076 6.2847e+02     2.2737      0.478      0.692    16.4847 0.0000e+00
      0.488      0.005     8.6640     90.224    134.995 112.015115    21.1500     2.5956     0.0852     0.5076 6.6471e+02     2.1830      0.479      0.694    16.4854 0.0000e+00
      0.489      0.004     8.7459     89.837    134.989 112.007676    21.2400     2.5994     0.1278     0.5076 6.4507e+02     2.2586      0.480      0.695    16.4859 0.0000e+00
      0.489      0.002     8.7982     89.183    134.989 112.005808    21.2400     2.5727     0.1278     0.5076 4.9593e+02     2.3945      0.480      0.696    16.4859 0.0000e+00
      0.490      0.001     8.8199     88.333    134.989 112.003013    21.2400     2.5651     0.1278     0.5076 4.9517e+02     2.4549      0.481      0.697    16.4855 0.0000e+00
      0.490      0.001     8.8114     87.398    134.986 111.996546    21.2400     2.5841     0.1278     0.5076 5.3815e+02     2.3039      0.481      0.698    16.4847 0.0000e+00
      0.490      0.000     8.7737     86.506    134.994 111.998681    21.2400     2.5536     0.1278     0.5076 4.5662e+02     2.3039      0.481      0.697    16.4838 0.0000e+00
      0.490      0.001     8.7099     85.751    135.014 112.009986    21.2400     2.6871     0.0426     0.5499 3.9493e+02     2.3341      0.481      0.697    16.4830 0.0000e+00
      0.490      0.001     8.6271     85.164    135.023 112.013480    21.2400     2.6871     0.0426     0.5499 4.5632e+02     2.3039      0.481      0.697    16.4820 0.0000e+00
      0.490      0.002     8.5361     84.732    135.016 112.004096    21.2400     2.6795     0.0426     0.5499 4.7021e+02     2.3794      0.481      0.697    16.4806 0.0000e+00
      0.491      0.002     8.4493     84.427    135.001 111.989328    21.2400     2.6642     0.0426     0.5499 5.5755e+02     2.4096      0.482      0.698    16.4788 0.0000e+00
      0.492      0.003     8.3759     84.224    134.993 111.981236    21.2400     2.5879     0.1278     0.5499 8.0164e+02     2.2283      0.483      0.700    16.4770 0.0000e+00
      0.493      0.003     8.3188     84.106    134.998 111.983660    21.2400     2.5765     0.1278     0.5499 4.4778e+02     2.2283      0.484      0.701    16.4755 0.0000e+00
      0.494      0.003     8.2768     84.037    135.002 111.985249    21.2400     2.5651     0.1278     0.5499 5.8816e+02     2.1075      0.485      0.703    16.4743 0.0000e+00
      0.495      0.003     8.2471     83.962    135.002 111.982428    21.2400     2.5689     0.1278     0.5499 3.8093e+02     2.1377      0.485      0.704    16.4734 0.0000e+00
      0.496      0.003     8.2275     83.827    135.000 111.978443    21.3300     2.4582     0.1278     0.5499 4.0845e+02     2.4096      0.486      0.705    16.4727 0.0000e+00
      0.497      0.003     8.2161     83.606    135.001 111.976231    21.3300     2.4506     0.1278     0.5499 3.5304e+02     2.3190      0.487      0.706    16.4721 0.0000e+00
      0.497      0.002     8.2095     83.304    135.009 111.979201    21.3300     2.4773     0.1278     0.5499 3.6134e+02     2.3643      0.488      0.707    16.4713 0.0000e+00
      0.498      0.002     8.2022     82.951    135.018 111.984146    21.3300     2.4239     0.1278     0.5499 3.3832e+02     2.4398      0.489      0.708    16.4705 0.0000e+00
      0.498      0.002     8.1892     82.602    135.027 111.988385    21.4200     2.4430     0.0426     0.5499 3.4328e+02     2.4398      0.489      0.709    16.4694 0.0000e+00
      0.499      0.001     8.1679     82.310    135.030 111.989050    21.4200     2.6185     0.0426     0.5499 3.6553e+02     2.3945      0.489      0.709    16.4683 0.0000e+00
      0.499      0.001     8.1386     82.094    135.029 111.986317    21.4200     2.6223     0.0426     0.5499 3.4216e+02     2.3341      0.489      0.710    16.4672 0.0000e+00
      0.499      0.001     8.1043     81.939    135.028 111.983457    21.4200     2.6108     0.0426     0.5499 3.5319e+02     2.3643      0.490      0.710    16.4660 0.0000e+00
      0.500      0.001     8.0704     81.799    135.030 111.983705    21.4200     2.6185     0.0426     0.5499 3.6221e+02     2.4247      0.490      0.711    16.4650 0.0000e+00
      0.500      0.001     8.0420     81.614    135.042 111.991129    21.3300     2.7634     0.0852     0.5076 3.6032e+02     2.3643      0.491      0.711    16.4642 0.0000e+00
      0.501      0.001     8.0210     81.340    135.052 111.997708    21.3300     2.7596     0.0852     0.5076 4.0925e+02     2.3643      0.491      0.712    16.4635 0.0000e+00
      0.501      0.001     8.0060     80.964    135.050 111.995200    21.3300     2.7443     0.0852     0.5076 3.6784e+02     2.3492      0.491      0.712    16.4628 0.0000e+00
      0.501      0.001     7.9924     80.497    135.044 111.988935    21.3300     2.7291     0.0852     0.5076 3.7331e+02     2.3643      0.492      0.713    16.4622 0.0000e+00
      0.501      0.001     7.9744     79.967    135.038 111.983240    21.4200     2.3209     0.1278     0.5499 3.6545e+02     2.3341      0.492      0.713    16.4615 0.0000e+00
      0.502      0.001     7.9477     79.414    135.036 111.980596    21.4200     2.2980     0.1278     0.5499 3.5457e+02     2.3643      0.492      0.713    16.4608 0.0000e+00
      0.502      0.001     7.9112     78.860    135.041 111.984298    21.4200     2.2980     0.1278     0.5499 3.6056e+02     2.3643      0.493      0.714    16.4603 0.0000e+00
      0.503      0.001     7.8655     78.306    135.045 111.987333    21.4200     2.3171     0.1278     0.5499 3.6904e+02     2.4549      0.493      0.715    16.4599 0.0000e+00
      0.503      0.001     7.8138     77.735    135.049 111.990511    21.4200     2.5994     0.0426     0.5922 3.7291e+02     2.3190      0.493      0.715    16.4596 0.0000e+00
      0.503      0.001     7.7598     77.128    135.063 112.002679    21.4200     2.6452     0.0426     0.5922 3.7600e+02     2.3341      0.494      0.715    16.4594 0.0000e+00
      0.503      0.001     7.7057     76.473    135.081 112.017083    21.4200     2.6261     0.0426     0.5922 3.9785e+02     2.3945      0.494      0.715    16.4593 0.0000e+00
      0.503      0.001     7.6516     75.767    135.091 112.025566    21.4200     2.6223     0.0426     0.5922 3.8635e+02     2.3492      0.494      0.716    16.4592 0.0000e+00
      0.503      0.001     7.5958     75.023    135.095 112.028391    21.4200     2.6948     0.0426     0.5922 4.4390e+02     2.3341      0.494      0.716    16.4592 0.0000e+00
      0.504      0.001     7.5365     74.273    135.092 112.026311    21.4200     2.6948     0.0852     0.6345 5.3326e+02     2.2737      0.494      0.716    16.4591 0.0000e+00
      0.504      0.001     7.4725     73.550    135.086 112.020773    21.4200     2.6871     0.0852     0.6345 4.4496e+02     2.3643      0.494      0.716    16.4591 0.0000e+00
      0.504      0.001     7.4035     72.870    135.078 112.014297    21.4200     2.7024     0.0852     0.6345 5.0737e+02     2.3190      0.494      0.717    16.4590 0.0000e+00
      0.504      0.001     7.3308     72.235    135.074 112.011155    21.4200     2.3781     0.0852     0.6345 5.6181e+02     2.3945      0.495      0.717    16.4590 0.0000e+00
      0.505      0.001     7.2576     71.638    135.079 112.014510    21.5100     2.3743     0.0852     0.6345 5.4651e+02     2.3492      0.495      0.718    16.4590 0.0000e+00
      0.505      0.001     7.1869     71.071    135.085 112.019256    21.5100     2.3629     0.0852     0.6345 6.0871e+02     2.3341      0.495      0.718    16.4589 0.0000e+00
      0.505      0.001     7.1205     70.532    135.092 112.024660    21.5100     2.3858     0.0852     0.6345 5.9783e+02     2.4247      0.495      0.718    16.4589 0.0000e+00
      0.505      0.001     7.0584     70.025    135.106 112.036161    21.5100     2.4582     0.0852     0.6345 7.3363e+02     2.3492      0.495      0.718    16.4588 0.0000e+00
      0.505      0.001     7.0000     69.546    135.119 112.046830    21.4200     2.4239     0.0852     0.5076 6.4339e+02     2.4398      0.495      0.718    16.4588 0.0000e+00
      0.505      0.001     6.9446     69.092    135.124 112.051513    21.4200     2.4430     0.0852     0.5076 7.6472e+02     2.3945      0.495      0.718    16.4587 0.0000e+00
      0.506      0.001     6.8921     68.663    135.131 112.057456    21.4200     2.4659     0.0852     0.5076 8.9890e+02     2.4398      0.496      0.719    16.4586 0.0000e+00
      0.506      0.001     6.8425     68.253    135.140 112.064246    21.4200     2.6375     0.0852     0.5076 7.8288e+02     2.3794      0.496      0.720    16.4586 0.0000e+00
      0.506      0.001     6.7957     67.862    135.144 112.067695    21.6000     2.6299     0.0852     0.4653 8.1907e+02     2.3341      0.497      0.720    16.4585 0.0000e+00
      0.506      0.000     6.7514     67.495    135.145 112.068722    21.6000     2.5956     0.0852     0.4653 7.7914e+02     2.3643      0.497      0.720    16.4585 0.0000e+00
      0.506      0.000     6.7094     67.151    135.143 112.067601    21.6000     2.6070     0.0852     0.4653 7.7475e+02     2.3794      0.496      0.720    16.4585 0.0000e+00
      0.506      0.000     6.6694     66.833    135.144 112.068032    21.6000     2.3743     0.0852     0.4653 7.2570e+02     2.2132      0.496      0.720    16.4585 0.0000e+00
      0.506      0.000     6.6311     66.549    135.147 112.070131    21.6000     2.3781     0.0852     0.4653 8.5601e+02     2.2435      0.497      0.720    16.4585 0.0000e+00
      0.507      0.000     6.5952     66.309    135.149 112.072456    21.5100     2.3705     0.0852     0.5076 6.9953e+02     2.1981      0.497      0.721    16.4585 0.0000e+00
      0.507      0.001     6.5617     66.120    135.156 112.077628    21.5100     2.3667     0.0852     0.5076 7.7559e+02     2.2888      0.497      0.721    16.4585 0.0000e+00
      0.507      0.001     6.5306     65.988    135.160 112.081028    21.5100     2.6223     0.0852     0.5076 7.1973e+02     2.2586      0.497      0.721    16.4585 0.0000e+00
      0.507      0.001     6.5029     65.909    135.156 112.077563    21.5100     2.6566     0.0852     0.5076 7.3810e+02     2.1981      0.498      0.722    16.4585 0.0000e+00
      0.508      0.001     6.4795     65.880    135.147 112.070309    21.5100     2.6108     0.0852     0.4653 6.8286e+02     2.2132      0.498      0.722    16.4584 0.0000e+00
      0.508      0.001     6.4610     65.900    135.143 112.067328    21.5100     2.6490     0.0852     0.4653 7.8356e+02     2.2132      0.498      0.722    16.4584 0.0000e+00
      0.508      0.000     6.4480     65.968    135.151 112.073825    21.5100     2.6909     0.0852     0.4653 7.3955e+02     2.1075      0.498      0.722    16.4584 0.0000e+00
      0.508      0.000     6.4403     66.085    135.159 112.081535    21.5100     2.6566     0.0852     0.4653 7.8765e+02     2.2737      0.499      0.723    16.4584 0.0000e+00
      0.508     -0.001     6.4375     66.257    135.160 112.082516    21.6000     2.6719     0.1278     0.5499 7.7122e+02     2.1377      0.499      0.723    16.4584 0.0000e+00
      0.508     -0.001     6.4395     66.480    135.157 112.081027    21.6000     2.6757     0.1278     0.5499 8.0199e+02     2.1377      0.498      0.723    16.4584 0.0000e+00
      0.507     -0.002     6.4461     66.735    135.150 112.076674    21.6000     2.5040     0.1278     0.5499 7.7880e+02     2.1377      0.498      0.722    16.4585 0.0000e+00
      0.506     -0.001     6.4575     66.991    135.142 112.070293    21.6000     2.5193     0.1278     0.5499 7.3124e+02     2.2435      0.497      0.720    16.4587 0.0000e+00
      0.506     -0.001     6.4742     67.210    135.141 112.070181    21.5100     2.5040     0.0852     0.6768 7.6438e+02     2.1981      0.496      0.719    16.4590 0.0000e+00
      0.505      0.000     6.4959     67.367    135.145 112.074310    21.5100     2.5002     0.0852     0.6768 8.6781e+02     2.1075      0.496      0.719    16.4594 0.0000e+00
      0.506      0.001     6.5209     67.455    135.149 112.077780    21.5100     2.4239     0.0852     0.6768 6.9077e+02     2.2435      0.496      0.719    16.4598 0.0000e+00
      0.507      0.002     6.5458     67.482    135.153 112.081518    21.5100     2.4582     0.0852     0.6768 7.1025e+02     2.2132      0.497      0.720    16.4600 0.0000e+00
      0.507      0.003     6.5672     67.472    135.154 112.082522    21.5100     2.4468     0.0852     0.6768 7.3203e+02     2.1679      0.498      0.722    16.4602 0.0000e+00
      0.508      0.004     6.5825     67.448    135.152 112.081059    21.6000     2.4506     0.0852     0.6345 7.6157e+02     2.1075      0.499      0.723    16.4604 0.0000e+00
      0.509      0.005     6.5910     67.421    135.152 112.080738    21.6000     2.4163     0.0852     0.6345 9.1169e+02     2.1981      0.500      0.724    16.4606 0.0000e+00
      0.511      0.006     6.5937     67.394    135.156 112.083474    21.6000     2.4354     0.0852     0.6345 8.6180e+02     2.1377      0.501      0.726    16.4608 0.0000e+00
      0.512      0.006     6.5927     67.378    135.166 112.091994    21.6000     2.4315     0.0852     0.6345 6.2114e+02     2.1830      0.503      0.729    16.4609 0.0000e+00
      0.515      0.006     6.5904     67.384    135.178 112.102573    21.6900     2.4354     0.0852     0.5076 8.4694e+02     2.1679      0.505      0.732    16.4608 0.0000e+00
      0.517      0.006     6.5877     67.417    135.189 112.112032    21.6900     2.3819     0.0852     0.5076 6.7314e+02     2.2737      0.507      0.735    16.4607 0.0000e+00
      0.518      0.005     6.5851     67.473    135.201 112.122895    21.6900     2.4125     0.0852     0.5076 6.9107e+02     2.2283      0.508      0.737    16.4606 0.0000e+00
      0.519      0.005     6.5836     67.540    135.213 112.134059    21.6900     2.3514     0.0852     0.5076 7.1583e+02     2.1679      0.509      0.739    16.4606 0.0000e+00
      0.520      0.004     6.5842     67.605    135.219 112.140502    21.6900     2.3781     0.0426     0.6768 8.9988e+02     2.2435      0.510      0.740    16.4607 0.0000e+00
      0.521      0.003     6.5873     67.660    135.216 112.139944    21.6900     2.4888     0.0426     0.6768 8.6386e+02     2.2737      0.511      0.741    16.4610 0.0000e+00
      0.521      0.003     6.5927     67.705    135.208 112.136235    21.6900     2.5231     0.0426     0.6768 7.2665e+02     2.1679      0.511      0.742    16.4613 0.0000e+00
      0.522      0.003     6.5993     67.742    135.203 112.136383    21.6900     2.5383     0.0426     0.6768 7.7190e+02     2.1981      0.512      0.743    16.4617 0.0000e+00
      0.523      0.003     6.6055     67.781    135.196 112.136431    21.6900     2.4735     0.0426     0.6768 7.4649e+02     2.1679      0.513      0.744    16.4622 0.0000e+00
      0.524      0.004     6.6108     67.833    135.179 112.128392    21.6900     2.4811     0.0852     0.4653 7.8577e+02     2.3039      0.514      0.745    16.4629 0.0000e+00
      0.525      0.005     6.6151     67.895    135.160 112.118121    21.6900     2.4849     0.0852     0.4653 7.2538e+02     2.1679      0.515      0.746    16.4640 0.0000e+00
      0.526      0.006     6.6184     67.954    135.147 112.110878    21.6900     2.5002     0.0852     0.4653 7.5105e+02     2.1981      0.516      0.747    16.4656 0.0000e+00
      0.527      0.007     6.6220     67.991    135.141 112.108731    21.6900     2.4849     0.0852     0.4653 7.6024e+02     2.2737      0.517      0.749    16.4677 0.0000e+00
      0.529      0.008     6.6267     67.986    135.152 112.119106    21.6900     2.3934     0.0852     0.5499 7.7341e+02     2.1528      0.519      0.752    16.4701 0.0000e+00
      0.532      0.009     6.6325     67.933    135.167 112.132771    21.6900     2.3705     0.0852     0.5499 7.3235e+02     2.1679      0.521      0.756    16.4721 0.0000e+00
      0.535      0.009     6.6381     67.848    135.160 112.129376    21.6900     2.3819     0.0852     0.5499 7.8731e+02     2.3643      0.524      0.760    16.4735 0.0000e+00
      0.537      0.009     6.6416     67.754    135.137 112.112015    21.6900     2.4010     0.0852     0.5499 9.3293e+02     2.1679      0.527      0.764    16.4743 0.0000e+00
      0.540      0.008     6.6410     67.662    135.117 112.096054    21.8700     2.4964     0.0852     0.4653 7.0748e+02     2.2132      0.529      0.767    16.4749 0.0000e+00
      0.541      0.007     6.6357     67.572    135.108 112.089234    21.8700     2.4811     0.0852     0.4653 6.6775e+02     2.2283      0.530      0.770    16.4755 0.0000e+00
      0.543      0.006     6.6273     67.481    135.106 112.089737    21.8700     2.4888     0.0852     0.4653 6.2235e+02     2.1830      0.532      0.772    16.4762 0.0000e+00
      0.544      0.005     6.6180     67.391    135.110 112.095698    21.8700     2.5383     0.0852     0.4653 6.9726e+02     2.1679      0.533      0.774    16.4767 0.0000e+00
      0.546      0.005     6.6090     67.309    135.124 112.110705    21.6900     2.5574     0.0852     0.4653 7.0503e+02     2.1679      0.535      0.776    16.4771 0.0000e+00
      0.547      0.004     6.6001     67.247    135.134 112.124764    21.6900     2.5536     0.0852     0.4653 7.0687e+02     2.3190      0.536      0.778    16.4775 0.0000e+00
      0.547      0.003     6.5912     67.217    135.130 112.127625    21.6900     2.5651     0.0852     0.4653 7.2601e+02     2.2132      0.537      0.779    16.4781 0.0000e+00
      0.548      0.002     6.5822     67.228    135.120 112.128052    21.6900     2.5536     0.0852     0.4653 6.7066e+02     2.2737      0.537      0.780    16.4791 0.0000e+00
      0.548      0.002     6.5740     67.285    135.112 112.130157    21.6900     2.5002     0.0852     0.4653 7.1801e+02     2.2132      0.538      0.780    16.4805 0.0000e+00
      0.548      0.001     6.5678     67.389    135.107 112.134503    21.6900     2.5002     0.1278     0.4653 7.2444e+02     2.1981      0.538      0.780    16.4824 0.0000e+00
      0.549      0.001     6.5645     67.521    135.111 112.146248    21.6900     2.5040     0.1278     0.4653 6.8093e+02     2.2435      0.538      0.781    16.4850 0.0000e+00
      0.549      0.001     6.5651     67.654    135.114 112.156526    21.6900     2.4964     0.1278     0.4653 7.1661e+02     2.3039      0.539      0.781    16.4880 0.0000e+00
      0.549      0.001     6.5703     67.755    135.111 112.160080    21.6900     2.4163     0.1278     0.4653 7.0166e+02     2.2132      0.539      0.782    16.4913 0.0000e+00
      0.550      0.001     6.5799     67.798    135.107 112.161858    21.6900     2.4354     0.0852     0.5499 7.2997e+02     2.1226      0.539      0.782    16.4946 0.0000e+00
      0.550      0.001     6.5924     67.775    135.103 112.162333    21.6900     2.4354     0.0852     0.5499 7.2161e+02     2.2283      0.539      0.782    16.4977 0.0000e+00
      0.550      0.001     6.6049     67.692    135.103 112.165632    21.6900     2.4315     0.0852     0.5499 6.8807e+02     2.1528      0.540      0.783    16.5005 0.0000e+00
      0.550      0.001     6.6144     67.565    135.103 112.168634    21.6900     2.5498     0.0852     0.5499 6.8524e+02     2.1528      0.540      0.783    16.5028 0.0000e+00
      0.550      0.000     6.6184     67.413    135.097 112.168143    21.6900     2.5536     0.0852     0.6768 6.2547e+02     2.1830      0.540      0.783    16.5046 0.0000e+00
      0.550      0.000     6.6160     67.258    135.092 112.168025    21.6900     2.5574     0.0852     0.6768 6.0489e+02     2.1226      0.540      0.783    16.5060 0.0000e+00
      0.550      0.000     6.6078     67.119    135.083 112.164250    21.6900     2.5574     0.0852     0.6768 5.7054e+02     2.2737      0.540      0.783    16.5072 0.0000e+00
      0.550      0.000     6.5952     67.011    135.073 112.159812    21.6900     2.6261     0.0852     0.6768 5.6536e+02     2.1981      0.540      0.783    16.5084 0.0000e+00
      0.551      0.000     6.5802     66.934    135.076 112.165525    21.6900     2.6070     0.0852     0.6768 5.5682e+02     2.2435      0.540      0.784    16.5097 0.0000e+00
      0.551      0.001     6.5648     66.876    135.089 112.178912    21.7800     2.6185     0.0852     0.5499 5.7290e+02     2.2435      0.541      0.784    16.5112 0.0000e+00
      0.551      0.001     6.5510     66.822    135.101 112.191547    21.7800     2.6223     0.0852     0.5499 5.4120e+02     2.2435      0.541      0.784    16.5127 0.0000e+00
      0.551      0.001     6.5403     66.762    135.113 112.202799    21.7800     2.4239     0.0852     0.5499 5.8004e+02     2.1377      0.541      0.784    16.5142 0.0000e+00
      0.552      0.001     6.5326     66.682    135.122 112.211669    21.7800     2.4354     0.0852     0.5499 5.9330e+02     2.2737      0.541      0.784    16.5154 0.0000e+00
      0.552      0.001     6.5268     66.576    135.122 112.212526    21.7800     2.4468     0.0852     0.6768 5.8447e+02     2.0471      0.541      0.784    16.5164 0.0000e+00
      0.552      0.000     6.5215     66.442    135.114 112.205597    21.7800     2.4582     0.0852     0.6768 5.9952e+02     2.1679      0.541      0.785    16.5172 0.0000e+00
      0.552      0.000     6.5155     66.283    135.103 112.197032    21.7800     2.5002     0.0852     0.6768 5.7715e+02     2.5909      0.541      0.785    16.5178 0.0000e+00
      0.552      0.000     6.5077     66.110    135.093 112.188548    21.7800     2.5002     0.0852     0.6768 5.4414e+02     2.6362      0.542      0.785    16.5182 0.0000e+00
      0.552      0.001     6.4973     65.934    135.085 112.181882    21.7800     2.4964     0.0426     0.5076 5.0189e+02     2.6664      0.542      0.785    16.5185 0.0000e+00
      0.552      0.001     6.4841     65.764    135.077 112.175254    21.7800     2.4811     0.0426     0.5076 4.6211e+02     2.4549      0.542      0.786    16.5186 0.0000e+00
      0.553      0.002     6.4686     65.599    135.067 112.166899    21.7800     2.5727     0.0426     0.5076 4.5385e+02     2.1830      0.542      0.786    16.5187 0.0000e+00
      0.553      0.003     6.4517     65.436    135.062 112.162586    21.7800     2.5574     0.0426     0.5076 4.4121e+02     2.1226      0.543      0.787    16.5188 0.0000e+00
      0.554      0.003     6.4346     65.272    135.066 112.165164    21.6900     2.5765     0.0852     0.5922 4.2382e+02     2.1679      0.543      0.788    16.5188 0.0000e+00
      0.555      0.004     6.4180     65.111    135.075 112.171321    21.6900     2.5536     0.0852     0.5922 4.3032e+02     2.1377      0.544      0.789    16.5188 0.0000e+00
      0.556      0.005     6.4019     64.951    135.075 112.170702    21.6900     2.5078     0.0852     0.5922 4.2995e+02     2.3643      0.545      0.791    16.5186 0.0000e+00
      0.557      0.005     6.3860     64.790    135.067 112.163142    21.6900     2.5307     0.0852     0.5922 4.2734e+02     2.3945      0.547      0.793    16.5184 0.0000e+00
      0.559      0.005     6.3701     64.628    135.063 112.158622    21.6900     2.5307     0.0852     0.5922 4.3502e+02     2.3039      0.548      0.795    16.5182 0.0000e+00
      0.560      0.005     6.3544     64.462    135.056 112.151939    21.7800     2.5116     0.0852     0.5076 4.4111e+02     2.3643      0.550      0.797    16.5179 0.0000e+00
      0.562      0.005     6.3388     64.298    135.044 112.141309    21.7800     2.6871     0.0852     0.5076 4.4159e+02     2.4247      0.551      0.799    16.5176 0.0000e+00
      0.563      0.005     6.3232     64.144    135.039 112.135895    21.7800     2.6795     0.0852     0.5076 4.2382e+02     2.4398      0.552      0.801    16.5172 0.0000e+00
      0.564      0.005     6.3073     64.004    135.043 112.138253    21.7800     2.6642     0.0852     0.5076 4.8558e+02     2.3643      0.553      0.802    16.5169 0.0000e+00
      0.566      0.005     6.2912     63.876    135.051 112.145012    21.6900     2.6986     0.0852     0.5922 5.1236e+02     2.4096      0.555      0.804    16.5166 0.0000e+00
      0.567      0.005     6.2753     63.766    135.053 112.145977    21.6900     2.6909     0.0852     0.5922 6.0056e+02     2.1830      0.556      0.806    16.5162 0.0000e+00
      0.568      0.005     6.2603     63.684    135.048 112.141406    21.6900     2.6833     0.0852     0.5922 6.2792e+02     2.1679      0.557      0.808    16.5159 0.0000e+00
      0.569      0.005     6.2466     63.634    135.044 112.138077    21.6900     2.6795     0.0852     0.5922 6.1656e+02     2.2586      0.558      0.809    16.5156 0.0000e+00
      0.570      0.005     6.2341     63.607    135.042 112.135104    21.8700     2.6871     0.0852     0.5499 6.6688e+02     2.2888      0.559      0.811    16.5154 0.0000e+00
      0.572      0.006     6.2234     63.589    135.039 112.131694    21.8700     2.7443     0.0852     0.5499 6.9635e+02     2.1679      0.560      0.813    16.5153 0.0000e+00
      0.573      0.007     6.2155     63.560    135.035 112.126937    21.8700     2.7443     0.0852     0.5499 6.7387e+02     2.0773      0.562      0.815    16.5152 0.0000e+00
      0.575      0.008     6.2106     63.498    135.033 112.123563    21.8700     2.7749     0.0852     0.5499 6.6226e+02     2.2737      0.563      0.817    16.5150 0.0000e+00
      0.577      0.010     6.2080     63.393    135.044 112.128671    21.8700     2.7520     0.0852     0.5499 6.9984e+02     2.1830      0.565      0.820    16.5148 0.0000e+00
      0.579      0.011     6.2063     63.247    135.063 112.139625    21.6900     2.7443     0.0852     0.5499 7.4633e+02     2.1830      0.568      0.824    16.5144 0.0000e+00
      0.582      0.013     6.2035     63.059    135.075 112.143349    21.6900     2.7634     0.0852     0.5499 7.2334e+02     2.2283      0.571      0.828    16.5138 0.0000e+00
      0.586      0.014     6.1976     62.832    135.080 112.140834    21.6900     2.7443     0.0852     0.5499 7.4003e+02     2.1377      0.575      0.833    16.5130 0.0000e+00
      0.590      0.015     6.1875     62.585    135.086 112.139408    21.6900     2.7329     0.0852     0.5499 7.1134e+02     2.2132      0.579      0.839    16.5117 0.0000e+00
      0.595      0.014     6.1735     62.346    135.097 112.142689    21.7800     2.8931     0.0852     0.5499 6.9363e+02     2.5607      0.583      0.846    16.5099 0.0000e+00
      0.599      0.014     6.1554     62.142    135.118 112.155553    21.7800     2.8702     0.0852     0.5499 6.8778e+02     2.6362      0.587      0.851    16.5075 0.0000e+00
      0.602      0.012     6.1336     62.005    135.138 112.169431    21.7800     2.8512     0.0852     0.5499 8.0181e+02     2.6211      0.590      0.856    16.5050 0.0000e+00
      0.605      0.011     6.1098     61.956    135.147 112.176026    21.7800     2.8740     0.0852     0.5499 5.9034e+02     2.5758      0.593      0.860    16.5026 0.0000e+00
      0.607      0.009     6.0867     62.008    135.152 112.181097    21.7800     2.9542     0.0852     0.5499 6.7343e+02     2.2586      0.595      0.864    16.5005 0.0000e+00
      0.609      0.007     6.0670     62.165    135.154 112.185996    21.7800     2.9313     0.0852     0.5499 7.5301e+02     2.1226      0.597      0.867    16.4989 0.0000e+00
      0.611      0.006     6.0537     62.416    135.150 112.188030    21.7800     2.9580     0.0852     0.5499 6.6876e+02     2.2132      0.599      0.869    16.4979 0.0000e+00
      0.612      0.004     6.0490     62.727    135.143 112.187741    21.7800     2.9236     0.0852     0.5499 6.2778e+02     2.2283      0.600      0.870    16.4975 0.0000e+00
      0.613      0.003     6.0541     63.056    135.138 112.189052    21.7800     2.9503     0.0852     0.5499 6.9197e+02     2.2435      0.601      0.872    16.4979 0.0000e+00
      0.613      0.002     6.0693     63.355    135.136 112.192313    21.7800     2.9961     0.0852     0.5499 7.1973e+02     2.1075      0.601      0.872    16.4991 0.0000e+00
      0.614      0.002     6.0935     63.577    135.129 112.190396    21.7800     3.0037     0.0852     0.5499 6.6543e+02     2.2132      0.602      0.873    16.5010 0.0000e+00
      0.614      0.001     6.1236     63.694    135.120 112.186789    21.7800     2.9961     0.0852     0.5499 7.0595e+02     2.2132      0.602      0.873    16.5031 0.0000e+00
      0.614      0.001     6.1554     63.701    135.115 112.184529    21.7800     2.9656     0.0852     0.5499 6.9771e+02     2.1377      0.602      0.874    16.5051 0.0000e+00
      0.614      0.001     6.1844     63.604    135.105 112.179013    21.6900     2.8092     0.0852     0.4653 7.2397e+02     2.1377      0.602      0.874    16.5069 0.0000e+00
      0.614      0.001     6.2059     63.420    135.095 112.172771    21.6900     2.8092     0.0852     0.4653 6.8807e+02     2.1377      0.602      0.874    16.5085 0.0000e+00
      0.614      0.001     6.2172     63.172    135.092 112.172137    21.6900     2.8092     0.0852     0.4653 6.7475e+02     2.1830      0.602      0.874    16.5097 0.0000e+00
      0.614      0.001     6.2177     62.885    135.096 112.176942    21.6900     2.7825     0.0852     0.4653 6.6731e+02     2.2435      0.602      0.874    16.5107 0.0000e+00
      0.614      0.001     6.2082     62.583    135.103 112.184466    21.6900     2.9084     0.0426     0.5922 7.3124e+02     2.4398      0.602      0.874    16.5114 0.0000e+00
      0.615      0.001     6.1900     62.287    135.111 112.192719    21.6900     2.9236     0.0426     0.5922 6.7578e+02     2.3039      0.603      0.874    16.5122 0.0000e+00
      0.615      0.002     6.1658     62.008    135.113 112.195902    21.6900     2.9427     0.0426     0.5922 6.8733e+02     2.4096      0.603      0.875    16.5129 0.0000e+00
      0.615      0.002     6.1377     61.747    135.110 112.194864    21.6900     2.9160     0.0426     0.5922 7.1973e+02     2.3945      0.603      0.875    16.5135 0.0000e+00
      0.616      0.002     6.1081     61.509    135.105 112.193327    21.8700     3.1144     0.0852     0.6345 6.7783e+02     2.4247      0.604      0.876    16.5141 0.0000e+00
      0.617      0.002     6.0792     61.299    135.100 112.190883    21.8700     3.1182     0.0852     0.6345 6.5595e+02     2.3643      0.605      0.878    16.5147 0.0000e+00
      0.618      0.002     6.0519     61.118    135.092 112.186878    21.8700     3.1029     0.0852     0.6345 7.0503e+02     2.4852      0.606      0.879    16.5153 0.0000e+00
      0.618      0.002     6.0264     60.964    135.087 112.184246    21.8700     3.1296     0.0852     0.6345 6.9559e+02     2.4247      0.606      0.880    16.5159 0.0000e+00
      0.619      0.002     6.0030     60.825    135.083 112.182283    21.8700     3.0533     0.0852     0.6345 6.4788e+02     2.1830      0.607      0.880    16.5167 0.0000e+00
      0.619      0.002     5.9823     60.692    135.071 112.172468    21.6900     3.0419     0.0852     0.5922 6.6993e+02     2.2737      0.607      0.881    16.5175 0.0000e+00
      0.619      0.001     5.9646     60.555    135.052 112.156183    21.6900     3.0572     0.0852     0.5922 6.5610e+02     2.2435      0.607      0.881    16.5184 0.0000e+00
      0.620      0.001     5.9495     60.411    135.039 112.145081    21.6900     3.0610     0.0852     0.5922 6.2669e+02     2.2132      0.608      0.882    16.5190 0.0000e+00
      0.620      0.002     5.9359     60.257    135.035 112.140202    21.6900     2.8168     0.0852     0.5922 6.3741e+02     2.1377      0.608      0.882    16.5195 0.0000e+00
      0.621      0.002     5.9229     60.093    135.036 112.140244    21.7800     2.7978     0.0852     0.6768 7.2161e+02     2.1981      0.609      0.883    16.5196 0.0000e+00
      0.621      0.002     5.9095     59.931    135.047 112.149217    21.7800     2.7939     0.0852     0.6768 7.0472e+02     2.1679      0.609      0.884    16.5195 0.0000e+00
      0.622      0.002     5.8955     59.784    135.062 112.161517    21.7800     2.8130     0.0852     0.6768 6.9726e+02     2.1981      0.610      0.884    16.5192 0.0000e+00
      0.623      0.002     5.8805     59.665    135.070 112.168425    21.7800     3.0610     0.0852     0.6768 6.9303e+02     2.2586      0.610      0.885    16.5188 0.0000e+00
      0.623      0.002     5.8646     59.588    135.068 112.167785    21.6900     3.0228     0.0852     0.5499 6.7695e+02     2.2737      0.611      0.886    16.5185 0.0000e+00
      0.624      0.001     5.8488     59.555    135.057 112.159426    21.6900     3.0343     0.0852     0.5499 6.9741e+02     2.3039      0.611      0.887    16.5183 0.0000e+00
      0.624      0.001     5.8344     59.559    135.043 112.149117    21.6900     3.0533     0.0852     0.5499 6.8153e+02     2.2435      0.612      0.887    16.5183 0.0000e+00
      0.624      0.001     5.8229     59.583    135.039 112.146107    21.6900     3.1220     0.0852     0.5499 6.4088e+02     2.4096      0.612      0.888    16.5184 0.0000e+00
      0.625      0.001     5.8153     59.608    135.038 112.145593    21.7800     3.1258     0.0852     0.5499 6.9227e+02     2.4549      0.612      0.888    16.5187 0.0000e+00
      0.625      0.001     5.8120     59.616    135.032 112.139441    21.7800     3.1144     0.0852     0.5499 7.2538e+02     2.4096      0.613      0.888    16.5191 0.0000e+00
      0.625      0.002     5.8123     59.592    135.021 112.130010    21.7800     3.0953     0.0852     0.5499 6.9333e+02     2.3643      0.613      0.889    16.5194 0.0000e+00
      0.625      0.002     5.8147     59.533    135.014 112.122782    21.7800     2.9847     0.0852     0.5499 7.2098e+02     2.6966      0.613      0.889    16.5196 0.0000e+00
      0.626      0.002     5.8171     59.454    135.011 112.119829    21.7800     2.9770     0.0852     0.5499 6.6978e+02     2.5909      0.614      0.890    16.5196 0.0000e+00
      0.626      0.002     5.8179     59.365    135.013 112.120363    21.6900     2.9618     0.1278     0.6345 6.7504e+02     2.6513      0.614      0.891    16.5194 0.0000e+00
      0.627      0.002     5.8156     59.274    135.019 112.124528    21.6900     2.9999     0.1278     0.6345 6.9318e+02     2.5305      0.615      0.892    16.5191 0.0000e+00
      0.628      0.002     5.8099     59.199    135.030 112.133432    21.6900     3.0991     0.1278     0.6345 6.7402e+02     2.2435      0.616      0.893    16.5187 0.0000e+00
      0.629      0.002     5.8023     59.152    135.039 112.141454    21.6900     3.1067     0.1278     0.6345 7.3698e+02     2.1830      0.616      0.894    16.5183 0.0000e+00
      0.629      0.002     5.7936     59.141    135.040 112.142732    21.7800     3.1067     0.0426     0.5499 7.1521e+02     2.0924      0.617      0.895    16.5180 0.0000e+00
      0.630      0.003     5.7848     59.160    135.039 112.141609    21.7800     3.1220     0.0426     0.5499 6.9908e+02     2.1679      0.617      0.895    16.5178 0.0000e+00
      0.630      0.003     5.7774     59.191    135.035 112.137783    21.7800     3.1144     0.0426     0.5499 7.0243e+02     2.3945      0.618      0.896    16.5178 0.0000e+00
      0.631      0.003     5.7728     59.215    135.026 112.130236    21.7800     3.1029     0.0426     0.5499 7.3156e+02     2.3945      0.618      0.897    16.5179 0.0000e+00
      0.631      0.003     5.7718     59.219    135.021 112.124952    21.6900     3.1335     0.0852     0.5499 6.9137e+02     2.3945      0.619      0.898    16.5179 0.0000e+00
      0.632      0.004     5.7736     59.198    135.016 112.120523    21.6900     3.1220     0.0852     0.5499 6.7960e+02     2.4398      0.620      0.899    16.5180 0.0000e+00
      0.633      0.004     5.7767     59.147    135.012 112.115767    21.6900     3.1067     0.0852     0.5499 6.7226e+02     2.3341      0.621      0.900    16.5179 0.0000e+00
      0.634      0.005     5.7790     59.059    135.015 112.117414    21.6900     3.1335     0.0852     0.5499 7.3987e+02     2.3039      0.622      0.902    16.5178 0.0000e+00
      0.635      0.005     5.7794     58.939    135.027 112.125904    21.6900     3.1144     0.0852     0.5499 6.6964e+02     2.3794      0.623      0.904    16.5176 0.0000e+00
      0.637      0.005     5.7775     58.807    135.040 112.135502    21.6900     3.0877     0.0852     0.4653 6.8093e+02     2.4852      0.624      0.906    16.5172 0.0000e+00
      0.638      0.005     5.7725     58.683    135.048 112.140769    21.6900     3.2059     0.0852     0.4653 7.0365e+02     2.1679      0.626      0.908    16.5168 0.0000e+00
      0.640      0.005     5.7640     58.581    135.047 112.139110    21.6900     3.2288     0.0852     0.4653 7.4422e+02     2.1075      0.627      0.910    16.5163 0.0000e+00
      0.641      0.005     5.7523     58.513    135.041 112.134082    21.6900     3.2250     0.0852     0.4653 6.6154e+02     2.2586      0.628      0.912    16.5157 0.0000e+00
      0.642      0.004     5.7395     58.473    135.040 112.132344    21.6000     3.2136     0.1278     0.6768 7.3076e+02     2.1528      0.629      0.913    16.5152 0.0000e+00
      0.643      0.004     5.7274     58.450    135.047 112.137430    21.6000     3.1716     0.1278     0.6768 6.6514e+02     2.3945      0.630      0.914    16.5149 0.0000e+00
      0.644      0.004     5.7175     58.431    135.060 112.146697    21.6000     3.1945     0.1278     0.6768 6.9938e+02     2.4247      0.631      0.915    16.5146 0.0000e+00
      0.645      0.003     5.7109     58.403    135.070 112.154618    21.6000     3.1945     0.1278     0.6768 7.1739e+02     2.2888      0.632      0.916    16.5144 0.0000e+00
      0.645      0.003     5.7070     58.363    135.072 112.155308    21.6000     3.1792     0.0852     0.5922 6.9544e+02     2.4398      0.633      0.918    16.5141 0.0000e+00
      0.646      0.003     5.7048     58.316    135.059 112.144952    21.6000     3.1067     0.0852     0.5922 7.0595e+02     2.2737      0.633      0.919    16.5138 0.0000e+00
      0.647      0.003     5.7030     58.264    135.040 112.128785    21.6000     3.1029     0.0852     0.5922 7.3395e+02     2.2283      0.634      0.920    16.5134 0.0000e+00
      0.647      0.002     5.7003     58.216    135.028 112.118493    21.6000     3.1067     0.0852     0.5922 6.9167e+02     2.1377      0.635      0.921    16.5131 0.0000e+00
      0.648      0.002     5.6964     58.185    135.024 112.115331    21.6900     3.1220     0.1278     0.6768 6.7783e+02     2.2888      0.635      0.921    16.5130 0.0000e+00
      0.648      0.002     5.6918     58.178    135.018 112.110458    21.6900     3.1792     0.1278     0.6768 7.2444e+02     2.1075      0.635      0.922    16.5129 0.0000e+00
      0.648      0.002     5.6868     58.191    135.009 112.102574    21.6900     3.1792     0.1278     0.6768 7.0029e+02     2.1679      0.636      0.922    16.5128 0.0000e+00
      0.649      0.003     5.6821     58.211    134.998 112.093576    21.6900     3.1716     0.1278     0.6768 6.9544e+02     2.2132      0.636      0.923    16.5128 0.0000e+00
      0.649      0.003     5.6791     58.217    134.989 112.085063    21.6900     3.1716     0.1278     0.6768 6.7622e+02     2.2435      0.637      0.924    16.5128 0.0000e+00
      0.650      0.004     5.6784     58.185    134.991 112.084764    21.6900     3.1716     0.0426     0.5076 6.9923e+02     2.2737      0.637      0.925    16.5129 0.0000e+00
      0.651      0.005     5.6796     58.103    135.005 112.094598    21.6900     3.1945     0.0426     0.5076 6.9393e+02     2.3794      0.639      0.926    16.5129 0.0000e+00
      0.653      0.006     5.6816     57.970    135.022 112.107189    21.6900     3.1754     0.0426     0.5076 6.6197e+02     2.4398      0.640      0.929    16.5127 0.0000e+00
      0.655      0.006     5.6822     57.795    135.034 112.115896    21.6900     3.1792     0.0426     0.5076 6.8569e+02     2.3794      0.642      0.931    16.5123 0.0000e+00
      0.657      0.006     5.6792     57.605    135.035 112.115044    21.7800     3.2517     0.1278     0.6345 6.9726e+02     2.3492      0.644      0.934    16.5117 0.0000e+00
      0.659      0.006     5.6712     57.427    135.028 112.108404    21.7800     3.2364     0.1278     0.6345 7.6223e+02     2.3190      0.646      0.937    16.5110 0.0000e+00
      0.660      0.006     5.6583     57.279    135.022 112.102203    21.7800     3.2250     0.1278     0.6345 7.6621e+02     2.3794      0.647      0.939    16.5104 0.0000e+00
      0.661      0.005     5.6414     57.168    135.015 112.094789    21.7800     3.2517     0.1278     0.6345 6.4901e+02     2.4701      0.648      0.940    16.5098 0.0000e+00
      0.662      0.005     5.6229     57.088    135.015 112.094182    21.7800     3.3242     0.1278     0.5499 6.6964e+02     2.1528      0.649      0.942    16.5094 0.0000e+00
      0.664      0.005     5.6055     57.027    135.031 112.106220    21.7800     3.3089     0.1278     0.5499 6.9817e+02     2.2132      0.651      0.944    16.5089 0.0000e+00
      0.665      0.004     5.5912     56.979    135.048 112.120114    21.7800     3.3089     0.1278     0.5499 6.5610e+02     2.1679      0.652      0.946    16.5084 0.0000e+00
      0.666      0.004     5.5804     56.941    135.054 112.125573    21.7800     3.3013     0.1278     0.5499 6.8494e+02     2.2586      0.653      0.947    16.5080 0.0000e+00
      0.667      0.004     5.5726     56.907    135.052 112.124052    21.7800     3.4806     0.1278     0.5499 6.5895e+02     2.2737      0.654      0.949    16.5077 0.0000e+00
      0.668      0.004     5.5667     56.871    135.046 112.119145    21.7800     3.4882     0.1278     0.6345 7.1180e+02     2.1377      0.655      0.950    16.5075 0.0000e+00
      0.669      0.004     5.5620     56.829    135.035 112.109544    21.7800     3.4730     0.1278     0.6345 6.9741e+02     2.2737      0.656      0.952    16.5073 0.0000e+00
      0.670      0.003     5.5583     56.778    135.020 112.096687    21.7800     3.4844     0.1278     0.6345 6.7754e+02     2.2283      0.657      0.953    16.5073 0.0000e+00
      0.671      0.003     5.5550     56.714    135.007 112.085145    21.7800     3.2937     0.1278     0.6345 6.8912e+02     2.2132      0.658      0.954    16.5073 0.0000e+00
      0.672      0.003     5.5514     56.634    135.001 112.079837    21.6900     3.2746     0.0852     0.5922 7.1164e+02     2.2132      0.658      0.955    16.5073 0.0000e+00
      0.672      0.003     5.5473     56.542    135.006 112.083348    21.6900     3.2632     0.0852     0.5922 6.5113e+02     2.2132      0.659      0.956    16.5072 0.0000e+00
      0.673      0.002     5.5424     56.444    135.017 112.092614    21.6900     3.2860     0.0852     0.5922 6.7387e+02     2.1981      0.660      0.957    16.5071 0.0000e+00
      0.674      0.002     5.5362     56.342    135.029 112.102109    21.6900     3.4730     0.0852     0.5922 6.8942e+02     2.1830      0.660      0.958    16.5069 0.0000e+00
      0.674      0.002     5.5284     56.239    135.034 112.106366    21.8700     3.5149     0.0852     0.5499 6.5610e+02     2.2132      0.661      0.959    16.5067 0.0000e+00
      0.675      0.002     5.5194     56.140    135.035 112.106520    21.8700     3.4730     0.0852     0.5499 6.3134e+02     2.0773      0.661      0.959    16.5066 0.0000e+00
      0.675      0.002     5.5098     56.053    135.040 112.110610    21.8700     3.4577     0.0852     0.5499 6.9333e+02     2.1679      0.662      0.960    16.5065 0.0000e+00
      0.676      0.002     5.4999     55.986    135.051 112.119728    21.8700     3.4005     0.0852     0.5499 7.3076e+02     2.1981      0.662      0.961    16.5064 0.0000e+00
      0.676      0.002     5.4899     55.934    135.061 112.128305    21.7800     3.4196     0.0852     0.5499 6.5183e+02     2.2132      0.663      0.962    16.5062 0.0000e+00
      0.677      0.001     5.4803     55.889    135.063 112.130632    21.7800     3.4501     0.0852     0.5499 6.3313e+02     2.1830      0.663      0.963    16.5061 0.0000e+00
      0.677      0.001     5.4718     55.850    135.059 112.127329    21.7800     3.4310     0.0852     0.5499 6.6659e+02     2.3643      0.664      0.963    16.5061 0.0000e+00
      0.677      0.001     5.4652     55.823    135.052 112.121513    21.7800     3.5378     0.0852     0.5499 6.4507e+02     2.1528      0.664      0.963    16.5061 0.0000e+00
      0.677      0.001     5.4601     55.812    135.045 112.115634    21.7800     3.5226     0.0852     0.5499 6.5453e+02     2.1981      0.664      0.963    16.5062 0.0000e+00
      0.678      0.001     5.4557     55.800    135.040 112.112123    21.7800     3.5226     0.0852     0.5922 6.6082e+02     2.1528      0.664      0.964    16.5063 0.0000e+00
      0.678      0.001     5.4518     55.775    135.032 112.106044    21.7800     3.5416     0.0852     0.5922 6.3824e+02     2.1679      0.665      0.964    16.5065 0.0000e+00
      0.678      0.001     5.4493     55.741    135.020 112.095775    21.7800     3.4424     0.0852     0.5922 6.7211e+02     2.2737      0.665      0.965    16.5066 0.0000e+00
      0.679      0.001     5.4481     55.701    135.004 112.082579    21.7800     3.4119     0.0852     0.5922 6.6226e+02     2.2132      0.665      0.965    16.5067 0.0000e+00
      0.679      0.001     5.4469     55.652    134.987 112.068935    21.7800     3.4157     0.1278     0.6768 6.3011e+02     2.3341      0.666      0.966    16.5068 0.0000e+00
      0.679      0.002     5.4445     55.586    134.978 112.061202    21.7800     3.4119     0.1278     0.6768 6.3148e+02     2.3643      0.666      0.966    16.5069 0.0000e+00
      0.680      0.002     5.4412     55.507    134.976 112.059319    21.7800     3.4692     0.1278     0.6768 6.5838e+02     2.3492      0.666      0.967    16.5070 0.0000e+00
      0.680      0.002     5.4373     55.426    134.978 112.060782    21.7800     3.4653     0.1278     0.6768 6.1979e+02     2.3945      0.667      0.967    16.5070 0.0000e+00
      0.681      0.002     5.4325     55.346    134.984 112.065982    21.6900     3.4806     0.1278     0.5922 6.1938e+02     2.2888      0.668      0.968    16.5069 0.0000e+00
      0.681      0.002     5.4260     55.272    134.996 112.076306    21.6900     3.5073     0.1278     0.5922 5.7715e+02     2.3643      0.668      0.969    16.5069 0.0000e+00
      0.682      0.003     5.4184     55.207    135.009 112.086509    21.6900     3.4310     0.1278     0.5922 6.2141e+02     2.3643      0.669      0.970    16.5068 0.0000e+00
      0.682      0.003     5.4104     55.150    135.014 112.091313    21.6900     3.4157     0.1278     0.5922 5.7652e+02     2.3492      0.669      0.971    16.5068 0.0000e+00
      0.683      0.003     5.4026     55.100    135.015 112.091998    21.6900     3.4157     0.1278     0.5922 5.1403e+02     2.3794      0.670      0.972    16.5069 0.0000e+00
      0.684      0.004     5.3953     55.050    135.007 112.084749    21.6900     3.4196     0.1278     0.6345 4.8348e+02     2.3190      0.671      0.973    16.5069 0.0000e+00
      0.685      0.004     5.3890     54.992    134.992 112.071632    21.6900     3.4577     0.1278     0.6345 4.5247e+02     2.3039      0.672      0.974    16.5070 0.0000e+00
      0.686      0.005     5.3835     54.917    134.980 112.061147    21.6900     3.4730     0.1278     0.6345 4.4035e+02     2.1679      0.673      0.976    16.5070 0.0000e+00
      0.687      0.006     5.3786     54.820    134.975 112.056495    21.6900     3.4768     0.1278     0.6345 4.6392e+02     2.1981      0.674      0.978    16.5069 0.0000e+00
      0.689      0.006     5.3738     54.700    134.981 112.060437    21.7800     3.4806     0.0852     0.5922 4.9906e+02     2.2283      0.676      0.980    16.5068 0.0000e+00
      0.691      0.007     5.3682     54.565    134.994 112.070023    21.7800     3.4577     0.0852     0.5922 5.5393e+02     2.4398      0.677      0.983    16.5066 0.0000e+00
      0.693      0.007     5.3608     54.429    135.007 112.079811    21.7800     3.4806     0.0852     0.5922 6.1070e+02     2.4096      0.679      0.985    16.5064 0.0000e+00
      0.695      0.006     5.3513     54.304    135.020 112.090412    21.7800     3.4539     0.0852     0.5922 5.9731e+02     2.4549      0.681      0.988    16.5060 0.0000e+00
      0.697      0.006     5.3397     54.204    135.028 112.096654    21.7800     3.4501     0.0852     0.6345 6.3547e+02     2.3039      0.683      0.991    16.5056 0.0000e+00
      0.698      0.005     5.3266     54.133    135.027 112.096203    21.7800     3.4653     0.0852     0.6345 6.1163e+02     2.1226      0.685      0.993    16.5052 0.0000e+00
      0.699      0.004     5.3133     54.092    135.028 112.096937    21.7800     3.4577     0.0852     0.6345 5.8702e+02     2.2737      0.686      0.994    16.5050 0.0000e+00
      0.700      0.004     5.3012     54.081    135.030 112.099051    21.7800     3.4386     0.0852     0.6345 6.1482e+02     2.1528      0.687      0.996    16.5048 0.0000e+00
      0.701      0.003     5.2914     54.098    135.029 112.099111    21.8700     3.4806     0.0852     0.5076 6.3258e+02     2.2132      0.687      0.997    16.5047 0.0000e+00
      0.702      0.002     5.2844     54.134    135.020 112.093133    21.8700     3.5340     0.0852     0.5076 6.6298e+02     2.4096      0.688      0.998    16.5047 0.0000e+00
      0.702      0.002     5.2804     54.182    135.005 112.081523    21.8700     3.5340     0.0852     0.5076 5.9614e+02     2.4398      0.688      0.998    16.5048 0.0000e+00
      0.702      0.001     5.2793     54.232    134.999 112.077181    21.8700     3.5378     0.0852     0.5076 6.2574e+02     2.5305      0.689      0.999    16.5051 0.0000e+00
      0.703      0.001     5.2809     54.274    135.005 112.082950    21.8700     3.5531     0.0852     0.5076 6.0410e+02     2.4549      0.689      0.999    16.5054 0.0000e+00
      0.703      0.001     5.2844     54.301    135.010 112.088368    21.8700     3.5111     0.0852     0.5499 6.0174e+02     2.3945      0.689      0.999    16.5057 0.0000e+00
      0.703      0.001     5.2890     54.306    135.010 112.088884    21.8700     3.4768     0.0852     0.5499 6.3244e+02     2.1075      0.689      1.000    16.5061 0.0000e+00
      0.704      0.001     5.2939     54.289    135.004 112.084634    21.8700     3.4730     0.0852     0.5499 6.1496e+02     2.0924      0.690      1.000    16.5064 0.0000e+00
      0.704      0.001     5.2981     54.257    134.996 112.078484    21.8700     3.4920     0.0852     0.5499 5.9549e+02     2.2283      0.690      1.000    16.5067 0.0000e+00
      0.704      0.001     5.3006     54.214    134.988 112.072794    21.8700     3.4653     0.0852     0.5499 5.8702e+02     2.2132      0.690      1.001    16.5069 0.0000e+00
      0.704      0.002     5.3011     54.165    134.982 112.068046    21.8700     3.6141     0.0852     0.5499 5.7590e+02     2.1226      0.691      1.001    16.5072 0.0000e+00
      0.705      0.002     5.2994     54.120    134.984 112.070971    21.8700     3.5912     0.0852     0.5499 5.2772e+02     2.1830      0.691      1.002    16.5075 0.0000e+00
      0.705      0.003     5.2963     54.082    134.988 112.074353    21.8700     3.6217     0.0852     0.5499 5.2214e+02     2.0924      0.692      1.003    16.5078 0.0000e+00
      0.706      0.003     5.2920     54.051    134.973 112.063096    21.6900     3.5874     0.1278     0.5922 4.9238e+02     2.2132      0.693      1.004    16.5081 0.0000e+00
      0.707      0.004     5.2872     54.024    134.957 112.050193    21.6900     3.4920     0.1278     0.5922 4.5971e+02     2.4398      0.693      1.005    16.5084 0.0000e+00
      0.708      0.005     5.2827     53.996    134.958 112.050202    21.6900     3.4653     0.1278     0.5922 4.5326e+02     2.3039      0.694      1.007    16.5087 0.0000e+00
      0.709      0.005     5.2790     53.954    134.969 112.059125    21.6900     3.4653     0.1278     0.5922 4.5257e+02     2.3794      0.696      1.009    16.5090 0.0000e+00
      0.711      0.005     5.2759     53.896    134.984 112.071344    21.6900     3.4730     0.1278     0.5922 4.5871e+02     2.3341      0.697      1.011    16.5092 0.0000e+00
      0.713      0.005     5.2734     53.834    134.990 112.076119    21.7800     3.5187     0.0852     0.6345 4.6392e+02     2.3794      0.699      1.014    16.5093 0.0000e+00
      0.714      0.004     5.2706     53.784    134.981 112.068726    21.7800     3.5226     0.0852     0.6345 5.0189e+02     2.3341      0.701      1.016    16.5092 0.0000e+00
      0.715      0.004     5.2665     53.749    134.970 112.059189    21.7800     3.5493     0.0852     0.6345 5.1604e+02     2.3643      0.702      1.018    16.5090 0.0000e+00
      0.716      0.003     5.2609     53.726    134.963 112.052966    21.7800     3.5302     0.0852     0.6345 5.5212e+02     2.3190      0.702      1.019    16.5089 0.0000e+00
      0.716      0.003     5.2549     53.708    134.958 112.048396    21.8700     3.4577     0.0852     0.6768 5.7129e+02     2.2737      0.702      1.019    16.5088 0.0000e+00
      0.716      0.003     5.2500     53.683    134.954 112.044259    21.8700     3.4577     0.0852     0.6768 5.8206e+02     2.1679      0.702      1.019    16.5087 0.0000e+00
      0.717      0.003     5.2466     53.636    134.952 112.041454    21.8700     3.4997     0.0852     0.6768 6.2384e+02     2.1377      0.703      1.020    16.5085 0.0000e+00
      0.718      0.004     5.2443     53.562    134.956 112.043231    21.8700     3.5149     0.0852     0.6768 6.4507e+02     2.1679      0.704      1.021    16.5084 0.0000e+00
      0.719      0.004     5.2426     53.463    134.967 112.052062    21.7800     3.3776     0.0852     0.5499 5.9485e+02     2.2435      0.705      1.023    16.5081 0.0000e+00
      0.720      0.005     5.2402     53.353    134.983 112.064304    21.7800     3.3394     0.0852     0.5499 6.7725e+02     2.0773      0.707      1.025    16.5078 0.0000e+00
      0.722      0.005     5.2357     53.256    134.991 112.071225    21.7800     3.3585     0.0852     0.5499 6.1070e+02     2.1528      0.708      1.027    16.5075 0.0000e+00
      0.723      0.004     5.2285     53.196    134.989 112.068672    21.7800     3.3280     0.0852     0.5499 6.0318e+02     2.2737      0.709      1.029    16.5071 0.0000e+00
      0.724      0.004     5.2189     53.189    134.979 112.059962    21.8700     3.7553     0.1278     0.4230 5.9163e+02     2.2737      0.710      1.030    16.5069 0.0000e+00
      0.725      0.003     5.2081     53.248    134.969 112.050771    21.8700     3.7171     0.1278     0.4230 6.3588e+02     2.1981      0.711      1.031    16.5067 0.0000e+00
      0.726      0.003     5.1987     53.394    134.962 112.042647    21.8700     3.7438     0.1278     0.4230 6.4816e+02     2.2888      0.712      1.032    16.5066 0.0000e+00
      0.727      0.003     5.1928     53.662    134.954 112.033425    21.8700     3.7019     0.1278     0.4230 6.1777e+02     2.2888      0.713      1.034    16.5064 0.0000e+00
      0.727      0.002     5.1921     54.125    134.944 112.020644    21.8700     3.5302     0.1278     0.4230 6.4591e+02     2.3039      0.713      1.035    16.5062 0.0000e+00
      0.728      0.002     5.1980     54.916    134.931 112.002896    21.8700     3.5378     0.1278     0.4653 6.5967e+02     2.3190      0.714      1.035    16.5058 0.0000e+00
      0.728      0.002     5.2124     56.264    134.931 111.991445    21.8700     3.5569     0.1278     0.4653 6.3079e+02     2.3039      0.714      1.036    16.5051 0.0000e+00
      0.728      0.001     5.2386     58.578    134.956 111.995234    21.8700     3.5226     0.1278     0.4653 6.4816e+02     2.3341      0.714      1.036    16.5040 0.0000e+00
      0.729      0.001     5.2840     62.541    134.990 112.001277    21.8700     3.2212     0.1278     0.4653 6.3437e+02     2.1981      0.714      1.036    16.5024 0.0000e+00
      0.729      0.001     5.3617     68.860    135.025 112.009184    21.8700     3.2517     0.0852     0.3807 6.1790e+02     2.2435      0.715      1.037    16.4998 0.0000e+00
      0.729      0.001     5.4938     77.668    135.073 112.031060    21.8700     3.2021     0.0852     0.3807 6.0331e+02     2.2283      0.715      1.037    16.4956 0.0000e+00
      0.730      0.000     5.7206     88.287    135.103 112.042743    21.8700     3.2364     0.0852     0.3807 6.2901e+02     2.1679      0.715      1.038    16.4892 0.0000e+00
      0.730      0.000     6.1088     99.546    135.103 112.033351    21.8700     3.4768     0.0852     0.3807 6.3796e+02     2.3190      0.715      1.038    16.4812 0.0000e+00
      0.729     -0.001     6.7271    110.193    135.100 112.024375    21.8700     3.4692     0.0852     0.3807 6.3258e+02     2.2132      0.715      1.038    16.4733 0.0000e+00
      0.729     -0.002     7.5886    119.137    135.092 112.013421    21.8700     3.4844     0.0852     0.3807 6.4116e+02     2.1679      0.715      1.037    16.4668 0.0000e+00
      0.729     -0.002     8.6269    125.573    135.069 111.993569    21.8700     3.5035     0.0852     0.3807 6.4971e+02     2.1528      0.715      1.037    16.4619 0.0000e+00
      0.728     -0.003     9.7277    129.092    135.042 111.971523    21.8700     3.7362     0.0852     0.3807 6.1336e+02     2.2132      0.714      1.036    16.4583 0.0000e+00
      0.727     -0.003    10.7685    129.805    135.031 111.963399    21.8700     3.7095     0.0852     0.3807 6.3038e+02     2.1679      0.713      1.034    16.4558 0.0000e+00
      0.726     -0.002    11.6427    128.336    135.036 111.969030    21.7800     3.7171     0.1278     0.5922 6.6891e+02     2.3039      0.712      1.032    16.4544 0.0000e+00
      0.725     -0.001    12.2717    125.553    135.033 111.967924    21.7800     3.7514     0.1278     0.5922 6.8569e+02     2.2586      0.711      1.031    16.4539 0.0000e+00
      0.725      0.001    12.6155    122.233    135.017 111.953785    21.7800     3.1067     0.1278     0.5922 6.4844e+02     2.3643      0.711      1.031    16.4540 0.0000e+00
      0.725      0.002    12.6851    118.896    135.009 111.944841    21.7800     3.1067     0.1278     0.5922 6.1844e+02     2.3643      0.711      1.031    16.4545 0.0000e+00
      0.726      0.003    12.5413    115.825    135.026 111.956700    21.8700     3.1144     0.1278     0.4230 6.8494e+02     2.4398      0.712      1.033    16.4551 0.0000e+00
      0.728      0.003    12.2692    113.144    135.046 111.970530    21.8700     3.1067     0.1278     0.4230 6.5183e+02     2.4096      0.713      1.035    16.4555 0.0000e+00
      0.729      0.002    11.9448    110.880    135.047 111.968024    21.8700     3.3623     0.1278     0.4230 5.9614e+02     2.3643      0.715      1.037    16.4554 0.0000e+00
      0.730      0.000    11.6188    109.008    135.041 111.958512    21.8700     3.3585     0.1278     0.4230 5.8244e+02     2.3492      0.716      1.038    16.4545 0.0000e+00
      0.730     -0.004    11.3190    107.480    135.038 111.949454    22.0500     3.3242     0.0852     0.3807 5.8855e+02     2.3643      0.716      1.039    16.4535 0.0000e+00
      0.730     -0.012    11.0572    106.242    135.037 111.942434    22.0500     3.3585     0.0852     0.3807 6.2033e+02     2.3945      0.716      1.038    16.4525 0.0000e+00
      0.728     -0.023    10.8362    105.240    135.038 111.939578    22.0500     3.6027     0.0852     0.3807 5.9978e+02     2.6362      0.714      1.035    16.4514 0.0000e+00
      0.723     -0.039    10.6537    104.444    135.049 111.952121    22.0500     3.5760     0.0852     0.3807 5.7515e+02     2.7269      0.709      1.029    16.4497 0.0000e+00
      0.715     -0.060    10.5049    103.831    135.076 111.985409    22.0500     3.5721     0.0852     0.4653 5.7590e+02     2.6211      0.700      1.016    16.4473 0.0000e+00
      0.699     -0.083    10.3843    103.384    135.091 112.016324    22.0500     3.5798     0.0852     0.4653 6.3134e+02     2.7269      0.685      0.994    16.4449 0.0000e+00
      0.675     -0.107    10.2867    103.076    135.090 112.037116    22.0500     3.4730     0.0852     0.4653 6.0937e+02     3.0139      0.662      0.960    16.4436 0.0000e+00
      0.642     -0.128    10.2087    102.867    135.086 112.055330    22.0500     3.4920     0.0852     0.4653 7.8458e+02     3.0894      0.630      0.913    16.4446 0.0000e+00
      0.602     -0.144    10.1479    102.715    135.062 112.053831    22.0500     3.4997     0.0852     0.4653 8.4437e+02     3.1649      0.590      0.856    16.4488 0.0000e+00
      0.558     -0.155    10.1027    102.572    135.020 112.032217    21.9600     3.4882     0.1278     0.5076 9.1348e+02     3.1801      0.547      0.793    16.4556 0.0000e+00
      0.515     -0.159    10.0709    102.408    134.987 112.014721    21.9600     2.3858     0.1278     0.5076 5.5417e+02     2.1981      0.504      0.731    16.4638 0.0000e+00
      0.474     -0.160    10.0489    102.224    134.950 111.994677    21.9600     2.3629     0.1278     0.5076 6.7226e+02     2.1830      0.464      0.673    16.4717 0.0000e+00
      0.434     -0.158    10.0326    102.055    134.888 111.952744    21.9600     2.3781     0.1278     0.5076 5.4190e+02     2.1377      0.426      0.618    16.4783 0.0000e+00
      0.395     -0.152    10.0176    101.929    134.783 111.873741    21.7800     2.3781     0.0852     0.3807 1.0452e+03     2.1830      0.388      0.562    16.4832 0.0000e+00
      0.355     -0.144    10.0008    101.857    134.607 111.734601    21.7800     2.0462     0.0852     0.3807 4.9657e+02     2.2435      0.349      0.505    16.4872 0.0000e+00
      0.316     -0.132     9.9820    101.843    134.312 111.496221    21.7800     2.0768     0.0852     0.3807 3.4395e+02     2.2132      0.310      0.450    16.4909 0.0000e+00
      0.280     -0.115     9.9647    101.883    133.804 111.081035    21.7800     2.0424     0.0852     0.3807 5.5284e+02     2.2435      0.275      0.398    16.4944 0.0000e+00
      0.249     -0.092     9.9518    101.955    132.954 110.382328    21.7800     2.0806     0.1278     0.3384 7.3554e+02     2.1528      0.245      0.355    16.4974 0.0000e+00
      0.227     -0.066     9.9442    102.026    131.573 109.241772    21.7800     2.1950     0.1278     0.3384 8.7463e+02     2.0773      0.223      0.323    16.4999 0.0000e+00
      0.215     -0.038     9.9424    102.067    129.296 107.355218    21.7800     2.1874     0.1278     0.3384 6.6154e+02     2.1830      0.211      0.306    16.5022 0.0000e+00
      0.211     -0.011     9.9458    102.060    125.494 104.199590    21.7800     2.1874     0.1278     0.3384 3.8185e+02     2.2132      0.207      0.301    16.5046 0.0000e+00
      0.214      0.012     9.9523    102.011    119.186  98.961381    21.6000     2.1950     0.0852     0.2538 1.1596e+03     2.3039      0.210      0.305    16.5069 0.0000e+00
      0.222      0.032     9.9590    101.929    108.705  90.257732    21.6000     2.2713     0.0852     0.2538 1.1869e+03     2.4398      0.218      0.317    16.5088 0.0000e+00
      0.234      0.048     9.9628    101.823     91.209  75.731676    21.6000     2.2522     0.0852     0.2538 4.9744e+02     2.3039      0.230      0.333    16.5096 0.0000e+00
      0.249      0.061     9.9623    101.709     62.036  51.519597    21.6000     2.2370     0.0852     0.2538 1.2810e+03     2.4096      0.244      0.354    16.5089 0.0000e+00
      0.267      0.072     9.9579    101.610     13.417  11.176937    21.6000     2.2599     0.0852     0.2538 6.8837e+02     2.3039      0.261      0.379    16.5066 0.0000e+00
      0.287      0.080     9.9507    101.542    -67.642 -56.072344    21.6000     2.1683     0.1278     0.3384 1.1733e+03     2.6060      0.281      0.408    16.5027 0.0000e+00
      0.310      0.086     9.9415    101.516   -202.746-168.147392    21.6000     2.1950     0.1278     0.3384 1.1017e+03     2.6211      0.304      0.440    16.4975 0.0000e+00
      0.333      0.090     9.9317    101.538   -427.909-354.916891    21.6000     2.1988     0.1278     0.3384 9.2486e+02     2.6513      0.327      0.474    16.4916 0.0000e+00
      0.358      0.091     9.9233    101.601   -568.646-471.659586    21.6000     2.1798     0.1278     0.3384 7.3538e+02     2.6060      0.351      0.509    16.4855 0.0000e+00
      0.383      0.090     9.9180    101.692   -427.943-354.964413    21.8700     2.5574     0.0852     0.4653 5.2956e+02     2.4852      0.375      0.544    16.4795 0.0000e+00
      0.406      0.086     9.9168    101.790   -202.777-168.211118    21.8700     2.5651     0.0852     0.4653 5.2715e+02     2.4096      0.398      0.578    16.4741 0.0000e+00
      0.428      0.080     9.9201    101.872    -67.642 -56.129279    21.8700     2.5651     0.0852     0.4653 1.0587e+03     2.3945      0.420      0.609    16.4696 0.0000e+00
      0.448      0.073     9.9272    101.931     13.442  11.123607    21.8700     2.5460     0.0852     0.4653 7.9349e+02     2.3341      0.440      0.638    16.4657 0.0000e+00
      0.466      0.065     9.9366    101.984     62.081  51.467643    21.8700     2.5574     0.0426     0.3384 6.8450e+02     2.2132      0.457      0.663    16.4626 0.0000e+00
      0.482      0.056     9.9465    102.040     91.270  75.681237    21.8700     2.5803     0.0426     0.3384 7.1708e+02     2.1377      0.473      0.685    16.4601 0.0000e+00
      0.495      0.047     9.9546    102.092    108.775  90.203350    21.8700     2.5689     0.0426     0.3384 6.8912e+02     2.0924      0.485      0.704    16.4585 0.0000e+00
      0.505      0.039     9.9603    102.125    119.254  98.898549    21.8700     2.5727     0.0426     0.3384 8.0129e+02     2.1377      0.496      0.719    16.4582 0.0000e+00
      0.514      0.033     9.9653    102.129    125.537 104.113546    21.8700     2.4926     0.0426     0.3384 6.4788e+02     2.4701      0.504      0.731    16.4587 0.0000e+00
      0.521      0.027     9.9706    102.091    129.306 107.243008    21.8700     2.4697     0.0852     0.5076 5.8219e+02     2.3039      0.511      0.740    16.4598 0.0000e+00
      0.526      0.023     9.9754    102.004    131.556 109.111459    21.8700     2.5155     0.0852     0.5076 5.2566e+02     2.4701      0.516      0.748    16.4611 0.0000e+00
      0.531      0.020     9.9783    101.881    132.909 110.235151    21.8700     2.4926     0.0852     0.5076 6.7695e+02     2.4398      0.520      0.755    16.4624 0.0000e+00
      0.535      0.018     9.9784    101.746    133.740 110.923731    21.8700     2.5002     0.0852     0.5076 6.1109e+02     2.4398      0.524      0.761    16.4637 0.0000e+00
      0.539      0.017     9.9745    101.621    134.240 111.336825    21.7800     2.5193     0.0852     0.4653 6.5396e+02     2.1679      0.528      0.766    16.4648 0.0000e+00
      0.543      0.017     9.9658    101.527    134.532 111.576595    21.7800     2.5155     0.0852     0.4653 6.9152e+02     2.2132      0.532      0.772    16.4657 0.0000e+00
      0.547      0.018     9.9537    101.482    134.705 111.714977    21.7800     2.5193     0.0852     0.4653 6.2901e+02     2.1679      0.536      0.777    16.4662 0.0000e+00
      0.551      0.019     9.9406    101.493    134.795 111.780875    21.7800     2.5574     0.0852     0.4653 6.2465e+02     2.4096      0.540      0.784    16.4660 0.0000e+00
      0.556      0.021     9.9284    101.557    134.842 111.807858    21.8700     2.5383     0.0852     0.5076 6.0515e+02     2.3341      0.545      0.791    16.4654 0.0000e+00
      0.562      0.023     9.9195    101.653    134.880 111.827114    21.8700     2.5651     0.0852     0.5076 4.1670e+02     2.4549      0.551      0.799    16.4644 0.0000e+00
      0.568      0.024     9.9155    101.746    134.910 111.839781    21.8700     2.5536     0.0852     0.5076 5.9731e+02     2.3341      0.557      0.808    16.4625 0.0000e+00
      0.574      0.025     9.9173    101.814    134.939 111.853232    21.8700     2.6833     0.0852     0.5076 7.1973e+02     2.2888      0.563      0.817    16.4593 0.0000e+00
      0.581      0.026     9.9244    101.854    134.961 111.863058    21.8700     2.6795     0.0852     0.4230 8.5899e+02     2.4096      0.570      0.827    16.4550 0.0000e+00
      0.588      0.025     9.9348    101.872    134.963 111.859880    21.8700     2.6642     0.0852     0.4230 5.6646e+02     2.3341      0.577      0.837    16.4503 0.0000e+00
      0.595      0.024     9.9449    101.877    134.963 111.858846    21.8700     2.6452     0.0852     0.4230 6.5014e+02     2.3643      0.584      0.847    16.4457 0.0000e+00
      0.601      0.022     9.9523    101.882    134.969 111.863682    21.8700     3.1220     0.0852     0.4230 5.1403e+02     2.4701      0.590      0.856    16.4418 0.0000e+00
      0.607      0.020     9.9568    101.896    134.978 111.871678    21.8700     3.1182     0.0852     0.4230 5.2715e+02     2.3039      0.595      0.864    16.4388 0.0000e+00
      0.611      0.019     9.9589    101.932    135.001 111.888964    21.9600     3.1296     0.1278     0.6345 6.0318e+02     2.3190      0.600      0.870    16.4371 0.0000e+00
      0.615      0.017     9.9595    101.990    135.017 111.900154    21.9600     3.1220     0.1278     0.6345 7.3315e+02     2.4096      0.603      0.875    16.4366 0.0000e+00
      0.619      0.017     9.9599    102.060    135.006 111.888238    21.9600     3.3662     0.1278     0.6345 7.3634e+02     2.3945      0.607      0.881    16.4367 0.0000e+00
      0.623      0.017     9.9614    102.126    135.007 111.886029    21.9600     3.3356     0.1278     0.6345 7.6256e+02     2.3643      0.611      0.886    16.4367 0.0000e+00
      0.627      0.018     9.9649    102.173    135.054 111.922931    21.8700     3.3547     0.0426     0.5499 6.8807e+02     2.3643      0.615      0.893    16.4362 0.0000e+00
      0.632      0.019     9.9708    102.188    135.091 111.952797    21.8700     3.3433     0.0426     0.5499 6.9847e+02     2.3945      0.620      0.899    16.4354 0.0000e+00
      0.637      0.020     9.9779    102.170    135.090 111.951598    21.8700     3.2097     0.0426     0.5499 7.1801e+02     2.3039      0.625      0.906    16.4343 0.0000e+00
      0.642      0.021     9.9845    102.135    135.090 111.951007    21.8700     3.2136     0.0426     0.5499 6.6557e+02     2.3341      0.630      0.914    16.4333 0.0000e+00
      0.647      0.023     9.9892    102.110    135.090 111.948869    21.9600     3.2364     0.0852     0.5076 6.9212e+02     2.3190      0.635      0.921    16.4325 0.0000e+00
      0.653      0.024     9.9908    102.108    135.083 111.940612    21.9600     3.2059     0.0852     0.5076 6.6557e+02     2.3945      0.641      0.930    16.4322 0.0000e+00
      0.660      0.024     9.9891    102.126    135.095 111.948031    21.9600     3.6713     0.0852     0.5076 6.6500e+02     2.3945      0.647      0.939    16.4320 0.0000e+00
      0.666      0.025     9.9858    102.144    135.115 111.963105    21.9600     3.6599     0.0852     0.5076 6.7548e+02     2.3794      0.653      0.948    16.4317 0.0000e+00
      0.673      0.025     9.9835    102.143    135.112 111.959860    21.9600     3.6523     0.0852     0.5076 6.3093e+02     2.3794      0.660      0.958    16.4310 0.0000e+00
      0.679      0.025     9.9835    102.121    135.098 111.947429    22.1400     3.6561     0.0852     0.4230 6.7182e+02     2.4852      0.666      0.967    16.4300 0.0000e+00
      0.685      0.024     9.9853    102.089    135.087 111.936494    22.1400     4.0223     0.0852     0.4230 6.9953e+02     2.3643      0.672      0.975    16.4291 0.0000e+00
      0.691      0.024     9.9872    102.053    135.074 111.924140    22.1400     4.0299     0.0852     0.4230 5.7377e+02     2.3945      0.678      0.983    16.4285 0.0000e+00
      0.697      0.024     9.9872    102.015    135.079 111.927066    22.1400     4.0185     0.0852     0.4230 6.4241e+02     2.3945      0.684      0.992    16.4282 0.0000e+00
      0.703      0.024     9.9852    101.977    135.097 111.940055    22.0500     4.0070     0.1704     0.4230 5.4925e+02     2.4096      0.689      1.000    16.4279 0.0000e+00
      0.709      0.024     9.9821    101.944    135.095 111.936577    22.0500     4.1138     0.1704     0.4230 5.2225e+02     2.4549      0.695      1.009    16.4275 0.0000e+00
      0.715      0.024     9.9787    101.918    135.088 111.929701    22.0500     4.0643     0.1704     0.4230 4.6181e+02     2.4247      0.701      1.017    16.4269 0.0000e+00
      0.721      0.025     9.9751    101.895    135.080 111.921592    22.0500     4.1024     0.1704     0.4230 4.3069e+02     2.3039      0.707      1.026    16.4262 0.0000e+00
      0.727      0.026     9.9716    101.880    135.052 111.896092    21.8700     4.0719     0.1278     0.5076 4.0124e+02     2.3794      0.713      1.034    16.4255 0.0000e+00
      0.733      0.028     9.9685    101.879    135.018 111.864395    21.8700     4.0910     0.1278     0.5076 4.0299e+02     2.3794      0.719      1.043    16.4249 0.0000e+00
      0.740      0.031     9.9661    101.893    134.989 111.836047    21.8700     4.1444     0.1278     0.5076 4.2263e+02     2.3190      0.726      1.053    16.4244 0.0000e+00
      0.748      0.034     9.9639    101.920    134.980 111.823483    21.8700     4.1444     0.1278     0.5076 4.5612e+02     2.3039      0.734      1.064    16.4239 0.0000e+00
      0.757      0.038     9.9627    101.946    134.995 111.831350    21.9600     4.1444     0.0426     0.5499 4.9014e+02     2.3341      0.743      1.077    16.4232 0.0000e+00
      0.768      0.041     9.9628    101.958    135.014 111.841750    21.9600     4.1367     0.0426     0.5499 5.0539e+02     2.3039      0.753      1.092    16.4220 0.0000e+00
      0.779      0.043     9.9645    101.954    135.014 111.837461    21.9600     4.3504     0.0426     0.5499 5.5033e+02     2.3341      0.764      1.108    16.4204 0.0000e+00
      0.791      0.044     9.9675    101.941    135.005 111.825338    21.9600     4.3313     0.0426     0.5499 5.6980e+02     2.4398      0.776      1.125    16.4184 0.0000e+00
      0.803      0.045     9.9705    101.936    135.007 111.822142    21.9600     4.3351     0.0426     0.5499 5.6733e+02     2.3341      0.787      1.142    16.4165 0.0000e+00
      0.815      0.045     9.9720    101.951    135.020 111.827022    22.1400     4.3275     0.1278     0.6345 5.8689e+02     2.3039      0.799      1.159    16.4147 0.0000e+00
      0.826      0.044     9.9720    101.992    135.045 111.841278    22.1400     4.3122     0.1278     0.6345 5.8549e+02     2.2737      0.810      1.175    16.4130 0.0000e+00
      0.837      0.044     9.9711    102.049    135.078 111.860713    22.1400     4.3313     0.1278     0.6345 5.6856e+02     2.3341      0.821      1.191    16.4113 0.0000e+00
      0.848      0.043     9.9710    102.110    135.094 111.866516    22.1400     4.3313     0.1278     0.6345 5.6046e+02     2.3945      0.832      1.206    16.4093 0.0000e+00
      0.859      0.041     9.9730    102.154    135.083 111.852235    22.0500     4.3237     0.1704     0.5499 5.7490e+02     2.3039      0.842      1.222    16.4073 0.0000e+00
      0.870      0.040     9.9774    102.169    135.055 111.826059    22.0500     4.3885     0.1704     0.5499 5.6034e+02     2.3341      0.853      1.237    16.4049 0.0000e+00
      0.880      0.038     9.9836    102.155    135.025 111.801002    22.0500     4.4267     0.1704     0.5499 5.4533e+02     2.3190      0.863      1.252    16.4021 0.0000e+00
      0.890      0.036     9.9901    102.117    135.025 111.802376    22.0500     4.3885     0.1704     0.5499 5.5598e+02     2.3643      0.872      1.265    16.3994 0.0000e+00
      0.898      0.034     9.9948    102.073    135.051 111.826548    22.0500     4.4076     0.0852     0.5499 5.4568e+02     2.3341      0.881      1.278    16.3974 0.0000e+00
      0.906      0.032     9.9966    102.036    135.059 111.835975    22.0500     4.3313     0.0852     0.5499 5.6967e+02     2.1981      0.889      1.289    16.3964 0.0000e+00
      0.914      0.031     9.9952    102.011    135.049 111.829170    22.0500     4.3504     0.0852     0.5499 5.5961e+02     2.1981      0.896      1.300    16.3963 0.0000e+00
      0.921      0.030     9.9914    101.990    135.054 111.832314    22.0500     4.3008     0.0852     0.5499 5.5164e+02     2.1075      0.904      1.311    16.3969 0.0000e+00
      0.929      0.029     9.9868    101.965    135.065 111.840246    22.0500     4.3313     0.0852     0.5499 5.5622e+02     2.1377      0.911      1.321    16.3978 0.0000e+00
      0.936      0.029     9.9831    101.940    135.064 111.837084    22.1400     4.3046     0.0852     0.4230 5.4273e+02     1.9564      0.918      1.331    16.3987 0.0000e+00
      0.943      0.030     9.9805    101.921    135.067 111.835984    22.1400     4.2741     0.0852     0.4230 5.5164e+02     1.9111      0.925      1.341    16.3991 0.0000e+00
      0.950      0.032     9.9784    101.919    135.076 111.838650    22.1400     4.2626     0.0852     0.4230 5.6659e+02     1.8960      0.932      1.352    16.3990 0.0000e+00
      0.958      0.034     9.9761    101.934    135.066 111.825798    22.1400     4.2664     0.0852     0.4230 5.6548e+02     1.9262      0.940      1.363    16.3985 0.0000e+00
      0.967      0.037     9.9738    101.955    135.043 111.801998    22.0500     4.2168     0.0852     0.4653 5.5272e+02     2.2435      0.949      1.376    16.3976 0.0000e+00
      0.977      0.040     9.9722    101.973    135.037 111.792897    22.0500     4.1978     0.0852     0.4653 5.4190e+02     2.2132      0.958      1.390    16.3963 0.0000e+00
      0.988      0.043     9.9724    101.988    135.036 111.788070    22.0500     4.2168     0.0852     0.4653 5.2304e+02     2.1679      0.969      1.406    16.3946 0.0000e+00
      1.000      0.046     9.9743    101.999    135.015 111.766232    22.0500     4.2168     0.0852     0.4653 5.2795e+02     2.1830      0.980      1.422    16.3927 0.0000e+00
      1.012      0.048     9.9767    102.004    134.996 111.745556    22.2300     4.5029     0.0852     0.5922 5.2601e+02     2.2435      0.992      1.439    16.3908 0.0000e+00
      1.024      0.050     9.9788    101.998    134.992 111.736525    22.2300     4.5106     0.0852     0.5922 5.0870e+02     2.2435      1.004      1.457    16.3893 0.0000e+00
      1.037      0.051     9.9805    101.974    134.991 111.728730    22.2300     4.5106     0.0852     0.5922 5.1829e+02     2.2132      1.017      1.476    16.3879 0.0000e+00
      1.051      0.052     9.9820    101.932    134.977 111.712096    22.2300     4.5144     0.0852     0.5922 4.8929e+02     2.2283      1.031      1.495    16.3865 0.0000e+00
      1.065      0.051     9.9829    101.885    134.959 111.694182    22.2300     4.4495     0.0852     0.5922 4.7607e+02     2.1377      1.045      1.516    16.3846 0.0000e+00
      1.079      0.049     9.9828    101.845    134.975 111.706205    22.2300     4.4648     0.0852     0.5922 4.7062e+02     2.2132      1.058      1.535    16.3823 0.0000e+00
      1.091      0.047     9.9809    101.820    135.010 111.733374    22.2300     4.4724     0.0852     0.5922 4.7339e+02     2.2888      1.070      1.552    16.3799 0.0000e+00
      1.102      0.045     9.9772    101.818    135.001 111.724947    22.2300     4.4648     0.0852     0.5922 4.8180e+02     2.1830      1.081      1.568    16.3781 0.0000e+00
      1.113      0.044     9.9728    101.843    134.975 111.702672    22.2300     4.5754     0.0852     0.5922 4.6453e+02     1.9262      1.091      1.583    16.3770 0.0000e+00
      1.123      0.045     9.9690    101.886    134.978 111.704597    22.1400     4.5678     0.1278     0.5076 4.6838e+02     1.9111      1.102      1.598    16.3763 0.0000e+00
      1.134      0.047     9.9666    101.936    134.975 111.701245    22.1400     4.5640     0.1278     0.5076 4.7134e+02     2.0169      1.113      1.613    16.3759 0.0000e+00
      1.146      0.050     9.9666    101.976    134.955 111.681722    22.1400     4.5678     0.1278     0.5076 4.5504e+02     1.9111      1.124      1.630    16.3755 0.0000e+00
      1.159      0.053     9.9690    101.997    134.958 111.680814    22.1400     4.7166     0.1278     0.5076 4.5041e+02     2.1679      1.137      1.649    16.3752 0.0000e+00
      1.173      0.058     9.9733    102.000    134.996 111.706278    22.2300     4.7166     0.1278     0.5076 4.5316e+02     2.1679      1.151      1.669    16.3750 0.0000e+00
      1.188      0.064     9.9783    101.982    135.027 111.724911    22.2300     4.6937     0.1278     0.5076 4.4102e+02     2.3039      1.165      1.690    16.3744 0.0000e+00
      1.204      0.069     9.9824    101.939    135.029 111.717688    22.2300     4.6975     0.1278     0.5076 4.3060e+02     2.2737      1.182      1.714    16.3735 0.0000e+00
      1.223      0.076     9.9848    101.880    135.028 111.706677    22.2300     4.7509     0.1278     0.5076 4.1906e+02     2.3794      1.200      1.740    16.3722 0.0000e+00
      1.243      0.082     9.9854    101.828    135.036 111.700938    22.2300     4.7433     0.0852     0.5499 4.1014e+02     2.4701      1.219      1.768    16.3702 0.0000e+00
      1.265      0.087     9.9842    101.802    135.053 111.698942    22.2300     4.7471     0.0852     0.5499 3.9493e+02     2.4096      1.241      1.800    16.3675 0.0000e+00
      1.289      0.091     9.9807    101.802    135.067 111.692156    22.2300     4.7433     0.0852     0.5499 3.7797e+02     2.4701      1.264      1.833    16.3642 0.0000e+00
      1.314      0.094     9.9757    101.810    135.057 111.662773    22.2300     4.8730     0.0852     0.5499 3.6299e+02     2.1830      1.288      1.869    16.3602 0.0000e+00
      1.339      0.095     9.9716    101.802    135.031 111.622954    22.2300     4.8654     0.0852     0.5499 3.4771e+02     2.2132      1.313      1.905    16.3556 0.0000e+00
      1.364      0.095     9.9703    101.766    135.000 111.582073    22.2300     4.8806     0.0852     0.6768 3.4068e+02     2.2435      1.338      1.940    16.3499 0.0000e+00
      1.389      0.093     9.9718    101.709    134.959 111.537226    22.2300     4.8577     0.0852     0.6768 3.2470e+02     2.1679      1.362      1.975    16.3430 0.0000e+00
      1.412      0.089     9.9742    101.637    134.940 111.514446    22.2300     5.1934     0.0852     0.6768 3.1628e+02     2.0169      1.385      2.009    16.3354 0.0000e+00
      1.435      0.083     9.9748    101.558    134.968 111.533650    22.2300     5.1667     0.0852     0.6768 3.0793e+02     2.0471      1.407      2.041    16.3284 0.0000e+00
      1.457      0.076     9.9725    101.489    135.010 111.565968    22.2300     5.1591     0.1278     0.5922 2.9191e+02     2.0169      1.428      2.072    16.3228 0.0000e+00
      1.476      0.068     9.9678    101.442    135.052 111.600023    22.2300     5.1858     0.1278     0.5922 2.8756e+02     1.9111      1.447      2.099    16.3187 0.0000e+00
      1.492      0.059     9.9613    101.421    135.103 111.642897    22.2300     5.3803     0.1278     0.5922 2.8470e+02     2.0773      1.464      2.123    16.3161 0.0000e+00
      1.506      0.050     9.9539    101.423    135.136 111.672031    22.2300     5.3803     0.1278     0.5922 2.8520e+02     1.9262      1.477      2.142    16.3146 0.0000e+00
      1.517      0.042     9.9472    101.444    135.137 111.677197    22.0500     5.3651     0.1278     0.6345 2.8470e+02     1.8054      1.488      2.158    16.3138 0.0000e+00
      1.526      0.035     9.9427    101.478    135.129 111.675770    22.0500     5.3613     0.1278     0.6345 2.8384e+02     1.7903      1.497      2.170    16.3135 0.0000e+00
      1.533      0.029     9.9406    101.514    135.121 111.675367    22.0500     5.3689     0.1278     0.6345 2.8750e+02     1.9564      1.504      2.181    16.3137 0.0000e+00
      1.539      0.025     9.9406    101.535    135.090 111.655886    22.0500     5.3575     0.1278     0.6345 2.8402e+02     1.9413      1.510      2.189    16.3145 0.0000e+00
      1.545      0.022     9.9424    101.527    135.030 111.612133    22.0500     5.3460     0.0852     0.6345 2.8077e+02     1.9715      1.515      2.197    16.3159 0.0000e+00
      1.550      0.020     9.9454    101.497    134.991 111.582429    22.0500     5.3651     0.0852     0.6345 2.7943e+02     1.9111      1.520      2.204    16.3178 0.0000e+00
      1.554      0.018     9.9484    101.470    135.003 111.592845    22.0500     5.3651     0.0852     0.6345 2.7816e+02     1.7752      1.524      2.211    16.3202 0.0000e+00
      1.558      0.016     9.9500    101.459    135.047 111.628163    22.0500     5.3842     0.0852     0.6345 2.7737e+02     1.6996      1.528      2.217    16.3226 0.0000e+00
      1.562      0.015     9.9487    101.451    135.087 111.659809    22.0500     5.3613     0.0852     0.6345 2.7123e+02     1.7449      1.532      2.223    16.3247 0.0000e+00
      1.566      0.014     9.9455    101.439    135.092 111.664229    22.1400     5.3575     0.0852     0.8037 2.6865e+02     1.7147      1.536      2.228    16.3258 0.0000e+00
      1.569      0.012     9.9429    101.436    135.069 111.646601    22.1400     5.3460     0.0852     0.8037 2.6420e+02     1.7449      1.539      2.232    16.3259 0.0000e+00
      1.572      0.011     9.9419    101.458    135.044 111.630219    22.1400     5.3613     0.0852     0.8037 2.6180e+02     1.7449      1.542      2.237    16.3255 0.0000e+00
      1.575      0.011     9.9412    101.511    135.020 111.614712    22.1400     5.3689     0.0852     0.8037 2.6145e+02     1.7298      1.545      2.240    16.3250 0.0000e+00
      1.578      0.010     9.9400    101.579    134.990 111.595946    22.1400     5.3575     0.0852     0.8460 2.5556e+02     1.8205      1.547      2.244    16.3250 0.0000e+00
      1.580      0.010     9.9395    101.644    134.982 111.594910    22.1400     5.4376     0.0852     0.8460 2.5006e+02     1.7903      1.549      2.247    16.3257 0.0000e+00
      1.582      0.010     9.9415    101.701    135.006 111.621327    22.1400     5.4147     0.0852     0.8460 2.4565e+02     1.6694      1.552      2.251    16.3271 0.0000e+00
      1.585      0.011     9.9463    101.750    135.032 111.648249    22.1400     5.4147     0.0852     0.8460 2.4141e+02     1.7601      1.554      2.254    16.3288 0.0000e+00
      1.587      0.012     9.9525    101.787    135.029 111.648864    22.0500     5.4490     0.0852     0.7614 2.3736e+02     1.7601      1.557      2.258    16.3309 0.0000e+00
      1.590      0.014     9.9584    101.798    135.006 111.631333    22.0500     5.4147     0.0852     0.7614 2.3276e+02     1.9413      1.560      2.262    16.3332 0.0000e+00
      1.594      0.017     9.9635    101.770    134.995 111.618977    22.0500     5.4223     0.0852     0.7614 2.2608e+02     1.8205      1.563      2.267    16.3355 0.0000e+00
      1.598      0.020     9.9679    101.707    134.995 111.612497    22.0500     5.4147     0.0852     0.7614 2.2252e+02     1.9564      1.567      2.273    16.3375 0.0000e+00
      1.604      0.024     9.9712    101.629    134.999 111.606169    22.0500     5.4032     0.0852     0.7614 2.1935e+02     1.9413      1.573      2.281    16.3388 0.0000e+00
      1.610      0.028     9.9722    101.561    135.010 111.602301    22.1400     5.2812     0.0426     0.8037 2.1357e+02     1.8356      1.579      2.290    16.3391 0.0000e+00
      1.618      0.032     9.9697    101.511    135.007 111.583867    22.1400     5.3002     0.0426     0.8037 2.1085e+02     1.9413      1.587      2.301    16.3381 0.0000e+00
      1.627      0.036     9.9640    101.475    134.993 111.555947    22.1400     5.2812     0.0426     0.8037 2.0875e+02     2.0773      1.595      2.314    16.3358 0.0000e+00
      1.636      0.039     9.9572    101.434    135.000 111.545087    22.1400     5.3002     0.0426     0.8037 2.0803e+02     1.8658      1.605      2.327    16.3321 0.0000e+00
      1.647      0.042     9.9515    101.374    135.019 111.546391    22.2300     5.5482     0.0852     0.6768 2.0591e+02     1.9413      1.615      2.342    16.3272 0.0000e+00
      1.658      0.044     9.9478    101.291    135.033 111.546209    22.2300     5.5444     0.0852     0.6768 2.0471e+02     1.8809      1.626      2.358    16.3214 0.0000e+00
      1.670      0.045     9.9456    101.188    135.031 111.536494    22.2300     5.5215     0.0852     0.6768 2.0373e+02     1.9413      1.638      2.375    16.3152 0.0000e+00
      1.682      0.045     9.9429    101.072    135.023 111.524653    22.2300     5.5520     0.0852     0.6768 2.0347e+02     2.0320      1.650      2.392    16.3090 0.0000e+00
      1.694      0.044     9.9381    100.945    135.017 111.517527    22.3200     5.6626     0.1278     0.8037 2.0324e+02     1.9715      1.661      2.409    16.3036 0.0000e+00
      1.705      0.042     9.9309    100.814    135.007 111.507215    22.3200     5.6588     0.1278     0.8037 2.0382e+02     1.9262      1.672      2.425    16.2994 0.0000e+00
      1.716      0.040     9.9214    100.683    135.003 111.502965    22.3200     5.6779     0.1278     0.8037 2.0232e+02     2.0471      1.682      2.440    16.2964 0.0000e+00
      1.725      0.038     9.9104    100.563    135.011 111.509643    22.3200     5.6664     0.1278     0.8037 2.0515e+02     2.0169      1.692      2.454    16.2946 0.0000e+00
      1.734      0.036     9.8982    100.468    135.013 111.511034    22.2300     5.5367     0.0852     0.7614 2.0730e+02     1.6241      1.700      2.466    16.2936 0.0000e+00
      1.742      0.035     9.8855    100.417    135.012 111.511508    22.2300     5.5444     0.0852     0.7614 2.0880e+02     1.7298      1.709      2.478    16.2930 0.0000e+00
      1.751      0.034     9.8727    100.428    135.023 111.521188    22.2300     5.5291     0.0852     0.7614 2.0916e+02     1.7601      1.717      2.490    16.2927 0.0000e+00
      1.759      0.035     9.8610    100.475    135.033 111.528660    22.2300     5.5444     0.0852     0.7614 2.1034e+02     1.7449      1.725      2.502    16.2925 0.0000e+00
      1.768      0.036     9.8516    100.527    135.036 111.529916    22.2300     5.7504     0.0852     0.7614 2.1053e+02     1.9715      1.734      2.515    16.2925 0.0000e+00
      1.777      0.038     9.8466    100.569    135.024 111.517295    22.1400     5.7389     0.0852     0.7191 2.1039e+02     1.9715      1.743      2.528    16.2928 0.0000e+00
      1.787      0.040     9.8476    100.594    134.994 111.489430    22.1400     5.7389     0.0852     0.7191 2.1140e+02     1.9866      1.753      2.542    16.2930 0.0000e+00
      1.798      0.043     9.8523    100.603    134.990 111.482879    22.1400     5.7237     0.0852     0.7191 2.0957e+02     1.9413      1.763      2.557    16.2929 0.0000e+00
      1.809      0.045     9.8574    100.602    135.006 111.491896    22.1400     5.6512     0.0852     0.7191 2.0748e+02     1.8507      1.774      2.573    16.2924 0.0000e+00
      1.821      0.048     9.8617    100.592    135.002 111.484894    22.2300     5.6703     0.0426     0.8037 2.0757e+02     2.0773      1.786      2.589    16.2915 0.0000e+00
      1.833      0.050     9.8644    100.569    135.007 111.485998    22.2300     5.6932     0.0426     0.8037 2.0533e+02     2.0471      1.798      2.607    16.2904 0.0000e+00
      1.846      0.053     9.8656    100.543    135.022 111.495504    22.2300     5.6817     0.0426     0.8037 2.0364e+02     1.9715      1.810      2.626    16.2889 0.0000e+00
      1.860      0.055     9.8659    100.519    135.020 111.489953    22.2300     5.7733     0.0426     0.8037 2.0109e+02     2.0320      1.824      2.645    16.2875 0.0000e+00
      1.874      0.058     9.8651    100.502    135.018 111.485859    22.2300     5.8076     0.0852     0.8037 2.0118e+02     1.9413      1.838      2.666    16.2862 0.0000e+00
      1.889      0.061     9.8631    100.497    135.027 111.490129    22.2300     5.8000     0.0852     0.8037 1.9681e+02     1.9715      1.853      2.687    16.2850 0.0000e+00
      1.905      0.064     9.8608    100.499    135.029 111.489904    22.2300     5.8114     0.0852     0.8037 1.9579e+02     1.8507      1.868      2.709    16.2838 0.0000e+00
      1.922      0.067     9.8587    100.505    135.026 111.485125    22.2300     5.7504     0.0852     0.8037 1.9422e+02     1.9111      1.885      2.733    16.2826 0.0000e+00
      1.939      0.070     9.8573    100.522    135.022 111.478516    22.2300     5.7313     0.0852     0.8037 1.8967e+02     1.9413      1.902      2.758    16.2815 0.0000e+00
      1.958      0.072     9.8570    100.561    135.016 111.468316    22.0500     5.7313     0.1278     0.8037 1.8620e+02     2.0169      1.920      2.784    16.2806 0.0000e+00
      1.977      0.073     9.8574    100.634    135.009 111.455802    22.0500     5.7237     0.1278     0.8037 1.8153e+02     2.0773      1.939      2.811    16.2798 0.0000e+00
      1.996      0.072     9.8581    100.737    135.023 111.459631    22.0500     5.6588     0.1278     0.8037 1.7670e+02     2.0320      1.958      2.839    16.2788 0.0000e+00
      2.015      0.070     9.8601    100.842    135.056 111.480826    22.0500     5.6664     0.1278     0.8037 1.7137e+02     1.9866      1.977      2.867    16.2775 0.0000e+00
      2.034      0.067     9.8643    100.931    135.065 111.485045    22.1400     5.6703     0.1278     0.8883 1.6889e+02     2.0169      1.995      2.893    16.2757 0.0000e+00
      2.051      0.062     9.8720    101.011    135.057 111.477414    22.1400     5.6512     0.1278     0.8883 1.6412e+02     1.8658      2.012      2.917    16.2732 0.0000e+00
      2.066      0.056     9.8827    101.098    135.060 111.481890    22.1400     5.6626     0.1278     0.8883 1.6323e+02     2.0471      2.027      2.939    16.2704 0.0000e+00
      2.079      0.050     9.8935    101.191    135.052 111.477674    22.1400     5.6932     0.1278     0.8883 1.6270e+02     1.9715      2.039      2.958    16.2681 0.0000e+00
      2.091      0.045     9.9024    101.266    135.015 111.449644    22.1400     5.6741     0.0852     0.7614 1.6280e+02     1.8960      2.050      2.974    16.2668 0.0000e+00
      2.101      0.040     9.9103    101.309    134.973 111.416319    22.1400     5.6817     0.0852     0.7614 1.6319e+02     1.9111      2.060      2.988    16.2666 0.0000e+00
      2.109      0.037     9.9188    101.327    134.949 111.396808    22.1400     5.8305     0.0852     0.7614 1.6287e+02     1.9111      2.069      3.001    16.2672 0.0000e+00
      2.118      0.035     9.9277    101.334    134.945 111.391904    22.1400     5.7885     0.0852     0.7614 1.6249e+02     1.9111      2.077      3.013    16.2681 0.0000e+00
      2.127      0.034     9.9349    101.335    134.954 111.396303    22.0500     5.7962     0.0852     1.0152 1.6077e+02     1.8809      2.085      3.025    16.2690 0.0000e+00
      2.135      0.033     9.9389    101.335    134.968 111.405176    22.0500     5.8076     0.0852     1.0152 1.5830e+02     2.0169      2.094      3.037    16.2697 0.0000e+00
      2.144      0.031     9.9407    101.325    134.973 111.406895    22.0500     5.7809     0.0852     1.0152 1.5659e+02     1.9413      2.102      3.050    16.2698 0.0000e+00
      2.152      0.030     9.9414    101.289    134.967 111.399917    22.0500     5.9640     0.0852     1.0152 1.5602e+02     1.9715      2.110      3.061    16.2692 0.0000e+00
      2.159      0.029     9.9418    101.248    134.960 111.392380    22.0500     5.9640     0.0852     1.0152 1.5558e+02     1.8960      2.118      3.072    16.2682 0.0000e+00
      2.166      0.028     9.9420    101.239    134.959 111.390271    22.1400     5.9716     0.0426     0.8883 1.5541e+02     1.9564      2.125      3.081    16.2671 0.0000e+00
      2.173      0.028     9.9413    101.270    134.969 111.397028    22.1400     5.9640     0.0426     0.8883 1.5510e+02     1.8507      2.131      3.091    16.2662 0.0000e+00
      2.179      0.028     9.9379    101.311    134.983 111.406454    22.1400     5.9297     0.0426     0.8883 1.5571e+02     1.9413      2.137      3.100    16.2654 0.0000e+00
      2.186      0.029     9.9339    101.342    134.988 111.407065    22.1400     5.9373     0.0426     0.8883 1.5456e+02     1.8809      2.144      3.109    16.2649 0.0000e+00
      2.194      0.032     9.9332    101.353    134.970 111.387029    22.0500     5.9220     0.0852     0.9306 1.5433e+02     1.9111      2.151      3.119    16.2644 0.0000e+00
      2.202      0.035     9.9363    101.339    134.921 111.341000    22.0500     5.9068     0.0852     0.9306 1.5346e+02     1.8809      2.159      3.131    16.2638 0.0000e+00
      2.211      0.038     9.9405    101.289    134.882 111.300695    22.0500     6.2272     0.0852     0.9306 1.5266e+02     2.2132      2.167      3.144    16.2628 0.0000e+00
      2.221      0.043     9.9439    101.171    134.875 111.283358    22.0500     6.2387     0.0852     0.9306 1.5006e+02     2.1679      2.177      3.158    16.2615 0.0000e+00
      2.232      0.047     9.9453    100.981    134.862 111.258371    22.1400     6.2081     0.0852     0.8883 1.4971e+02     2.2132      2.189      3.174    16.2598 0.0000e+00
      2.244      0.051     9.9443    100.777    134.841 111.225071    22.1400     6.2158     0.0852     0.8883 1.4938e+02     2.2132      2.201      3.192    16.2576 0.0000e+00
      2.258      0.054     9.9401    100.624    134.838 111.208566    22.1400     5.9716     0.0852     0.8883 1.4472e+02     2.4096      2.215      3.212    16.2546 0.0000e+00
      2.273      0.056     9.9295    100.553    134.851 111.208455    22.1400     5.9869     0.0852     0.8883 1.3947e+02     2.3190      2.230      3.234    16.2503 0.0000e+00
      2.289      0.058     9.9119    100.585    134.872 111.216709    22.3200     5.9831     0.0852     0.8460 1.3757e+02     2.3945      2.245      3.256    16.2449 0.0000e+00
      2.304      0.058     9.8930    100.713    134.909 111.239527    22.3200     5.9678     0.0852     0.8460 1.3709e+02     2.3945      2.260      3.277    16.2392 0.0000e+00
      2.319      0.059     9.8790    100.906    134.939 111.257002    22.3200     6.0365     0.0852     0.8460 1.3585e+02     2.1679      2.274      3.298    16.2341 0.0000e+00
      2.333      0.060     9.8729    101.139    134.952 111.259796    22.3200     6.0708     0.0852     0.8460 1.3576e+02     2.1830      2.288      3.318    16.2300 0.0000e+00
      2.347      0.062     9.8768    101.378    134.970 111.266649    22.3200     6.0556     0.0852     0.8460 1.3546e+02     2.2283      2.302      3.339    16.2267 0.0000e+00
      2.363      0.064     9.8899    101.590    134.979 111.265391    22.1400     6.0441     0.0852     0.8460 1.3192e+02     2.1528      2.317      3.361    16.2238 0.0000e+00
      2.380      0.066     9.9096    101.759    134.978 111.255688    22.1400     5.8381     0.0852     0.8460 1.2965e+02     2.2435      2.334      3.385    16.2209 0.0000e+00
      2.398      0.069     9.9331    101.883    134.983 111.250947    22.1400     5.8496     0.0852     0.8460 1.2626e+02     2.1830      2.351      3.410    16.2180 0.0000e+00
      2.416      0.071     9.9572    101.965    134.982 111.241907    22.1400     5.8343     0.0852     0.8460 1.2419e+02     2.1679      2.369      3.436    16.2149 0.0000e+00
      2.434      0.073     9.9787    102.008    134.983 111.234154    22.1400     5.8457     0.0852     0.8460 1.2311e+02     2.2888      2.387      3.463    16.2118 0.0000e+00
      2.453      0.075     9.9959    102.013    135.007 111.245614    22.1400     5.6054     0.0852     0.8460 1.2120e+02     1.9413      2.406      3.489    16.2087 0.0000e+00
      2.472      0.076    10.0088    101.971    135.027 111.255350    22.1400     5.6092     0.0852     0.8460 1.1875e+02     1.9413      2.424      3.516    16.2055 0.0000e+00
      2.492      0.077    10.0175    101.881    135.029 111.249962    22.1400     5.6130     0.0852     0.8460 1.1635e+02     2.0018      2.443      3.544    16.2022 0.0000e+00
      2.512      0.077    10.0224    101.750    135.035 111.248006    22.3200     5.5940     0.1278     0.8460 1.1529e+02     2.0169      2.463      3.573    16.1991 0.0000e+00
      2.532      0.077    10.0235    101.593    135.052 111.256960    22.3200     5.4109     0.1278     0.8460 1.1169e+02     2.0169      2.483      3.602    16.1962 0.0000e+00
      2.552      0.075    10.0200    101.427    135.085 111.279211    22.3200     5.4452     0.1278     0.8460 1.0764e+02     2.0169      2.503      3.631    16.1934 0.0000e+00
      2.572      0.073    10.0117    101.266    135.108 111.294698    22.3200     5.4490     0.1278     0.8460 1.0609e+02     1.8507      2.523      3.659    16.1909 0.0000e+00
      2.591      0.069     9.9993    101.132    135.106 111.289557    22.3200     5.4185     0.1278     0.8460 1.0480e+02     1.9715      2.541      3.685    16.1886 0.0000e+00
      2.608      0.066     9.9844    101.045    135.098 111.280411    22.2300     5.4795     0.0852     0.8883 1.0367e+02     2.2283      2.558      3.709    16.1865 0.0000e+00
      2.623      0.062     9.9684    101.011    135.080 111.262822    22.2300     5.4910     0.0852     0.8883 1.0313e+02     2.1981      2.573      3.731    16.1847 0.0000e+00
      2.638      0.058     9.9529    101.012    135.051 111.236099    22.2300     5.5062     0.0852     0.8883 1.0224e+02     2.1528      2.587      3.753    16.1833 0.0000e+00
      2.653      0.055     9.9399    101.022    135.025 111.213110    22.2300     5.4643     0.0852     0.8883 1.0011e+02     2.3039      2.601      3.773    16.1822 0.0000e+00
      2.666      0.053     9.9316    101.026    135.006 111.195722    22.2300     5.6474     0.0852     0.8037 9.9283e+01     2.1830      2.615      3.792    16.1811 0.0000e+00
      2.679      0.051     9.9285    101.023    134.992 111.183298    22.2300     5.6588     0.0852     0.8037 9.8616e+01     2.2435      2.628      3.811    16.1800 0.0000e+00
      2.692      0.050     9.9288    101.025    134.979 111.172525    22.2300     5.6932     0.0852     0.8037 9.6980e+01     2.2132      2.640      3.829    16.1791 0.0000e+00
      2.705      0.050     9.9299    101.026    134.979 111.172528    22.2300     5.6703     0.0852     0.8037 9.6539e+01     2.1981      2.653      3.847    16.1784 0.0000e+00
      2.717      0.050     9.9304    101.024    134.997 111.187304    22.2300     5.5444     0.1278     0.8460 9.6392e+01     1.9866      2.665      3.864    16.1780 0.0000e+00
      2.729      0.051     9.9302    101.040    135.009 111.196802    22.2300     5.5215     0.1278     0.8460 9.6183e+01     2.0018      2.677      3.882    16.1777 0.0000e+00
      2.742      0.053     9.9303    101.096    134.994 111.183558    22.2300     5.5673     0.1278     0.8460 9.4299e+01     1.8809      2.689      3.900    16.1776 0.0000e+00
      2.756      0.056     9.9304    101.177    134.976 111.168036    22.2300     5.5825     0.1278     0.8460 9.2775e+01     1.9715      2.703      3.920    16.1776 0.0000e+00
      2.771      0.060     9.9302    101.252    134.985 111.174088    22.2300     5.4643     0.0852     0.9306 9.3240e+01     2.2132      2.717      3.941    16.1775 0.0000e+00
      2.786      0.064     9.9318    101.298    135.012 111.195331    22.2300     5.4910     0.0852     0.9306 9.1752e+01     2.2737      2.732      3.963    16.1774 0.0000e+00
      2.803      0.067     9.9374    101.319    135.036 111.213435    22.2300     5.4872     0.0852     0.9306 8.9663e+01     2.1981      2.749      3.987    16.1772 0.0000e+00
      2.821      0.070     9.9454    101.330    135.013 111.193236    22.2300     5.4948     0.0852     0.9306 8.7147e+01     2.2586      2.767      4.013    16.1768 0.0000e+00
      2.840      0.071     9.9529    101.329    134.912 111.109355    22.2300     5.5367     0.0852     0.9306 8.5162e+01     1.9564      2.785      4.040    16.1763 0.0000e+00
      2.859      0.072     9.9576    101.301    134.745 110.971413    22.2300     5.5444     0.0852     0.7614 8.3495e+01     2.0169      2.804      4.067    16.1758 0.0000e+00
      2.878      0.072     9.9597    101.262    134.522 110.786617    22.2300     5.5215     0.0852     0.7614 8.2575e+01     1.9715      2.822      4.093    16.1754 0.0000e+00
      2.896      0.072     9.9609    101.243    134.202 110.521683    22.2300     5.5406     0.0852     0.7614 8.1240e+01     1.9111      2.840      4.119    16.1751 0.0000e+00
      2.914      0.071     9.9608    101.252    133.708 110.113961    22.2300     5.5558     0.0852     0.7614 8.0852e+01     2.1377      2.858      4.145    16.1747 0.0000e+00
      2.932      0.071     9.9582    101.275    132.885 109.434728    22.2300     5.5711     0.0426     0.8460 7.9615e+01     2.1679      2.875      4.170    16.1743 0.0000e+00
      2.950      0.069     9.9545    101.296    131.495 108.288859    22.2300     5.5444     0.0426     0.8460 7.7785e+01     2.1075      2.893      4.196    16.1739 0.0000e+00
      2.968      0.068     9.9527    101.295    129.220 106.412779    22.2300     5.5520     0.0426     0.8460 7.6461e+01     2.2586      2.911      4.222    16.1735 0.0000e+00
      2.986      0.065     9.9536    101.264    125.452 103.308200    22.2300     5.3498     0.0426     0.8460 7.4380e+01     2.0471      2.928      4.247    16.1730 0.0000e+00
      3.003      0.062     9.9560    101.206    119.132  98.101244    22.3200     5.3536     0.1278     0.7614 7.3193e+01     2.0169      2.945      4.271    16.1725 0.0000e+00
      3.018      0.058     9.9582    101.125    108.552  89.387394    22.3200     5.3536     0.1278     0.7614 7.3050e+01     1.9715      2.960      4.293    16.1718 0.0000e+00
      3.032      0.054     9.9583    101.028     90.906  74.854954    22.3200     5.3651     0.1278     0.7614 7.2718e+01     1.9715      2.974      4.313    16.1709 0.0000e+00
      3.045      0.050     9.9554    100.943     61.501  50.640603    22.3200     5.2850     0.1278     0.7614 7.1979e+01     1.9111      2.986      4.332    16.1700 0.0000e+00
      3.058      0.046     9.9500    100.900     12.517  10.307176    22.3200     5.3002     0.1278     0.7614 7.1108e+01     2.0471      2.998      4.349    16.1690 0.0000e+00
      3.069      0.043     9.9422    100.904    -69.102 -56.896909    22.2300     5.3346     0.0852     0.8883 7.0202e+01     1.9413      3.010      4.365    16.1680 0.0000e+00
      3.079      0.040     9.9329    100.930   -205.158-168.920735    22.2300     5.3040     0.0852     0.8883 7.0233e+01     1.9715      3.020      4.380    16.1667 0.0000e+00
      3.089      0.038     9.9249    100.957   -431.929-355.637320    22.2300     5.4490     0.0852     0.8883 7.0126e+01     1.9111      3.029      4.393    16.1655 0.0000e+00
      3.097      0.037     9.9210    100.992   -573.665-472.341285    22.2300     5.4566     0.0852     0.8883 7.0309e+01     2.0320      3.037      4.406    16.1647 0.0000e+00
      3.106      0.036     9.9215    101.039   -431.943-355.659218    22.1400     5.4223     0.0852     0.8460 7.0554e+01     2.0924      3.046      4.418    16.1642 0.0000e+00
      3.115      0.036     9.9243    101.088   -205.154-168.938378    22.1400     5.4337     0.0852     0.8460 6.9640e+01     1.9413      3.055      4.430    16.1638 0.0000e+00
      3.125      0.035     9.9274    101.145    -69.061 -56.893010    22.1400     5.5100     0.0852     0.8460 6.8499e+01     1.9715      3.064      4.444    16.1632 0.0000e+00
      3.134      0.033     9.9313    101.203     12.589  10.329657    22.1400     5.4948     0.0852     0.8460 6.6940e+01     1.9715      3.074      4.458    16.1618 0.0000e+00
      3.143      0.031     9.9362    101.242     61.580  50.667664    22.2300     5.4795     0.1278     0.6345 6.6635e+01     2.0169      3.083      4.471    16.1594 0.0000e+00
      3.151      0.028     9.9414    101.264     90.973  74.873814    22.2300     5.4910     0.1278     0.6345 6.6260e+01     2.0471      3.090      4.482    16.1562 0.0000e+00
      3.158      0.026     9.9475    101.266    108.602  89.395083    22.2300     5.1019     0.1278     0.6345 6.6548e+01     1.7298      3.097      4.491    16.1530 0.0000e+00
      3.163      0.024     9.9535    101.223    119.170  98.099811    22.2300     5.1171     0.1278     0.6345 6.7085e+01     1.7449      3.102      4.499    16.1512 0.0000e+00
      3.168      0.023     9.9573    101.143    125.481 103.297262    22.1400     5.1438     0.0852     0.8037 6.7671e+01     1.6543      3.107      4.506    16.1514 0.0000e+00
      3.172      0.023     9.9591    101.076    129.261 106.407415    22.1400     5.0981     0.0852     0.8037 6.7524e+01     1.7903      3.111      4.513    16.1532 0.0000e+00
      3.178      0.023     9.9588    101.059    131.550 108.289634    22.1400     5.4795     0.0852     0.8037 6.7071e+01     1.9413      3.116      4.520    16.1554 0.0000e+00
      3.185      0.024     9.9542    101.099    132.925 109.419853    22.1400     5.4948     0.0852     0.8037 6.6144e+01     1.8356      3.123      4.529    16.1569 0.0000e+00
      3.192      0.024     9.9462    101.188    133.751 110.097463    22.1400     5.4833     0.0852     0.8037 6.4877e+01     1.9413      3.130      4.539    16.1572 0.0000e+00
      3.198      0.024     9.9398    101.314    134.255 110.511158    22.2300     5.4795     0.0852     0.7191 6.4709e+01     1.9413      3.136      4.549    16.1565 0.0000e+00
      3.205      0.023     9.9383    101.460    134.551 110.755260    22.2300     5.7962     0.0852     0.7191 6.4190e+01     1.7147      3.142      4.558    16.1556 0.0000e+00
      3.210      0.022     9.9424    101.607    134.724 110.898863    22.2300     5.7847     0.0852     0.7191 6.4554e+01     1.6543      3.148      4.566    16.1547 0.0000e+00
      3.215      0.021     9.9513    101.728    134.836 110.992258    22.2300     5.8190     0.0852     0.7191 6.4484e+01     1.7147      3.153      4.573    16.1540 0.0000e+00
      3.220      0.021     9.9638    101.804    134.904 111.048353    22.2300     5.7771     0.0852     0.9306 6.4470e+01     1.5939      3.158      4.580    16.1535 0.0000e+00
      3.225      0.020     9.9782    101.829    134.939 111.074109    22.2300     5.3651     0.0852     0.9306 6.4023e+01     1.9111      3.162      4.587    16.1536 0.0000e+00
      3.230      0.021     9.9925    101.808    134.947 111.076394    22.2300     5.3613     0.0852     0.9306 6.3940e+01     1.9111      3.167      4.594    16.1540 0.0000e+00
      3.236      0.021    10.0044    101.739    134.937 111.063816    22.2300     5.3880     0.0852     0.9306 6.3442e+01     2.0169      3.173      4.602    16.1544 0.0000e+00
      3.241      0.022    10.0118    101.627    134.948 111.069010    22.3200     5.3727     0.0426     0.7191 6.3414e+01     1.9413      3.178      4.610    16.1543 0.0000e+00
      3.247      0.022    10.0145    101.496    134.981 111.093361    22.3200     5.2735     0.0426     0.7191 6.2688e+01     1.7601      3.184      4.618    16.1534 0.0000e+00
      3.252      0.022    10.0128    101.370    135.023 111.125368    22.3200     5.2239     0.0426     0.7191 6.2497e+01     1.7601      3.189      4.626    16.1518 0.0000e+00
      3.258      0.023    10.0064    101.266    135.074 111.165568    22.3200     5.2430     0.0426     0.7191 6.2416e+01     1.7449      3.195      4.634    16.1501 0.0000e+00
      3.264      0.023     9.9956    101.194    135.089 111.176691    22.3200     5.2735     0.0426     0.7191 6.2078e+01     1.7752      3.201      4.642    16.1487 0.0000e+00
      3.269      0.023     9.9829    101.156    135.058 111.149708    22.3200     5.3002     0.0852     0.6768 6.1742e+01     1.7903      3.206      4.651    16.1476 0.0000e+00
      3.275      0.023     9.9708    101.147    135.033 111.127411    22.3200     5.2926     0.0852     0.6768 6.1234e+01     1.9262      3.212      4.659    16.1467 0.0000e+00
      3.281      0.024     9.9607    101.156    135.029 111.123848    22.3200     5.3231     0.0852     0.6768 6.1008e+01     2.0018      3.218      4.667    16.1459 0.0000e+00
      3.287      0.026     9.9538    101.172    135.019 111.114075    22.3200     5.2926     0.0852     0.6768 6.0955e+01     1.9413      3.224      4.676    16.1454 0.0000e+00
      3.293      0.028     9.9502    101.189    134.996 111.091489    22.2300     5.2430     0.0852     0.6768 6.1114e+01     1.8809      3.230      4.685    16.1449 0.0000e+00
      3.300      0.030     9.9493    101.202    134.990 111.080057    22.2300     5.2583     0.0852     0.6768 6.1101e+01     1.9866      3.237      4.694    16.1445 0.0000e+00
      3.308      0.033     9.9503    101.207    135.007 111.086729    22.2300     5.2430     0.0852     0.6768 6.0664e+01     2.0622      3.244      4.706    16.1441 0.0000e+00
      3.317      0.036     9.9520    101.204    135.001 111.075293    22.2300     5.2430     0.0852     0.6768 5.9283e+01     1.9262      3.253      4.719    16.1435 0.0000e+00
      3.328      0.038     9.9539    101.202    134.964 111.038700    22.1400     5.2659     0.0426     0.9306 5.8350e+01     2.3945      3.263      4.733    16.1422 0.0000e+00
      3.338      0.039     9.9557    101.206    134.944 111.017179    22.1400     5.2506     0.0426     0.9306 5.7344e+01     2.4398      3.273      4.748    16.1400 0.0000e+00
      3.348      0.040     9.9567    101.208    134.954 111.018986    22.1400     5.2430     0.0426     0.9306 5.7482e+01     2.4247      3.283      4.763    16.1374 0.0000e+00
      3.358      0.040     9.9570    101.197    134.989 111.040606    22.1400     5.2430     0.0426     0.9306 5.7295e+01     2.4096      3.293      4.777    16.1348 0.0000e+00
      3.368      0.041     9.9572    101.186    135.040 111.073807    22.3200     5.3193     0.0852     0.6768 5.7220e+01     1.9413      3.303      4.791    16.1326 0.0000e+00
      3.378      0.043     9.9581    101.200    135.091 111.105448    22.3200     5.3079     0.0852     0.6768 5.6947e+01     1.9715      3.313      4.805    16.1306 0.0000e+00
      3.389      0.044     9.9587    101.243    135.143 111.133968    22.3200     5.3155     0.0852     0.6768 5.6417e+01     2.0471      3.323      4.820    16.1284 0.0000e+00
      3.401      0.045     9.9582    101.298    135.155 111.126982    22.3200     5.3308     0.0852     0.6768 5.5253e+01     1.9715      3.335      4.837    16.1258 0.0000e+00
      3.413      0.046     9.9579    101.346    135.130 111.084625    22.3200     5.2888     0.0852     0.6768 5.4882e+01     2.1981      3.347      4.854    16.1225 0.0000e+00
      3.426      0.047     9.9601    101.379    135.110 111.045591    22.3200     5.2926     0.0852     0.6345 5.4018e+01     2.1679      3.359      4.872    16.1185 0.0000e+00
      3.438      0.045     9.9654    101.399    135.089 111.009464    22.3200     5.3193     0.0852     0.6345 5.3749e+01     2.1377      3.371      4.890    16.1134 0.0000e+00
      3.450      0.043     9.9721    101.411    135.066 110.978607    22.3200     5.2964     0.0852     0.6345 5.2479e+01     2.2132      3.383      4.907    16.1070 0.0000e+00
      3.461      0.039     9.9785    101.414    135.052 110.962787    22.3200     5.9411     0.0852     0.6345 5.1642e+01     2.2132      3.394      4.923    16.0991 0.0000e+00
      3.471      0.035     9.9835    101.410    135.054 110.965783    22.3200     5.8915     0.1278     0.7191 5.1463e+01     2.2435      3.404      4.937    16.0907 0.0000e+00
      3.480      0.030     9.9870    101.414    135.070 110.984394    22.3200     5.9411     0.1278     0.7191 5.1295e+01     2.2283      3.412      4.949    16.0836 0.0000e+00
      3.486      0.025     9.9890    101.440    135.076 110.997591    22.3200     5.9182     0.1278     0.7191 5.1117e+01     2.1830      3.419      4.959    16.0793 0.0000e+00
      3.491      0.020     9.9897    101.491    135.068 110.998897    22.3200     5.7313     0.1278     0.7191 5.1429e+01     1.8507      3.424      4.966    16.0777 0.0000e+00
      3.495      0.017     9.9892    101.550    135.061 110.998657    22.1400     5.7389     0.0852     0.7614 5.1508e+01     1.8658      3.428      4.971    16.0781 0.0000e+00
      3.498      0.014     9.9891    101.598    135.070 111.006807    22.1400     5.7389     0.0852     0.7614 5.1653e+01     1.9564      3.431      4.976    16.0801 0.0000e+00
      3.501      0.013     9.9911    101.623    135.076 111.007524    22.1400     5.7504     0.0852     0.7614 5.1530e+01     1.9715      3.434      4.980    16.0831 0.0000e+00
      3.504      0.014     9.9955    101.624    135.049 110.975005    22.1400     5.6817     0.0852     0.7614 5.1440e+01     2.0471      3.436      4.984    16.0861 0.0000e+00
      3.507      0.015    10.0009    101.604    135.014 110.930570    22.1400     5.6626     0.0852     0.7614 5.1530e+01     2.0622      3.439      4.989    16.0880 0.0000e+00
      3.511      0.017    10.0055    101.568    135.001 110.900360    22.1400     5.6436     0.0852     0.7614 5.1418e+01     1.9262      3.443      4.994    16.0883 0.0000e+00
      3.515      0.019    10.0084    101.517    135.005 110.884316    22.1400     5.7122     0.0852     0.7614 5.1396e+01     2.0169      3.447      5.000    16.0868 0.0000e+00
      3.520      0.022    10.0092    101.462    135.011 110.878157    22.1400     5.6359     0.0852     0.7614 5.1217e+01     1.9111      3.452      5.007    16.0832 0.0000e+00
      3.527      0.025    10.0085    101.417    134.998 110.868242    22.1400     5.3651     0.0852     0.7614 5.0477e+01     1.9111      3.458      5.016    16.0774 0.0000e+00
      3.534      0.029    10.0064    101.398    134.969 110.851930    22.2300     5.3765     0.0852     0.7614 4.9899e+01     1.9413      3.466      5.027    16.0699 0.0000e+00
      3.542      0.032    10.0030    101.412    134.951 110.840867    22.2300     5.3231     0.0852     0.7614 5.0160e+01     2.0471      3.473      5.038    16.0628 0.0000e+00
      3.550      0.035     9.9984    101.459    134.956 110.840101    22.2300     5.3727     0.0852     0.7614 5.0313e+01     1.9262      3.481      5.049    16.0589 0.0000e+00
      3.559      0.039     9.9939    101.519    134.971 110.837432    22.2300     5.3613     0.0852     0.7614 5.0062e+01     1.9715      3.490      5.062    16.0592 0.0000e+00
      3.569      0.042     9.9915    101.561    134.992 110.830148    22.1400     5.3727     0.0852     0.7614 4.9683e+01     2.1075      3.500      5.076    16.0617 0.0000e+00
      3.581      0.045     9.9926    101.563    135.012 110.816305    22.1400     5.3460     0.0852     0.7614 4.8763e+01     1.9262      3.512      5.093    16.0632 0.0000e+00
      3.594      0.047     9.9975    101.517    135.015 110.790209    22.1400     5.3460     0.0852     0.7614 4.7975e+01     1.8809      3.524      5.111    16.0616 0.0000e+00
      3.607      0.049    10.0046    101.432    135.017 110.766896    22.1400     5.5787     0.0852     0.7614 4.6709e+01     1.9564      3.537      5.130    16.0560 0.0000e+00
      3.620      0.049    10.0108    101.321    135.021 110.746145    22.3200     5.6092     0.1278     0.8037 4.6638e+01     1.8960      3.550      5.149    16.0467 0.0000e+00
      3.632      0.050    10.0133    101.198    135.018 110.718424    22.3200     5.6016     0.1278     0.8037 4.6628e+01     2.0773      3.562      5.166    16.0355 0.0000e+00
      3.644      0.050    10.0111    101.081    135.008 110.684337    22.3200     5.6130     0.1278     0.8037 4.6699e+01     1.9715      3.574      5.183    16.0249 0.0000e+00
      3.657      0.050    10.0046    100.995    135.011 110.662786    22.3200     5.7771     0.1278     0.8037 4.6104e+01     2.3492      3.586      5.201    16.0156 0.0000e+00
      3.670      0.049     9.9955    100.964    135.035 110.664017    22.3200     5.7809     0.1278     0.8037 4.5438e+01     2.2888      3.598      5.219    16.0068 0.0000e+00
      3.683      0.049     9.9854    100.987    135.031 110.648370    22.1400     5.8114     0.0852     0.7614 4.4452e+01     2.3945      3.611      5.238    15.9974 0.0000e+00
      3.696      0.049     9.9759    101.037    134.991 110.603673    22.1400     5.8114     0.0852     0.7614 4.3838e+01     2.3492      3.624      5.256    15.9878 0.0000e+00
      3.708      0.048     9.9693    101.091    134.962 110.565995    22.1400     5.8114     0.0852     0.7614 4.4105e+01     2.4398      3.636      5.274    15.9789 0.0000e+00
      3.720      0.047     9.9677    101.130    134.955 110.541283    22.1400     5.7885     0.0852     0.7614 4.4105e+01     2.3643      3.648      5.290    15.9721 0.0000e+00
      3.731      0.046     9.9709    101.145    134.923 110.490957    22.2300     5.7962     0.0852     0.7191 4.3449e+01     2.4096      3.659      5.307    15.9673 0.0000e+00
      3.743      0.046     9.9768    101.125    134.854 110.399595    22.2300     5.8038     0.0852     0.7191 4.2989e+01     2.3190      3.670      5.323    15.9632 0.0000e+00
      3.755      0.046     9.9832    101.048    134.792 110.298820    22.2300     5.2583     0.0852     0.7191 4.2821e+01     2.6211      3.682      5.340    15.9579 0.0000e+00
      3.766      0.046     9.9885    100.898    134.758 110.203742    22.2300     5.2430     0.0852     0.7191 4.2266e+01     2.6664      3.693      5.357    15.9511 0.0000e+00
      3.778      0.046     9.9919    100.684    134.748 110.120997    22.1400     5.2430     0.1278     0.8037 4.1583e+01     2.5909      3.705      5.374    15.9420 0.0000e+00
      3.790      0.045     9.9926    100.449    134.745 110.044508    22.1400     5.2468     0.1278     0.8037 4.1349e+01     2.6211      3.716      5.390    15.9292 0.0000e+00
      3.801      0.045     9.9890    100.236    134.730 109.959876    22.1400     4.7738     0.1278     0.8037 4.1017e+01     2.6513      3.728      5.407    15.9105 0.0000e+00
      3.813      0.046     9.9794    100.063    134.728 109.886515    22.1400     4.7356     0.1278     0.8037 4.0751e+01     2.6211      3.739      5.423    15.8858 0.0000e+00
      3.824      0.046     9.9642     99.939    134.756 109.836851    22.1400     4.7433     0.1278     0.8037 4.0831e+01     2.6664      3.750      5.439    15.8580 0.0000e+00
      3.836      0.046     9.9467     99.864    134.793 109.797636    22.1400     4.7585     0.0852     0.8037 3.9988e+01     2.6362      3.761      5.455    15.8305 0.0000e+00
      3.848      0.046     9.9312     99.819    134.811 109.750414    22.1400     4.8005     0.0852     0.8037 3.9461e+01     3.6332      3.773      5.472    15.8038 0.0000e+00
      3.860      0.045     9.9198     99.767    134.803 109.692585    22.1400     4.8234     0.0852     0.8037 3.8680e+01     3.6332      3.785      5.490    15.7771 0.0000e+00
      3.872      0.043     9.9131     99.665    134.762 109.612726    22.1400     4.8234     0.0852     0.8037 3.8487e+01     3.6332      3.797      5.507    15.7503 0.0000e+00
      3.883      0.042     9.9111     99.491    134.692 109.499539    22.2300     4.8310     0.0852     0.9306 3.8187e+01     3.5728      3.807      5.522    15.7246 0.0000e+00
      3.893      0.040     9.9115     99.250    134.650 109.392817    22.2300     4.8654     0.0852     0.9306 3.8030e+01     4.4339      3.817      5.536    15.7015 0.0000e+00
      3.902      0.037     9.9104     98.964    134.670 109.334072    22.2300     4.8654     0.0852     0.9306 3.7956e+01     4.6152      3.827      5.550    15.6825 0.0000e+00
      3.911      0.035     9.9039     98.660    134.729 109.319630    22.2300     4.8425     0.0852     0.9306 3.7464e+01     4.5396      3.836      5.563    15.6654 0.0000e+00
      3.920      0.034     9.8910     98.369    134.775 109.313647    22.1400     4.8654     0.0852     0.8037 3.6955e+01     4.4943      3.845      5.576    15.6443 0.0000e+00
      3.929      0.032     9.8727     98.119    134.778 109.294534    22.1400     5.1095     0.0852     0.8037 3.6795e+01     5.9294      3.853      5.588    15.6174 0.0000e+00
      3.937      0.030     9.8500     97.926    134.770 109.285184    22.1400     5.1019     0.0852     0.8037 3.6579e+01     6.0352      3.861      5.599    15.5896 0.0000e+00
      3.944      0.028     9.8246     97.791    134.766 109.287103    22.1400     5.1019     0.0852     0.8037 3.6334e+01     5.9445      3.868      5.610    15.5666 0.0000e+00
      3.951      0.026     9.7991     97.703    134.747 109.276813    22.3200     5.1095     0.0852     0.8037 3.6231e+01     5.8841      3.874      5.619    15.5505 0.0000e+00
      3.957      0.024     9.7759     97.659    134.731 109.263566    22.3200     5.8190     0.0852     0.8037 3.6145e+01     8.1803      3.881      5.628    15.5424 0.0000e+00
      3.963      0.023     9.7569     97.658    134.719 109.247829    22.3200     5.7809     0.0852     0.8037 3.6019e+01     8.0745      3.886      5.637    15.5412 0.0000e+00
      3.969      0.022     9.7430     97.693    134.694 109.217406    22.3200     5.7847     0.0852     0.8037 3.6035e+01     8.0594      3.892      5.645    15.5433 0.0000e+00
      3.974      0.021     9.7340     97.755    134.681 109.194176    22.3200     5.7962     0.0852     0.8037 3.5933e+01     8.0292      3.897      5.652    15.5451 0.0000e+00
      3.979      0.020     9.7296     97.820    134.712 109.203931    22.3200     6.5591     0.1278     0.8883 3.5855e+01    10.7031      3.902      5.660    15.5450 0.0000e+00
      3.984      0.019     9.7299     97.874    134.766 109.229279    22.3200     6.6163     0.1278     0.8883 3.5715e+01    10.7333      3.907      5.667    15.5428 0.0000e+00
      3.989      0.017     9.7342     97.916    134.797 109.232994    22.3200     6.6087     0.1278     0.8883 3.5483e+01    10.7484      3.912      5.674    15.5392 0.0000e+00
      3.994      0.015     9.7413     97.946    134.800 109.214066    22.3200     6.5782     0.1278     0.8883 3.5130e+01    10.7333      3.917      5.681    15.5344 0.0000e+00
      3.998      0.013     9.7490     97.962    134.806 109.199436    22.4100     5.7313     0.1278     0.8460 3.4804e+01     7.5307      3.920      5.686    15.5286 0.0000e+00
      4.001      0.010     9.7558     97.972    134.828 109.203195    22.4100     5.7275     0.1278     0.8460 3.4383e+01     7.6365      3.924      5.691    15.5218 0.0000e+00
      4.003      0.007     9.7616     97.975    134.840 109.204353    22.4100     5.7656     0.1278     0.8460 3.4041e+01     7.6667      3.926      5.694    15.5139 0.0000e+00
      4.005      0.004     9.7663     97.971    134.823 109.187223    22.4100     5.7389     0.1278     0.8460 3.4465e+01     7.5760      3.927      5.696    15.5059 0.0000e+00
      4.005      0.001     9.7694     97.962    134.818 109.185225    22.5000     9.4469     0.0852     0.8037 3.5100e+01    17.3499      3.928      5.697    15.4989 0.0000e+00
      4.005     -0.001     9.7714     97.944    134.835 109.205823    22.5000     9.4507     0.0852     0.8037 3.5199e+01    17.3801      3.928      5.697    15.4937 0.0000e+00
      4.004     -0.004     9.7724     97.915    134.831 109.214524    22.5000     9.4392     0.0852     0.8037 3.5268e+01    17.3499      3.927      5.696    15.4905 0.0000e+00
      4.003     -0.008     9.7723     97.892    134.798 109.203652    22.5000     9.4583     0.0852     0.8037 3.5191e+01    17.4858      3.926      5.694    15.4892 0.0000e+00
      4.001     -0.011     9.7714     97.895    134.765 109.192301    22.5000     9.7673     0.0852     0.8037 3.5184e+01    19.0116      3.924      5.691    15.4896 0.0000e+00
      3.998     -0.016     9.7690     97.930    134.750 109.191441    22.3200     9.7444     0.1278     0.7614 3.5191e+01    19.0569      3.921      5.686    15.4921 0.0000e+00
      3.994     -0.022     9.7652     97.986    134.741 109.194844    22.3200     9.7597     0.1278     0.7614 3.5123e+01    19.0267      3.917      5.681    15.4968 0.0000e+00
      3.988     -0.029     9.7616     98.045    134.754 109.219412    22.3200     9.7749     0.1278     0.7614 3.5031e+01    19.0569      3.911      5.673    15.5027 0.0000e+00
      3.981     -0.037     9.7607     98.092    134.804 109.281693    22.3200     9.0005     0.1278     0.7614 3.5031e+01    15.8695      3.904      5.662    15.5082 0.0000e+00
      3.971     -0.047     9.7633     98.133    134.858 109.356310    22.4100     9.0311     0.0852     0.8883 3.5016e+01    15.9450      3.894      5.648    15.5126 0.0000e+00
      3.958     -0.056     9.7681     98.181    134.897 109.425176    22.4100     9.0234     0.0852     0.8883 3.5237e+01    15.9903      3.882      5.630    15.5166 0.0000e+00
      3.942     -0.063     9.7728     98.248    134.913 109.478666    22.4100     9.0158     0.0852     0.8883 3.5863e+01    15.8846      3.866      5.607    15.5218 0.0000e+00
      3.923     -0.066     9.7759     98.343    134.892 109.493060    22.4100     4.5792     0.0852     0.8883 3.8030e+01     4.0562      3.847      5.580    15.5299 0.0000e+00
      3.902     -0.064     9.7776     98.457    134.844 109.470199    22.3200     4.5754     0.0852     0.7614 4.0769e+01     4.1167      3.826      5.550    15.5412 0.0000e+00
      3.882     -0.057     9.7794     98.577    134.803 109.433978    22.3200     4.5754     0.0852     0.7614 4.1701e+01     4.0260      3.807      5.522    15.5552 0.0000e+00
      3.867     -0.047     9.7830     98.685    134.791 109.400729    22.3200     4.5487     0.0852     0.7614 4.1937e+01     3.9958      3.792      5.500    15.5700 0.0000e+00
      3.857     -0.037     9.7899     98.758    134.817 109.381578    22.3200     4.5945     0.0852     0.7614 4.2028e+01    69.3160      3.782      5.485    15.5819 0.0000e+00
      3.852     -0.031     9.8001     98.775    134.858 109.371414    22.2300     4.5831     0.1278     0.7614 4.0618e+01    69.2405      3.777      5.478    15.5877 0.0000e+00
      3.850     -0.032     9.8123     98.726    134.885 109.363525    22.2300     4.5449     0.1278     0.7614 3.7497e+01    69.2707      3.776      5.477    15.5866 0.0000e+00
      3.849     -0.043     9.8248     98.614    134.907 109.371798    22.2300     4.5678     0.1278     0.7614 3.5329e+01    69.2556      3.774      5.474    15.5780 0.0000e+00
      3.842     -0.065     9.8352     98.452    134.932 109.406438    22.2300     5.2773     0.1278     0.7614 3.5207e+01   119.6506      3.768      5.464    15.5630 0.0000e+00
      3.826     -0.100     9.8403     98.274    134.955 109.464686    22.2300     5.2430     0.1278     0.7614 3.5237e+01   119.7262      3.752      5.442    15.5469 0.0000e+00
      3.800     -0.144     9.8378     98.119    134.988 109.558077    22.4100     5.2468     0.0852     0.7614 3.5253e+01   119.8017      3.726      5.405    15.5357 0.0000e+00
      3.761     -0.197     9.8274     98.029    135.039 109.695523    22.4100     5.2430     0.0852     0.7614 3.5291e+01   119.6355      3.688      5.349    15.5324 0.0000e+00
      3.706     -0.255     9.8102     98.037    135.106 109.869697    22.4100     3.9155     0.0852     0.7614 3.5925e+01    97.6708      3.635      5.272    15.5376 0.0000e+00
      3.634     -0.316     9.7894     98.158    135.171 110.065068    22.4100     3.9307     0.0852     0.7614 3.9316e+01    97.6557      3.564      5.169    15.5521 0.0000e+00
      3.544     -0.375     9.7687     98.401    135.211 110.255766    22.3200     3.9155     0.1278     0.8883 4.4937e+01    97.7765      3.476      5.041    15.5770 0.0000e+00
      3.437     -0.429     9.7523     98.770    135.230 110.434669    22.3200     3.9155     0.1278     0.8883 4.9693e+01    97.6104      3.371      4.889    15.6125 0.0000e+00
      3.317     -0.475     9.7438     99.252    135.238 110.599505    22.3200     4.5029     0.1278     0.8883 5.8299e+01    28.3625      3.252      4.717    15.6569 0.0000e+00
      3.184     -0.511     9.7449     99.815    135.238 110.746252    22.3200     4.4801     0.1278     0.8883 6.9564e+01    28.4984      3.123      4.529    15.7093 0.0000e+00
      3.044     -0.537     9.7567    100.419    135.241 110.880057    22.2300     4.4877     0.0852     0.6768 8.2234e+01    28.4531      2.985      4.329    15.7680 0.0000e+00
      2.899     -0.552     9.7807    101.015    135.223 110.980622    22.2300     4.5068     0.0852     0.6768 9.5247e+01    28.4682      2.843      4.124    15.8283 0.0000e+00
      2.754     -0.559     9.8161    101.569    135.170 111.036778    22.2300     5.3613     0.0852     0.6768 1.0932e+02     5.7179      2.701      3.917    15.8868 0.0000e+00
      2.609     -0.558     9.8604    102.061    135.120 111.079500    22.2300     5.3880     0.0852     0.6768 1.2261e+02     5.6726      2.559      3.711    15.9412 0.0000e+00
      2.465     -0.551     9.9098    102.472    135.106 111.136180    22.2300     5.3651     0.0852     0.6768 1.4262e+02     5.6122      2.418      3.507    15.9898 0.0000e+00
      2.324     -0.539     9.9597    102.783    135.121 111.205939    22.2300     5.3651     0.0852     0.7614 1.6956e+02     5.6877      2.279      3.305    16.0323 0.0000e+00
      2.186     -0.525    10.0065    102.989    135.147 111.275389    22.2300     5.5024     0.0852     0.7614 1.9767e+02     2.5909      2.144      3.109    16.0691 0.0000e+00
      2.054     -0.511    10.0484    103.096    135.160 111.325061    22.2300     5.4910     0.0852     0.7614 2.1646e+02     2.6664      2.014      2.921    16.1001 0.0000e+00
      1.928     -0.497    10.0836    103.114    135.156 111.354206    22.2300     5.4872     0.0852     0.7614 2.2736e+02     2.6211      1.891      2.742    16.1255 0.0000e+00
      1.805     -0.483    10.1097    103.050    135.152 111.378596    22.2300     5.4872     0.1278     0.8460 2.4405e+02     2.6362      1.771      2.568    16.1467 0.0000e+00
      1.685     -0.470    10.1262    102.913    135.132 111.388739    22.2300     5.5291     0.1278     0.8460 2.9696e+02     2.1679      1.652      2.396    16.1644 0.0000e+00
      1.565     -0.457    10.1336    102.722    135.108 111.397339    22.2300     5.5673     0.1278     0.8460 3.4771e+02     2.1981      1.535      2.226    16.1789 0.0000e+00
      1.448     -0.445    10.1328    102.502    135.108 111.426685    22.2300     5.5482     0.1278     0.8460 3.8998e+02     2.1679      1.420      2.060    16.1908 0.0000e+00
      1.336     -0.433    10.1243    102.272    135.107 111.456610    22.2300     5.5482     0.1278     0.9306 4.1544e+02     2.1830      1.310      1.900    16.2011 0.0000e+00
      1.229     -0.422    10.1088    102.044    135.093 111.477101    22.2300     5.0675     0.1278     0.9306 4.5841e+02     2.2132      1.205      1.748    16.2110 0.0000e+00
      1.125     -0.410    10.0878    101.827    135.091 111.507620    22.2300     5.0752     0.1278     0.9306 4.7888e+02     2.2737      1.103      1.600    16.2213 0.0000e+00
      1.023     -0.398    10.0639    101.651    135.121 111.566305    22.2300     5.0828     0.1278     0.9306 5.1886e+02     2.1981      1.003      1.455    16.2322 0.0000e+00
      0.921     -0.381    10.0389    101.546    135.161 111.634814    22.2300     5.0713     0.1278     0.7614 5.3710e+02     2.1377      0.903      1.310    16.2435 0.0000e+00
      0.821     -0.359    10.0140    101.515    135.178 111.681431    22.2300     4.0948     0.1278     0.7614 9.2889e+02     2.2435      0.805      1.167    16.2553 0.0000e+00
      0.726     -0.332     9.9903    101.543    135.170 111.702591    22.2300     4.0948     0.1278     0.7614 1.3661e+03     2.1679      0.712      1.032    16.2674 0.0000e+00
      0.641     -0.300     9.9704    101.609    135.148 111.707937    22.2300     4.0948     0.1278     0.7614 8.3998e+02     2.2586      0.629      0.912    16.2800 0.0000e+00
      0.570     -0.265     9.9573    101.688    135.122 111.706894    22.2300     4.0871     0.1278     0.7614 1.0128e+03     2.2132      0.559      0.810    16.2931 0.0000e+00
      0.511     -0.232     9.9516    101.749    135.090 111.699183    22.6800     3.2784     0.0852     0.5499 1.2958e+03     2.2737      0.501      0.726    16.3053 0.0000e+00
      0.461     -0.203     9.9522    101.770    135.051 111.682750    22.6800     3.3204     0.0852     0.5499 1.0416e+03     2.1981      0.452      0.655    16.3154 0.0000e+00
      0.417     -0.180     9.9569    101.746    135.026 111.673210    22.6800     3.2937     0.0852     0.5499 1.3032e+03     2.2132      0.409      0.592    16.3240 0.0000e+00
      0.376     -0.162     9.9630    101.682    135.029 111.684014    22.6800     3.3280     0.0852     0.5499 5.5308e+02     2.1679      0.369      0.534    16.3317 0.0000e+00
      0.336     -0.149     9.9675    101.603    135.052 111.710045    21.7800     3.6484     0.0000     0.5076 1.4389e+03     2.1679      0.330      0.478    16.3386 0.0000e+00
      0.299     -0.138     9.9684    101.539    135.078 111.742249    21.7800     3.6408     0.0000     0.5076 1.2835e+03     2.1377      0.293      0.425    16.3444 0.0000e+00
      0.265     -0.130     9.9651    101.508    135.083 111.761220    21.7800     3.6523     0.0000     0.5076 1.2537e+03     2.2283      0.260      0.377    16.3487 0.0000e+00
      0.235     -0.125     9.9583    101.513    135.056 111.756021    21.7800     3.6561     0.0000     0.5076 1.1315e+03     2.1830      0.230      0.333    16.3515 0.0000e+00
      0.206     -0.123     9.9500    101.532    135.027 111.749261    22.7700     3.1716     0.1278     0.6345 1.1308e+03     2.1377      0.202      0.293    16.3542 0.0000e+00
      0.178     -0.126     9.9429    101.533    135.007 111.751135    22.7700     3.1830     0.1278     0.6345 1.1792e+03     2.1981      0.175      0.253    16.3583 0.0000e+00
      0.148     -0.134     9.9387    101.493    134.984 111.750148    22.7700     3.1525     0.1278     0.6345 1.2933e+03     2.1075      0.145      0.211    16.3638 0.0000e+00
      0.115     -0.146     9.9379    101.396    134.944 111.734039    22.7700     3.1678     0.1278     0.6345 1.3879e+03     2.1981      0.112      0.163    16.3701 0.0000e+00
      0.076     -0.159     9.9384    101.226    134.876 111.690515    22.7700     2.4163     0.1278     0.6345 1.3601e+03     8.2709      0.075      0.108    16.3766 0.0000e+00
      0.032     -0.168     9.9370    100.951    134.778 111.615970    22.2300     2.4239     0.1704     0.7191 1.4976e+03     8.3616      0.032      0.046    16.3833 0.0000e+00
     -0.016     -0.171     9.9317    100.516    134.612 111.478529    22.2300     2.4506     0.1704     0.7191 1.3702e+03     8.3162     -0.016     -0.023    16.3900 0.0000e+00
     -0.066     -0.165     9.9209     99.871    134.313 111.225543    22.2300     2.4468     0.1704     0.7191 1.4116e+03     8.3011     -0.065     -0.094    16.3963 0.0000e+00
     -0.114     -0.150     9.9033     99.015    133.808 110.797548    22.2300    -1.5701     0.1704     0.7191 1.4089e+03    67.0803     -0.112     -0.163    16.4010 0.0000e+00
     -0.155     -0.130     9.8759     98.007    132.979 110.096408    11.3400    -1.5587    -0.6390     0.3384 1.3976e+03    67.0198     -0.152     -0.220    16.4034 0.0000e+00
     -0.184     -0.109     9.8333     96.934    131.617 108.951146    11.3400    -1.5282    -0.6390     0.3384 1.4126e+03    67.0803     -0.181     -0.262    16.4034 0.0000e+00
     -0.203     -0.091     9.7707     95.890    129.348 107.056360    11.3400    -1.5473    -0.6390     0.3384 1.3628e+03    67.1105     -0.199     -0.289    16.4012 0.0000e+00
     -0.216     -0.077     9.6878     94.960    125.556 103.902773    11.3400    -1.5434    -0.6390     0.3384 1.3249e+03    56.0677     -0.212     -0.308    16.3972 0.0000e+00
     -0.230     -0.069     9.5902     94.215    119.204  98.633432     0.0000    -2.8366     7.7532     3.7647 1.3292e+03    28.1510     -0.226     -0.328    16.3915 0.0000e+00
     -0.247     -0.065     9.4866     93.667    108.562  89.819183     0.0000    -2.8443     7.7532     3.7647 1.2448e+03    28.3625     -0.243     -0.352    16.3847 0.0000e+00
     -0.268     -0.062     9.3858     93.249     90.773  75.095563     0.0000    -2.8557     7.7532     3.7647 1.1033e+03    28.2265     -0.262     -0.381    16.3778 0.0000e+00
     -0.286     -0.058     9.2962     92.850     68.007  56.259000     0.0000    -2.8595     7.7532     3.7647 8.9851e+02    28.1208     -0.281     -0.407    16.3714 0.0000e+00
     -0.301     -0.052     9.2246     92.404     48.863  40.420723     0.0000     1.4588    -3.6210     2.2419 1.0441e+03    31.7916     -0.295     -0.428    16.3657 0.0000e+00
     -0.313     -0.044     9.1721     91.924     36.787  30.429659     0.0000     1.4588    -3.6210     2.2419 9.8759e+02    31.9125     -0.307     -0.445    16.3608 0.0000e+00
     -0.322     -0.035     9.1323     91.488     29.450  24.360049     0.0000     1.4550    -3.6210     2.2419 1.0721e+03    31.8672     -0.315     -0.458    16.3569 0.0000e+00
     -0.329     -0.027     9.0944     91.200     25.117  20.774431     0.0000     1.4359    -3.6210     2.2419 1.3690e+03    31.7916     -0.322     -0.467    16.3541 0.0000e+00
     -0.334     -0.021     9.0515     91.170     22.480  18.593237     0.0000    -0.7767    -3.6210     2.2419 1.6819e+03    -0.0376     -0.328     -0.475    16.3522 0.0000e+00
     -0.338     -0.017     9.0051     91.473     20.466  16.926331     0.0000    -0.8072     0.2982    -0.8037 1.7596e+03    -0.0678     -0.332     -0.481    16.3509 0.0000e+00
     -0.341     -0.013     8.9627     92.124     18.903  15.633701     0.0000    -0.8072     0.2982    -0.8037 1.6033e+03    -0.0376     -0.335     -0.486    16.3499 0.0000e+00
     -0.344     -0.010     8.9348     93.076     17.824  14.740813     0.0000    -0.7957     0.2982    -0.8037 1.5567e+03    -0.0829     -0.338     -0.490    16.3491 0.0000e+00
     -0.346     -0.008     8.9321     94.227     16.852  13.935935     0.0000    -0.2541     0.2982    -0.8037 1.5964e+03    -0.9138     -0.340     -0.492    16.3484 0.0000e+00
     -0.348     -0.006     8.9620     95.449     15.993  13.225319     0.0000    -0.2426    -0.5112     4.6107 1.5767e+03    -1.0044     -0.341     -0.495    16.3475 0.0000e+00
     -0.349     -0.005     9.0260     96.629     15.508  12.823424     0.0000    -0.2426    -0.5112     4.6107 1.5604e+03    -1.0195     -0.342     -0.496    16.3465 0.0000e+00
     -0.350     -0.004     9.1195     97.690     15.251  12.611140     0.0000    -0.2769    -0.5112     4.6107 1.4840e+03    -0.9289     -0.343     -0.498    16.3453 0.0000e+00
     -0.351     -0.003     9.2325     98.588     14.956  12.366703     0.0000    -0.2426    -0.5112     4.6107 1.4616e+03    -0.9591     -0.344     -0.499    16.3441 0.0000e+00
     -0.351     -0.002     9.3525     99.310     14.488  11.979161     0.0000    -0.2655    -0.1704    -1.8612 1.4979e+03    -0.9138     -0.344     -0.500    16.3428 0.0000e+00
     -0.352     -0.002     9.4685     99.865     13.743  11.363080     0.0000    -0.2655    -0.1704    -1.8612 1.5692e+03    -1.0044     -0.345     -0.500    16.3416 0.0000e+00
     -0.352     -0.002     9.5727    100.275     12.810  10.590956     0.0000    -0.2273    -0.1704    -1.8612 1.6698e+03    -1.0800     -0.345     -0.501    16.3405 0.0000e+00
     -0.352     -0.001     9.6608    100.567     11.874   9.817035     0.0000    -0.2388    -0.1704    -1.8612 1.6691e+03    -0.8836     -0.346     -0.501    16.3394 0.0000e+00
     -0.352     -0.001     9.7318    100.766     11.021   9.111496     0.0000    -0.2922     0.7242     2.5803 1.6138e+03    -1.0800     -0.346     -0.501    16.3382 0.0000e+00
     -0.353     -0.001     9.7865    100.896     10.316   8.528918     0.0000    -0.2273     0.7242     2.5803 1.5702e+03    -0.9591     -0.346     -0.502    16.3371 0.0000e+00
     -0.353     -0.001     9.8269    100.976      9.809   8.108912     0.0000    -0.2731     0.7242     2.5803 1.5084e+03    -0.9742     -0.346     -0.502    16.3359 0.0000e+00
     -0.353     -0.001     9.8558    101.021      9.499   7.852874     0.0000    -0.2541     0.7242     2.5803 1.4689e+03    -0.9440     -0.346     -0.502    16.3349 0.0000e+00
     -0.353     -0.001     9.8756    101.035      9.392   7.764142     0.0000    -0.2541     0.7242     2.5803 1.4543e+03    -0.9138     -0.346     -0.502    16.3339 0.0000e+00
     -0.353 -9.990e-29     9.8884 -9.990e-29 -9.990e-29 -9.990e-29     0.0000 -9.990e-29     0.0000    -2.6226 1.5140e+03 -9.990e-29     -0.346     -0.502    16.3331 0.0000e+00
     -0.353 -9.990e-29     9.8964 -9.990e-29 -9.990e-29 -9.990e-29     0.0000 -9.990e-29     0.0000    -2.6226 1.5445e+03 -9.990e-29     -0.346     -0.502    16.3324 0.0000e+00
     -0.353 -9.990e-29     9.9009 -9.990e-29 -9.990e-29 -9.990e-29     0.0000 -9.990e-29     0.0000    -2.6226 1.5658e+03 -9.990e-29     -0.346     -0.502    16.3319 0.0000e+00
     -0.353 -9.990e-29     9.9024 -9.990e-29 -9.990e-29 -9.990e-29     0.0000 -9.990e-29     0.0000    -2.6226 1.5723e+03 -9.990e-29     -0.346     -0.502    16.3317 0.0000e+00
