* Sea-Bird SBE19plus  Data File:
* FileName = C:\DATA\101518_fcr_0016.hex
* Software version 2.6.3.104
* Temperature SN = 7809
* Conductivity SN = 7809
* System UpLoad Time = Oct 29 2018 16:41:22
* <ApplicationData>
* <Seaterm232>
* <SoftwareVersion>2.6.3.104</SoftwareVersion>
* <BuildDate>30-Jun-2017</BuildDate>
* </Seaterm232>
* </ApplicationData>
* <InstrumentState>
* <HardwareData DeviceType='SBE19plus' SerialNumber='01907809'>
*
*    <Manufacturer>Sea-Bird Electronics, Inc.</Manufacturer>
*
*    <FirmwareVersion>3.1.8</FirmwareVersion>
*
*    <FirmwareDate>Mar  9 2016 16:22:29</FirmwareDate>
*
*    <CommandSetVersion>1.4</CommandSetVersion>
*
*    <PCBAssembly PCBSerialNum='120721' AssemblyNum='41054J'/>
*
*    <PCBAssembly PCBSerialNum='120715' AssemblyNum='41967A'/>
*
*    <PCBAssembly PCBSerialNum='116699' AssemblyNum='41606'/>
*
*    <PCBAssembly PCBSerialNum='120719' AssemblyNum='41059D'/>
*
*    <MfgDate>28-Apr-2017</MfgDate>
*
*    <InternalSensors>
*
*       <Sensor id='Main Temperature'>
*
*          <type>temperature0</type>
*
*          <SerialNumber>01907809</SerialNumber>
*
*       </Sensor>
*
*       <Sensor id='Main Conductivity'>
*
*          <type>conductivity-0</type>
*
*          <SerialNumber>01907809</SerialNumber>
*
*       </Sensor>
*
*       <Sensor id='Main Pressure'>
*
*          <type>strain-0</type>
*
*          <SerialNumber>10586018</SerialNumber>
*
*       </Sensor>
*
*    </InternalSensors>
*
*    <ExternalSensors>
*
*       <Sensor id='volt 0'>
*
*          <type>pH</type>
*
*          <SerialNumber>27-0363</SerialNumber>
*
*       </Sensor>
*
*       <Sensor id='volt 1'>
*
*          <type>ORP</type>
*
*          <SerialNumber>27-0363</SerialNumber>
*
*       </Sensor>
*
*       <Sensor id='volt 2'>
*
*          <type>OXY</type>
*
*          <SerialNumber>43-0434</SerialNumber>
*
*       </Sensor>
*
*       <Sensor id='volt 3'>
*
*          <type>PAR</type>
*
*          <SerialNumber>1122</SerialNumber>
*
*       </Sensor>
*
*       <Sensor id='volt 4'>
*
*          <type>ECO AFL/FL</type>
*
*          <SerialNumber>FLNTURT-2496</SerialNumber>
*
*       </Sensor>
*
*       <Sensor id='volt 5'>
*
*          <type>ECO-NTU</type>
*
*          <SerialNumber>FLNTURT-2496</SerialNumber>
*
*       </Sensor>
*
*       <Sensor id='serial'>
*
*          <type>not assigned</type>
*
*          <SerialNumber>not assigned</SerialNumber>
*
*       </Sensor>
*
*    </ExternalSensors>
*
* </HardwareData>
* <StatusData DeviceType='SBE19plus' SerialNumber='01907809'>
*
*    <DateTime>2018-10-29T20:36:07</DateTime>
*
*    <LoggingState>not logging</LoggingState>
*
*    <EventSummary numEvents='0'/>
*
*    <Power>
*
*       <vMain>12.7</vMain>
*
*       <vLith>8.4</vLith>
*
*       <iMain>63.3</iMain>
*
*       <iPump>138.1</iPump>
*
*       <iExt01>14.7</iExt01>
*
*       <iExt2345>45.2</iExt2345>
*
*    </Power>
*
*    <MemorySummary>
*
*       <Bytes>262706</Bytes>
*
*       <Samples>11422</Samples>
*
*       <SamplesFree>2849366</SamplesFree>
*
*       <SampleLength>23</SampleLength>
*
*       <Profiles>17</Profiles>
*
*    </MemorySummary>
*
* </StatusData>
* <ConfigurationData DeviceType='SBE19plus' SerialNumber='01907809'>
*
*    <ProfileMode>
*
*       <ScansToAverage>1</ScansToAverage>
*
*       <MinimumCondFreq>5</MinimumCondFreq>
*
*       <PumpDelay>45</PumpDelay>
*
*       <AutoRun>no</AutoRun>
*
*       <IgnoreSwitch>no</IgnoreSwitch>
*
*    </ProfileMode>
*
*    <Battery>
*
*       <Type>alkaline</Type>
*
*       <CutOff>7.5</CutOff>
*
*    </Battery>
*
*    <DataChannels>
*
*       <ExtVolt0>yes</ExtVolt0>
*
*       <ExtVolt1>yes</ExtVolt1>
*
*       <ExtVolt2>yes</ExtVolt2>
*
*       <ExtVolt3>yes</ExtVolt3>
*
*       <ExtVolt4>yes</ExtVolt4>
*
*       <ExtVolt5>yes</ExtVolt5>
*
*       <SBE38>no</SBE38>
*
*       <WETLABS>no</WETLABS>
*
*       <OPTODE>no</OPTODE>
*
*       <SBE63>no</SBE63>
*
*       <SeaFET>no</SeaFET>
*
*       <GTD>no</GTD>
*
*    </DataChannels>
*
*    <EchoCharacters>yes</EchoCharacters>
*
*    <OutputExecutedTag>yes</OutputExecutedTag>
*
*    <OutputFormat>raw HEX</OutputFormat>
*
* </ConfigurationData>
* <CalibrationCoefficients DeviceType='SBE19plus' SerialNumber='01907809'>
*
*    <Calibration format='TEMP1' id='Main Temperature'>
*
*       <SerialNum>01907809</SerialNum>
*
*       <CalDate>09-Mar-18</CalDate>
*
*       <TA0>1.210932e-03</TA0>
*
*       <TA1>2.843566e-04</TA1>
*
*       <TA2>-1.945074e-06</TA2>
*
*       <TA3>2.128067e-07</TA3>
*
*       <TOFFSET>0.000000e+00</TOFFSET>
*
*    </Calibration>
*
*    <Calibration format='WBCOND0' id='Main Conductivity'>
*
*       <SerialNum>01907809</SerialNum>
*
*       <CalDate>09-Mar-18</CalDate>
*
*       <G>-1.006721e+00</G>
*
*       <H>1.269065e-01</H>
*
*       <I>-1.405844e-04</I>
*
*       <J>2.478371e-05</J>
*
*       <CPCOR>-9.570000e-08</CPCOR>
*
*       <CTCOR>3.250000e-06</CTCOR>
*
*       <CSLOPE>1.000000e+00</CSLOPE>
*
*    </Calibration>
*
*    <Calibration format='STRAIN0' id='Main Pressure'>
*
*       <SerialNum>10586018</SerialNum>
*
*       <CalDate>07-Mar-18</CalDate>
*
*       <PA0>-4.081764e-02</PA0>
*
*       <PA1>4.851884e-04</PA1>
*
*       <PA2>-3.511682e-12</PA2>
*
*       <PTCA0>5.252134e+05</PTCA0>
*
*       <PTCA1>1.795324e+00</PTCA1>
*
*       <PTCA2>-2.843535e-01</PTCA2>
*
*       <PTCB0>2.516687e+01</PTCB0>
*
*       <PTCB1>3.750000e-04</PTCB1>
*
*       <PTCB2>0.000000e+00</PTCB2>
*
*       <PTEMPA0>-5.378069e+01</PTEMPA0>
*
*       <PTEMPA1>5.366207e+01</PTEMPA1>
*
*       <PTEMPA2>4.872143e-02</PTEMPA2>
*
*       <POFFSET>5.000000e-01</POFFSET>
*
*       <PRANGE>1.600000e+02</PRANGE>
*
*    </Calibration>
*
*    <Calibration format='VOLT0' id='Volt 0'>
*
*       <OFFSET>-4.920000e-02</OFFSET>
*
*       <SLOPE>1.248122e+00</SLOPE>
*
*    </Calibration>
*
*    <Calibration format='VOLT0' id='Volt 1'>
*
*       <OFFSET>-4.784000e-02</OFFSET>
*
*       <SLOPE>1.248871e+00</SLOPE>
*
*    </Calibration>
*
*    <Calibration format='VOLT0' id='Volt 2'>
*
*       <OFFSET>-4.864632e-02</OFFSET>
*
*       <SLOPE>1.248714e+00</SLOPE>
*
*    </Calibration>
*
*    <Calibration format='VOLT0' id='Volt 3'>
*
*       <OFFSET>-4.743790e-02</OFFSET>
*
*       <SLOPE>1.248571e+00</SLOPE>
*
*    </Calibration>
*
*    <Calibration format='VOLT0' id='Volt 4'>
*
*       <OFFSET>-4.671263e-02</OFFSET>
*
*       <SLOPE>1.248951e+00</SLOPE>
*
*    </Calibration>
*
*    <Calibration format='VOLT0' id='Volt 5'>
*
*       <OFFSET>-4.871053e-02</OFFSET>
*
*       <SLOPE>1.249136e+00</SLOPE>
*
*    </Calibration>
*
*    <Calibration format='FREQ0' id='external frequency channel'>
*
*       <EXTFREQSF>1.000014e+00</EXTFREQSF>
*
*    </Calibration>
*
* </CalibrationCoefficients>
* <EventCounters DeviceType='SBE19plus' SerialNumber='01907809'>
*
*    <EventSummary numEvents='0'/>
*
* </EventCounters></InstrumentState>
* <Headers>
*
* cast  16 29 Oct 2018 15:15:16 samples 9934 to 10628, avg = 1, stop = mag switch
*
# nquan = 17
# nvalues = 619                         
# units = specified
# name 0 = depFM: Depth [fresh water, m]
# name 1 = tv290C: Temperature [ITS-90, deg C]
# name 2 = sbeox0Mg/L: Oxygen, SBE 43 [mg/l]
# name 3 = sbeox0PS: Oxygen, SBE 43 [% saturation]
# name 4 = c0uS/cm: Conductivity [uS/cm]
# name 5 = specc: Specific Conductance [uS/cm]
# name 6 = ph: pH
# name 7 = orp: Oxidation Reduction Potential [mV]
# name 8 = flECO-AFL: Fluorescence, WET Labs ECO-AFL/FL [mg/m^3]
# name 9 = turbWETntu0: Turbidity, WET Labs ECO [NTU]
# name 10 = sal00: Salinity, Practical [PSU]
# name 11 = dz/dtM: Descent Rate [m/s]
# name 12 = prdM: Pressure, Strain Gauge [db]
# name 13 = prdE: Pressure, Strain Gauge [psi]
# name 14 = scan: Scan Count
# name 15 = par/sat/log: PAR/Logarithmic, Satlantic
# name 16 = flag:  0.000e+00
# span 0 =     -0.625,      7.542       
# span 1 =    10.7983,    12.3484       
# span 2 =     5.1551,    10.7299       
# span 3 =     47.912,     97.346       
# span 4 =   0.815341,  28.465214       
# span 5 =      1.608,     38.613       
# span 6 =     -2.970,      7.752       
# span 7 = -1240.7455,  1240.2295       
# span 8 =    -1.9207,     2.8468       
# span 9 =    -6.5354,     9.4975       
# span 10 =     0.0057,     0.0207      
# span 11 =     -0.193,      0.254      
# span 12 =     -0.612,      7.395      
# span 13 =     -0.888,     10.725      
# span 14 =          1,        619      
# span 15 = 1.2056e-01, 2.3288e+03      
# span 16 = 0.0000e+00, 0.0000e+00      
# interval = seconds: 0.25
# start_time = Oct 29 2018 15:15:16 [Instrument's time stamp, header]
# bad_flag = -9.990e-29
# <Sensors count="9" >
#   <sensor Channel="1" >
#     <!-- Count, Temperature -->
#     <TemperatureSensor SensorID="58" >
#       <SerialNumber>7809</SerialNumber>
#       <CalibrationDate>09-Mar-18</CalibrationDate>
#       <A0>1.21093245e-003</A0>
#       <A1>2.84356597e-004</A1>
#       <A2>-1.94507398e-006</A2>
#       <A3>2.12806664e-007</A3>
#       <Slope>1.00000000</Slope>
#       <Offset>0.0000</Offset>
#     </TemperatureSensor>
#   </sensor>
#   <sensor Channel="2" >
#     <!-- Frequency 0, Conductivity -->
#     <ConductivitySensor SensorID="3" >
#       <SerialNumber>7809</SerialNumber>
#       <CalibrationDate>09-Mar-18</CalibrationDate>
#       <UseG_J>1</UseG_J>
#       <!-- Cell const and series R are applicable only for wide range sensors. -->
#       <SeriesR>0.0000</SeriesR>
#       <CellConst>2000.0000</CellConst>
#       <ConductivityType>0</ConductivityType>
#       <Coefficients equation="0" >
#         <A>0.00000000e+000</A>
#         <B>0.00000000e+000</B>
#         <C>0.00000000e+000</C>
#         <D>0.00000000e+000</D>
#         <M>0.0</M>
#         <CPcor>-9.57000000e-008</CPcor>
#       </Coefficients>
#       <Coefficients equation="1" >
#         <G>-1.00672082e+000</G>
#         <H>1.26906489e-001</H>
#         <I>-1.40584351e-004</I>
#         <J>2.47837121e-005</J>
#         <CPcor>-9.57000000e-008</CPcor>
#         <CTcor>3.2500e-006</CTcor>
#         <!-- WBOTC not applicable unless ConductivityType = 1. -->
#         <WBOTC>0.00000000e+000</WBOTC>
#       </Coefficients>
#       <Slope>1.00000000</Slope>
#       <Offset>0.00000</Offset>
#     </ConductivitySensor>
#   </sensor>
#   <sensor Channel="3" >
#     <!-- Count, Pressure, Strain Gauge -->
#     <PressureSensor SensorID="46" >
#       <SerialNumber>7809</SerialNumber>
#       <CalibrationDate>07-Mar-18</CalibrationDate>
#       <PA0>-4.08176359e-002</PA0>
#       <PA1>4.85188419e-004</PA1>
#       <PA2>-3.51168169e-012</PA2>
#       <PTEMPA0>-5.37806900e+001</PTEMPA0>
#       <PTEMPA1>5.36620721e+001</PTEMPA1>
#       <PTEMPA2>4.87214332e-002</PTEMPA2>
#       <PTCA0>5.25213435e+005</PTCA0>
#       <PTCA1>1.79532409e+000</PTCA1>
#       <PTCA2>-2.84353509e-001</PTCA2>
#       <PTCB0>2.51668750e+001</PTCB0>
#       <PTCB1>3.75000000e-004</PTCB1>
#       <PTCB2>0.00000000e+000</PTCB2>
#       <Offset>0.000000</Offset>
#     </PressureSensor>
#   </sensor>
#   <sensor Channel="4" >
#     <!-- A/D voltage 0, pH -->
#     <pH_Sensor SensorID="43" >
#       <SerialNumber>0363</SerialNumber>
#       <CalibrationDate>16-Mar-18</CalibrationDate>
#       <Slope>4.6194</Slope>
#       <Offset>2.5947</Offset>
#     </pH_Sensor>
#   </sensor>
#   <sensor Channel="5" >
#     <!-- A/D voltage 1, Oxidation Reduction Potential -->
#     <OxidationReductionPotentialSensor SensorID="41" >
#       <SerialNumber>0363</SerialNumber>
#       <CalibrationDate>16-Mar-18</CalibrationDate>
#       <B>2.499480</B>
#       <M>-0.496195</M>
#       <Offset>0.0</Offset>
#     </OxidationReductionPotentialSensor>
#   </sensor>
#   <sensor Channel="6" >
#     <!-- A/D voltage 2, Oxygen, SBE 43 -->
#     <OxygenSensor SensorID="38" >
#       <SerialNumber>0434</SerialNumber>
#       <CalibrationDate>13-Mar-18</CalibrationDate>
#       <Use2007Equation>1</Use2007Equation>
#       <CalibrationCoefficients equation="0" >
#         <!-- Coefficients for Owens-Millard equation. -->
#         <Boc>0.0000</Boc>
#         <Soc>0.0000e+000</Soc>
#         <offset>0.0000</offset>
#         <Pcor>0.00e+000</Pcor>
#         <Tcor>0.0000</Tcor>
#         <Tau>0.0</Tau>
#       </CalibrationCoefficients>
#       <CalibrationCoefficients equation="1" >
#         <!-- Coefficients for Sea-Bird equation - SBE calibration in 2007 and later. -->
#         <Soc>4.5718e-001</Soc>
#         <offset>-0.6113</offset>
#         <A>-4.0649e-003</A>
#         <B> 2.0945e-004</B>
#         <C>-3.3182e-006</C>
#         <D0> 2.5826e+000</D0>
#         <D1> 1.92634e-004</D1>
#         <D2>-4.64803e-002</D2>
#         <E> 3.6000e-002</E>
#         <Tau20> 1.2200</Tau20>
#         <H1>-3.3000e-002</H1>
#         <H2> 5.0000e+003</H2>
#         <H3> 1.4500e+003</H3>
#       </CalibrationCoefficients>
#     </OxygenSensor>
#   </sensor>
#   <sensor Channel="7" >
#     <!-- A/D voltage 3, PAR/Logarithmic, Satlantic -->
#     <PARLog_SatlanticSensor SensorID="76" >
#       <SerialNumber>1122</SerialNumber>
#       <CalibrationDate>22-Jun-2017</CalibrationDate>
#       <a0>9.6090e-001</a0>
#       <a1>8.0780e-001</a1>
#       <Im>1.3589e+000</Im>
#       <Multiplier>1.0000e+000</Multiplier>
#     </PARLog_SatlanticSensor>
#   </sensor>
#   <sensor Channel="8" >
#     <!-- A/D voltage 4, Fluorometer, WET Labs ECO-AFL/FL -->
#     <FluoroWetlabECO_AFL_FL_Sensor SensorID="20" >
#       <SerialNumber>FLNTURT-2496</SerialNumber>
#       <CalibrationDate>25-Jan-2017</CalibrationDate>
#       <ScaleFactor>5.30000000e+001</ScaleFactor>
#       <!-- Dark output -->
#       <Vblank>0.0560</Vblank>
#     </FluoroWetlabECO_AFL_FL_Sensor>
#   </sensor>
#   <sensor Channel="9" >
#     <!-- A/D voltage 5, Turbidity Meter, WET Labs, ECO-NTU -->
#     <TurbidityMeter SensorID="67" >
#       <SerialNumber>FLNTURT-2496</SerialNumber>
#       <CalibrationDate>25-Jan-2017</CalibrationDate>
#       <ScaleFactor>176.000000</ScaleFactor>
#       <!-- Dark output -->
#       <DarkVoltage>0.072000</DarkVoltage>
#     </TurbidityMeter>
#   </sensor>
# </Sensors>
# datcnv_date = Oct 29 2018 16:48:40, 7.26.7.114 [datcnv_vars = 16]
# datcnv_in = C:\DATA\102918_fcr45.hex C:\DATA\SBE19plusV2_7809.xmlcon
# datcnv_skipover = 0
# datcnv_ox_hysteresis_correction = yes
# datcnv_ox_tau_correction = yes
# filter_date = Oct 29 2018 16:49:04, 7.26.7.114
# filter_in = C:\DATA\102918_fcr45.cnv
# filter_low_pass_tc_A = 0.030
# filter_low_pass_tc_B = 0.150
# filter_low_pass_A_vars = tv290C c0uS/cm par/sat/log
# filter_low_pass_B_vars = prdM prdE
# alignctd_date = Oct 29 2018 16:49:26, 7.26.7.114
# alignctd_in = C:\DATA\102918_fcr45.cnv
# alignctd_adv = tv290C 0.500, sbeox0Mg/L 3.000, sbeox0PS 3.000                                                                                                                                                                      
# file_type = ascii
*END*
     -0.625    10.8400    10.6202     95.920   1.441204      1.995     -2.968   898.1892    -0.1860     0.0174     0.0058 -2.105e-16     -0.612     -0.888          1 2.5178e+02 0.0000e+00
     -0.624    10.8392    10.6291     95.993   1.560596      2.190     -2.968   898.1892    -0.1941     0.0443     0.0059      0.000     -0.612     -0.888          2 3.0540e+02 0.0000e+00
     -0.624    10.8384    10.6404     96.083   1.748806      2.423     -2.968 -1240.7455    -0.2062    -0.0229     0.0059      0.000     -0.612     -0.888          3 3.0914e+02 0.0000e+00
     -0.625    10.8381    10.6522     96.178   1.858382      2.618      0.602 -1240.7455    -0.1941     1.3871     0.0060      0.000     -0.612     -0.888          4 2.4612e+02 0.0000e+00
     -0.625    10.8380    10.6661     96.294   1.809151      2.501      1.719   815.8497    -0.1941     1.2662     0.0060      0.000     -0.612     -0.888          5 1.7978e+02 0.0000e+00
     -0.624    10.8381    10.6857     96.464   1.662026      2.346     -2.968   897.5078    -0.2183     1.3468     0.0059      0.000     -0.611     -0.887          6 1.4064e+02 0.0000e+00
     -0.624    10.8377    10.6953     96.547   1.478903      2.034     -2.968   897.7349    -0.1981     1.2393     0.0058      0.000     -0.611     -0.887          7 1.2668e+02 0.0000e+00
     -0.624    10.8356    10.7152     96.722   1.444864      2.034     -2.968   897.5456    -0.2021    -0.4794     0.0058      0.001     -0.611     -0.887          8 1.1899e+02 0.0000e+00
     -0.624    10.8321    10.7209     96.771   1.467515      2.034     -2.968   870.0234    -0.1941    -0.4660     0.0058      0.001     -0.611     -0.887          9 1.2121e+02 0.0000e+00
     -0.623    10.8281    10.7259     96.817   1.450714      2.034     -2.968   895.2363    -0.2102    -0.4929     0.0058      0.001     -0.611     -0.886         10 1.2488e+02 0.0000e+00
     -0.623    10.8248    10.7244     96.808   1.406554      1.957     -2.969   898.2649    -0.2183    -0.5331     0.0058      0.001     -0.611     -0.886         11 1.3582e+02 0.0000e+00
     -0.623    10.8213    10.7259     96.827   1.315209      1.840     -2.969   897.2428    -0.1860    -0.4660     0.0058      0.001     -0.611     -0.886         12 1.4791e+02 0.0000e+00
     -0.623    10.8161    10.7299     96.869   1.268305      1.762     -2.969   897.3942    -0.2062    -0.6271     0.0058      0.000     -0.611     -0.886         13 1.5332e+02 0.0000e+00
     -0.624    10.8106    10.7288     96.865   1.257666      1.763     -2.969   897.5835    -0.1900    -0.6943     0.0058      0.000     -0.611     -0.886         14 1.7605e+02 0.0000e+00
     -0.623    10.8067    10.7154     96.871   1.210014      1.685     -2.969   896.8263    -0.1819    -0.6406     0.0057      0.000     -0.611     -0.886         15 1.9528e+02 0.0000e+00
     -0.623    10.8037    10.6227     96.823   1.209173      1.685     -2.969   896.9021    -0.2143    -0.6540     0.0057      0.000     -0.611     -0.886         16 1.9509e+02 0.0000e+00
     -0.623    10.8022    10.5341     96.778   1.199495      1.685     -2.969   897.0913    -0.1941    -0.6943     0.0057      0.000     -0.611     -0.886         17 1.9365e+02 0.0000e+00
     -0.623    10.7997    10.4785     96.758   1.222056      1.686     -2.969   896.9399    -0.1860    -0.6809     0.0057      0.000     -0.611     -0.886         18 1.9398e+02 0.0000e+00
     -0.623    10.7993    10.4302     96.662   1.121880      1.608     -2.970   896.8263    -0.2021    -0.6271     0.0057      0.000     -0.611     -0.886         19 1.8200e+02 0.0000e+00
     -0.623    10.7983    10.4013     96.672   1.264948      1.686     -2.970   897.2428    -0.1698    -0.6271     0.0057      0.000     -0.611     -0.886         20 1.7555e+02 0.0000e+00
     -0.623    10.8028    10.3848     96.701   1.044012      1.608     -2.970   896.9778    -0.2143    -0.6137     0.0057      0.000     -0.611     -0.886         21 1.9110e+02 0.0000e+00
     -0.624    10.8012    10.3730     96.675   1.456047      1.764     -2.970   896.9399    -0.1738    -0.6540     0.0058      0.000     -0.611     -0.886         22 2.0022e+02 0.0000e+00
     -0.623    10.8106    10.3825     96.798   1.137088      2.036     -2.970   896.8642    -0.2062    -0.6271     0.0058     -0.000     -0.611     -0.886         23 2.1455e+02 0.0000e+00
     -0.624    10.8021    10.3923     96.902   2.151560      2.270     -2.970   897.0913    -0.2102    -0.7748     0.0059     -0.000     -0.611     -0.885         24 2.5612e+02 0.0000e+00
     -0.623    10.8772    10.4204     97.170   0.815341      2.348     -2.969   897.0156    -0.1900    -0.6540     0.0059     -0.000     -0.606     -0.880         25 2.7859e+02 0.0000e+00
     -0.615    11.2082    10.4296     97.253   2.977644      2.192     -2.969  1240.2295    -0.1860    -0.6674     0.0059      0.002     -0.581     -0.844         26 3.1920e+02 0.0000e+00
     -0.534    11.5603    10.4406     97.346  19.337689     28.536      0.533   291.4510    -0.2102    -0.6540     0.0160      0.025     -0.523     -0.759         27 4.5086e+02 0.0000e+00
     -0.455    11.7795    10.4005     96.957  28.361049     38.556      3.716   286.3403    -0.2021    -0.6943     0.0204      0.062     -0.452     -0.656         28 7.9332e+02 0.0000e+00
     -0.396    11.9414    10.2902     95.915  27.957997     38.613      5.732   284.4474    -0.1900    -0.6674     0.0206      0.105     -0.389     -0.564         29 9.5417e+02 0.0000e+00
     -0.337    12.0657    10.0567     93.735  28.465214     38.455      6.757   283.7282     2.7982    -6.5354     0.0206      0.147     -0.330     -0.479         30 1.1485e+03 0.0000e+00
     -0.277    12.1501     9.7580     90.953  28.233753     38.366      7.317   278.7689     2.8184    -6.4012     0.0207      0.187     -0.270     -0.391         31 1.1759e+03 0.0000e+00
     -0.210    12.1883     9.4157     87.772  28.364576     38.159      7.580   270.3267     2.8468    -6.4683     0.0206      0.221     -0.207     -0.301         32 1.1649e+03 0.0000e+00
     -0.149    12.2043     9.0540     84.408  28.243062     38.073      7.701   268.1688     2.8144    -6.4549     0.0206      0.245     -0.146     -0.211         33 1.5324e+03 0.0000e+00
     -0.085    12.2104     8.7171     81.271  28.266348     37.959      7.752   266.9195     0.6915     3.4415     0.0206      0.254     -0.087     -0.126         34 1.3059e+03 0.0000e+00
     -0.032    12.2130     8.4452     78.734  28.216987     37.943      7.743   268.9638     0.6794     3.5758     0.0206      0.245     -0.036     -0.052         35 8.3701e+02 0.0000e+00
      0.008    12.2116     8.2364     76.777  28.245189     37.937      7.704   276.9138     0.6389     3.5758     0.0206      0.234      0.004      0.007         36 5.7358e+02 0.0000e+00
      0.041    12.2072     8.0728     75.245  28.231249     37.934      7.624   276.4217     0.6794     3.5624     0.0206      0.222      0.034      0.050         37 7.3690e+02 0.0000e+00
      0.057    12.2006     7.9593     74.189  28.234333     37.936      7.558   276.4596     0.8654     4.1666     0.0206      0.201      0.054      0.079         38 8.6690e+02 0.0000e+00
      0.069    12.1943     7.8572     73.242  28.241351     37.940      7.519   276.6488     0.8896     4.1532     0.0206      0.174      0.068      0.100         39 7.3335e+02 0.0000e+00
      0.083    12.1923     7.7629     72.373  28.281815     38.022      7.489   275.9296     0.8573     4.2203     0.0206      0.143      0.082      0.120         40 4.7978e+02 0.0000e+00
      0.100    12.1938     7.6653     71.474  28.243276     37.954      7.468   276.4217     0.8532     4.2338     0.0206      0.114      0.097      0.140         41 4.7658e+02 0.0000e+00
      0.114    12.1981     7.5575     70.477  28.230018     37.955      7.442   270.6674     0.8937     3.4147     0.0206      0.090      0.107      0.155         42 9.0245e+02 0.0000e+00
      0.113    12.2023     7.4436     69.419  28.239020     37.954      7.423   269.0774     0.8735     3.2535     0.0206      0.068      0.110      0.159         43 8.6538e+02 0.0000e+00
      0.108    12.2045     7.3235     68.297  28.172777     37.874      7.414   268.4717     0.8735     3.3207     0.0206      0.050      0.107      0.155         44 5.5998e+02 0.0000e+00
      0.106    12.2031     7.2260     67.384  28.193862     37.870      7.393   270.5160     0.8775     3.2938     0.0206      0.035      0.104      0.152         45 3.9339e+02 0.0000e+00
      0.106    12.1972     7.1559     66.732  28.272074     38.018      7.383   268.4717     0.8775     3.1864     0.0206      0.024      0.104      0.150         46 6.2350e+02 0.0000e+00
      0.105    12.1935     7.1086     66.295  28.194035     37.869      7.366   268.6988     0.8452     3.3341     0.0206      0.014      0.101      0.146         47 7.3260e+02 0.0000e+00
      0.096    12.1944     7.0896     66.121  28.172389     37.875      7.351   268.0931     0.8735     3.3072     0.0206      0.003      0.095      0.137         48 7.7751e+02 0.0000e+00
      0.088    12.1975     7.0888     66.117  28.239717     37.954      7.342   271.1595     0.8815     3.3744     0.0206     -0.008      0.090      0.130         49 7.6655e+02 0.0000e+00
      0.091    12.2032     7.0889     66.123  28.228839     37.953      7.333   275.1724     0.8694     3.3341     0.0206     -0.013      0.090      0.131         50 7.5541e+02 0.0000e+00
      0.095    12.2098     7.0968     66.199  28.245224     37.950      7.329   268.2067     0.7885     3.2804     0.0206     -0.011      0.094      0.137         51 8.5033e+02 0.0000e+00
      0.102    12.2149     7.1129     66.351  28.278622     38.019      7.320   274.7938     0.8007     3.2133     0.0206     -0.007      0.101      0.147         52 6.7150e+02 0.0000e+00
      0.113    12.2176     7.1225     66.443  28.246570     37.938      7.315   274.0746     0.8128     3.3744     0.0206     -0.001      0.111      0.161         53 6.8169e+02 0.0000e+00
      0.125    12.2164     7.1167     66.391  28.225814     37.932      7.308   274.6046     0.8128     3.2401     0.0206      0.008      0.121      0.175         54 6.5642e+02 0.0000e+00
      0.131    12.2144     7.1204     66.427  28.245153     37.930      7.300   274.5667     0.8856     3.2804     0.0206      0.017      0.128      0.185         55 6.5772e+02 0.0000e+00
      0.134    12.2152     7.1203     66.427  28.281797     38.006      7.288   274.3396     0.8613     3.2938     0.0206      0.024      0.130      0.188         56 5.7363e+02 0.0000e+00
      0.131    12.2177     7.1197     66.424  28.239507     37.933      7.280   274.3396     0.8694     3.2267     0.0206      0.026      0.128      0.186         57 5.9487e+02 0.0000e+00
      0.128    12.2201     7.1266     66.492  28.238486     37.932      7.269   270.7431     0.8735     3.3475     0.0206      0.022      0.125      0.181         58 6.4045e+02 0.0000e+00
      0.124    12.2225     7.1258     66.485  28.283069     38.005      7.261   273.7338     0.9503     3.1998     0.0206      0.016      0.121      0.176         59 5.2376e+02 0.0000e+00
      0.121    12.2252     7.1328     66.552  28.243321     37.927      7.259   268.8881     0.9422     3.2670     0.0206      0.008      0.119      0.173         60 6.0620e+02 0.0000e+00
      0.121    12.2270     7.1379     66.602  28.287951     38.000      7.248   270.0995     0.9139     3.2938     0.0206     -0.000      0.119      0.173         61 6.1222e+02 0.0000e+00
      0.122    12.2283     7.1268     66.499  28.346120     38.072      7.241   273.3931     0.9220     3.2401     0.0207     -0.005      0.120      0.174         62 7.2554e+02 0.0000e+00
      0.124    12.2298     7.1219     66.453  28.348818     38.070      7.235   269.6074     0.9341     3.3475     0.0207     -0.006      0.122      0.176         63 8.4177e+02 0.0000e+00
      0.124    12.2313     7.1054     66.297  28.343888     38.069      7.231   272.8253     0.9584     3.2133     0.0207     -0.005      0.122      0.177         64 5.5571e+02 0.0000e+00
      0.124    12.2322     7.0986     66.232  28.352256     38.067      7.224   269.0395     0.9503     3.2670     0.0207     -0.002      0.122      0.178         65 6.7446e+02 0.0000e+00
      0.126    12.2330     7.0781     66.038  28.397701     38.141      7.219   268.5474     0.9503     3.3207     0.0207      0.000      0.123      0.179         66 8.8179e+02 0.0000e+00
      0.127    12.2350     7.0584     65.851  28.405925     38.140      7.217   268.8124     0.9462     3.2670     0.0207      0.002      0.124      0.180         67 6.2604e+02 0.0000e+00
      0.128    12.2370     7.0332     65.614  28.401317     38.139      7.215   268.6610     0.9382     3.2535     0.0207      0.004      0.125      0.182         68 6.1411e+02 0.0000e+00
      0.129    12.2377     7.0158     65.453  28.403435     38.137      7.213   268.4717     0.9139     3.3341     0.0207      0.004      0.127      0.184         69 9.1009e+02 0.0000e+00
      0.130    12.2388     6.9968     65.280  28.403289     38.135      7.208   268.4717     0.9341     3.2267     0.0207      0.004      0.127      0.184         70 7.2377e+02 0.0000e+00
      0.130    12.2402     6.9783     65.111  28.401496     38.134      7.206   268.8881     0.9462     3.2267     0.0207      0.003      0.127      0.184         71 8.8672e+02 0.0000e+00
      0.129    12.2409     6.9723     65.057  28.405665     38.133      7.202   268.8881     0.9260     3.4147     0.0207      0.003      0.126      0.183         72 1.2705e+03 0.0000e+00
      0.128    12.2404     6.9515     64.864  28.398101     38.132      7.198   269.0017     0.9260     3.2267     0.0207      0.002      0.125      0.181         73 9.1294e+02 0.0000e+00
      0.127    12.2392     6.9466     64.821  28.410908     38.131      7.196   269.1910     0.9341     3.3207     0.0207      0.001      0.125      0.181         74 9.2745e+02 0.0000e+00
      0.128    12.2381     6.9326     64.695  28.449024     38.207      7.190   269.2667     0.9382     3.3072     0.0207     -0.000      0.126      0.183         75 1.1265e+03 0.0000e+00
      0.131    12.2365     6.9207     64.586  28.409965     38.133      7.188   273.3174     0.9624     3.2938     0.0207      0.000      0.128      0.186         76 7.0727e+02 0.0000e+00
      0.132    12.2342     6.9004     64.398  28.400220     38.134      7.185   274.3017     0.9179     3.3610     0.0207      0.001      0.130      0.188         77 1.0679e+03 0.0000e+00
      0.133    12.2328     6.8813     64.219  28.461152     38.211      7.182   273.6960     0.9220     3.2938     0.0207      0.002      0.130      0.188         78 1.8863e+03 0.0000e+00
      0.132    12.2338     6.8583     64.003  28.452731     38.213      7.182   273.9988     0.9179     3.2938     0.0207      0.002      0.129      0.187         79 9.3835e+02 0.0000e+00
      0.132    12.2364     6.8389     63.818  28.410701     38.139      7.180   274.5288     0.8856     3.3610     0.0207      0.003      0.129      0.187         80 1.0671e+03 0.0000e+00
      0.132    12.2387     6.8198     63.632  28.454161     38.213      7.177   274.4910     0.8896     3.2938     0.0207      0.003      0.129      0.188         81 1.5298e+03 0.0000e+00
      0.132    12.2399     6.7905     63.350  28.457942     38.211      7.174   274.2260     0.8654     3.3744     0.0207      0.002      0.130      0.189         82 8.4402e+02 0.0000e+00
      0.134    12.2410     6.7558     63.018  28.405994     38.133      7.171   274.4531     0.8815     3.2938     0.0207      0.002      0.132      0.190         83 8.0687e+02 0.0000e+00
      0.135    12.2435     6.7211     62.687  28.400214     38.132      7.165   274.4910     0.8654     3.4012     0.0207      0.002      0.132      0.192         84 7.4142e+02 0.0000e+00
      0.135    12.2457     6.6865     62.361  28.405838     38.131      7.161   274.5288     0.8815     3.3475     0.0207      0.002      0.133      0.193         85 6.3934e+02 0.0000e+00
      0.136    12.2473     6.6547     62.061  28.398996     38.128      7.158   274.7181     0.8775     3.4012     0.0207      0.002      0.133      0.194         86 6.3258e+02 0.0000e+00
      0.136    12.2483     6.6153     61.686  28.408730     38.126      7.156   274.3774     0.8654     3.3207     0.0207      0.003      0.134      0.194         87 6.4143e+02 0.0000e+00
      0.137    12.2480     6.5732     61.286  28.453021     38.199      7.151   274.4910     0.7926     3.2535     0.0207      0.003      0.135      0.195         88 6.1071e+02 0.0000e+00
      0.138    12.2470     6.5379     60.949  28.462469     38.198      7.151   274.3017     0.8047     3.3207     0.0207      0.003      0.135      0.196         89 7.0391e+02 0.0000e+00
      0.139    12.2442     6.4984     60.575  28.396970     38.124      7.148   274.2260     0.8532     3.2804     0.0207      0.003      0.136      0.197         90 9.4194e+02 0.0000e+00
      0.139    12.2392     6.4569     60.184  28.356640     38.050      7.148   274.2260     0.7926     3.3207     0.0207      0.002      0.136      0.197         91 7.3852e+02 0.0000e+00
      0.139    12.2332     6.4250     59.883  28.394066     38.128      7.143   273.8096     0.8290     3.2133     0.0207      0.002      0.136      0.197         92 5.8959e+02 0.0000e+00
      0.138    12.2268     6.3750     59.414  28.350398     38.058      7.143   274.4910     0.8371     3.4012     0.0207      0.002      0.135      0.196         93 7.8578e+02 0.0000e+00
      0.137    12.2223     6.3432     59.114  28.351690     38.064      7.141   274.4153     0.8047     3.3207     0.0207      0.001      0.135      0.196         94 7.1872e+02 0.0000e+00
      0.137    12.2199     6.3092     58.794  28.451756     38.220      7.140   274.2260     0.8249     3.2804     0.0207      0.000      0.135      0.196         95 5.6266e+02 0.0000e+00
      0.138    12.2169     6.2757     58.478  28.403761     38.150      7.135   274.1124     0.7926     3.3207     0.0207     -0.000      0.136      0.196         96 4.8629e+02 0.0000e+00
      0.139    12.2122     6.2341     58.088  28.352125     38.077      7.133   273.8853     0.8209     3.4012     0.0207     -0.000      0.136      0.196         97 4.9105e+02 0.0000e+00
      0.137    12.2062     6.2051     57.817  28.338127     38.080      7.129   273.8096     0.8330     3.3878     0.0207     -0.001      0.135      0.195         98 5.5887e+02 0.0000e+00
      0.135    12.2009     6.1750     57.537  28.302589     38.010      7.128   274.0746     0.8128     3.2401     0.0206     -0.001      0.133      0.193         99 6.1522e+02 0.0000e+00
      0.134    12.1968     6.1495     57.298  28.337056     38.091      7.126   274.1503     0.8047     3.3072     0.0207     -0.002      0.131      0.191        100 8.4846e+02 0.0000e+00
      0.134    12.1935     6.1260     57.074  28.295235     38.022      7.123   273.5824     0.8775     3.3207     0.0206     -0.002      0.131      0.190        101 9.4815e+02 0.0000e+00
      0.134    12.1909     6.1032     56.858  28.295340     38.026      7.126   273.4688     0.8896     3.3744     0.0206     -0.002      0.131      0.191        102 5.6999e+02 0.0000e+00
      0.134    12.1886     6.0778     56.617  28.336926     38.105      7.121   273.6203     0.8815     3.3207     0.0207     -0.003      0.131      0.191        103 5.0271e+02 0.0000e+00
      0.134    12.1860     6.0502     56.357  28.302778     38.032      7.119   273.9231     0.8735     3.2804     0.0206     -0.003      0.131      0.191        104 5.8975e+02 0.0000e+00
      0.133    12.1834     6.0257     56.128  28.337839     38.110      7.115   273.5067     0.8896     3.5490     0.0207     -0.002      0.131      0.190        105 5.5631e+02 0.0000e+00
      0.133    12.1809     6.0045     55.931  28.352594     38.112      7.115   274.0746     0.8937     3.5221     0.0207     -0.001      0.131      0.190        106 6.4832e+02 0.0000e+00
      0.134    12.1789     5.9843     55.737  28.343713     38.115      7.111   273.3931     0.8654     3.4952     0.0207     -0.000      0.131      0.191        107 6.9998e+02 0.0000e+00
      0.135    12.1785     5.9615     55.519  28.348889     38.117      7.109   273.5824     0.8735     3.5087     0.0207      0.000      0.133      0.193        108 7.7910e+02 0.0000e+00
      0.139    12.1785     5.9222     55.147  28.346154     38.119      7.108   273.3931     0.8047     3.3072     0.0207      0.002      0.136      0.197        109 7.7676e+02 0.0000e+00
      0.141    12.1771     5.8975     54.915  28.347121     38.120      7.107   273.4310     0.7926     3.2938     0.0207      0.003      0.138      0.200        110 7.3903e+02 0.0000e+00
      0.141    12.1743     5.8721     54.679  28.347688     38.120      7.105   273.4310     0.8371     3.3207     0.0207      0.004      0.138      0.200        111 7.2284e+02 0.0000e+00
      0.140    12.1709     5.8533     54.505  28.345448     38.121      7.102   273.5067     0.8128     3.2267     0.0207      0.004      0.138      0.200        112 6.9752e+02 0.0000e+00
      0.140    12.1674     5.8239     54.233  28.349907     38.124      7.101   273.2038     0.7845     3.3072     0.0207      0.004      0.138      0.200        113 6.5876e+02 0.0000e+00
      0.142    12.1651     5.8042     54.050  28.342138     38.128      7.099   273.5067     0.8937     3.3475     0.0207      0.004      0.138      0.200        114 6.2037e+02 0.0000e+00
      0.141    12.1652     5.7733     53.759  28.295821     38.056      7.093   273.8096     0.8735     3.2535     0.0206      0.003      0.137      0.199        115 7.2123e+02 0.0000e+00
      0.135    12.1648     5.7571     53.600  28.288957     38.058      7.094   271.9167     0.8937     3.3207     0.0206      0.000      0.133      0.194        116 7.1060e+02 0.0000e+00
      0.132    12.1608     5.7408     53.441  28.291385     38.058      7.093   273.3553     0.8815     3.2938     0.0206     -0.003      0.131      0.190        117 6.9742e+02 0.0000e+00
      0.133    12.1557     5.7185     53.227  28.292800     38.059      7.088   273.3174     0.9382     3.2535     0.0206     -0.005      0.131      0.190        118 7.5035e+02 0.0000e+00
      0.135    12.1516     5.6987     53.039  28.287196     38.063      7.088   273.0903     0.9503     3.4012     0.0206     -0.005      0.132      0.191        119 7.6605e+02 0.0000e+00
      0.136    12.1493     5.6798     52.860  28.298359     38.068      7.084   273.2038     0.9260     3.2670     0.0206     -0.004      0.132      0.192        120 8.6180e+02 0.0000e+00
      0.133    12.1492     5.6623     52.695  28.338204     38.148      7.082   273.2038     0.9422     3.2938     0.0207     -0.004      0.130      0.190        121 8.6838e+02 0.0000e+00
      0.130    12.1508     5.6500     52.576  28.296907     38.075      7.080   273.0524     0.9058     3.3072     0.0206     -0.004      0.127      0.185        122 8.3187e+02 0.0000e+00
      0.126    12.1526     5.6335     52.420  28.290458     38.075      7.076   271.8410     0.8735     3.2804     0.0206     -0.005      0.124      0.180        123 7.5734e+02 0.0000e+00
      0.123    12.1525     5.6043     52.146  28.286935     38.073      7.071   272.4088     0.9058     3.2535     0.0206     -0.005      0.120      0.175        124 7.6921e+02 0.0000e+00
      0.120    12.1493     5.5883     51.996  28.301291     38.071      7.068   271.7274     0.8815     3.4012     0.0206     -0.007      0.118      0.171        125 7.8957e+02 0.0000e+00
      0.119    12.1433     5.5800     51.918  28.331887     38.146      7.068   271.3110     0.9422     3.3610     0.0207     -0.009      0.117      0.170        126 6.1731e+02 0.0000e+00
      0.120    12.1369     5.5643     51.773  28.308155     38.075      7.067   271.0081     0.9260     3.3207     0.0206     -0.009      0.118      0.172        127 6.2620e+02 0.0000e+00
      0.123    12.1322     5.5555     51.694  28.330827     38.156      7.063   271.1217     0.9260     3.3475     0.0207     -0.008      0.121      0.176        128 7.1958e+02 0.0000e+00
      0.127    12.1292     5.5346     51.497  28.303674     38.087      7.062   271.1595     0.9503     3.3878     0.0206     -0.004      0.124      0.181        129 6.2082e+02 0.0000e+00
      0.130    12.1267     5.5334     51.479  28.282651     38.092      7.060   272.9388     0.8573     3.2670     0.0206      0.000      0.127      0.185        130 5.6358e+02 0.0000e+00
      0.132    12.1241     5.5226     51.373  28.297696     38.095      7.058   272.5224     0.8775     3.3341     0.0206      0.004      0.129      0.188        131 5.9344e+02 0.0000e+00
      0.134    12.1213     5.5025     51.184  28.284953     38.098      7.055   271.8788     0.8815     3.4147     0.0206      0.007      0.131      0.191        132 7.1564e+02 0.0000e+00
      0.136    12.1186     5.4902     51.070  28.298511     38.100      7.053   271.7274     0.8735     3.3072     0.0206      0.009      0.132      0.192        133 7.2098e+02 0.0000e+00
      0.134    12.1174     5.4739     50.916  28.280826     38.103      7.053   271.6138     0.9058     3.2267     0.0206      0.009      0.131      0.190        134 8.4451e+02 0.0000e+00
      0.131    12.1158     5.4620     50.801  28.247665     38.031      7.051   271.4624     0.9341     3.3878     0.0206      0.007      0.130      0.188        135 9.7571e+02 0.0000e+00
      0.132    12.1144     5.4512     50.695  28.280482     38.107      7.049   271.5760     0.9179     3.2804     0.0206      0.004      0.129      0.188        136 8.0040e+02 0.0000e+00
      0.132    12.1165     5.4458     50.638  28.239987     38.034      7.047   272.2195     0.9543     3.4147     0.0206      0.002      0.128      0.187        137 9.2486e+02 0.0000e+00
      0.129    12.1187     5.4424     50.602  28.238765     38.035      7.048   271.5760     0.9584     3.3744     0.0206     -0.001      0.127      0.184        138 9.3575e+02 0.0000e+00
      0.127    12.1163     5.4401     50.575  28.282003     38.108      7.044   271.3867     1.0190     3.2535     0.0206     -0.003      0.126      0.183        139 6.4075e+02 0.0000e+00
      0.128    12.1105     5.4351     50.525  28.304769     38.106      7.045   271.6895     0.9745     3.4147     0.0206     -0.004      0.126      0.183        140 7.1193e+02 0.0000e+00
      0.131    12.1057     5.4350     50.519  28.329024     38.184      7.046   271.5381     1.0231     3.4012     0.0207     -0.003      0.128      0.186        141 1.0524e+03 0.0000e+00
      0.131    12.1044     5.4218     50.392  28.251821     38.039      7.041   273.8474     0.9988     3.3744     0.0206     -0.002      0.128      0.186        142 8.0941e+02 0.0000e+00
      0.130    12.1042     5.4154     50.330  28.282257     38.119      7.042   272.4088     0.8896     9.3767     0.0206     -0.001      0.127      0.184        143 6.9765e+02 0.0000e+00
      0.127    12.1021     5.4033     50.217  28.291147     38.121      7.040   273.4688     0.8532     9.4841     0.0206     -0.001      0.124      0.181        144 6.2079e+02 0.0000e+00
      0.124    12.0985     5.3922     50.111  28.240757     38.046      7.037   272.2953     0.8815     9.4975     0.0206     -0.002      0.122      0.178        145 6.4318e+02 0.0000e+00
      0.124    12.0933     5.3778     49.974  28.285670     38.123      7.042   273.2417     0.9260     9.4841     0.0206     -0.002      0.121      0.176        146 1.1742e+03 0.0000e+00
      0.124    12.0882     5.3659     49.860  28.294552     38.127      7.036   271.9924     0.9018     3.3475     0.0206     -0.003      0.121      0.176        147 8.4664e+02 0.0000e+00
      0.123    12.0839     5.3570     49.775  28.289003     38.132      7.036   273.5824     0.8735     3.2535     0.0206     -0.004      0.121      0.176        148 8.8343e+02 0.0000e+00
      0.123    12.0798     5.3448     49.660  28.292578     38.137      7.035   272.3331     0.8896     3.2938     0.0206     -0.005      0.121      0.175        149 9.1905e+02 0.0000e+00
      0.122    12.0759     5.3402     49.616  28.290104     38.142      7.033   272.2953     0.8654     3.3072     0.0206     -0.004      0.120      0.174        150 6.6919e+02 0.0000e+00
      0.122    12.0721     5.3307     49.525  28.292083     38.146      7.032   271.8410     0.9058     3.3475     0.0206     -0.003      0.120      0.174        151 9.6818e+02 0.0000e+00
      0.122    12.0682     5.3330     49.544  28.290117     38.150      7.029   272.2195     0.8735     3.2401     0.0206     -0.002      0.120      0.174        152 7.2522e+02 0.0000e+00
      0.123    12.0658     5.3236     49.455  28.292552     38.154      7.028   271.9545     0.8654     3.1998     0.0206     -0.001      0.121      0.177        153 6.0249e+02 0.0000e+00
      0.128    12.0651     5.3041     49.273  28.289055     38.158      7.030   273.6581     0.8694     3.2938     0.0206      0.001      0.125      0.183        154 7.4654e+02 0.0000e+00
      0.134    12.0631     5.2815     49.065  28.294471     38.161      7.024   273.5067     0.8654     3.2938     0.0206      0.003      0.129      0.189        155 5.9980e+02 0.0000e+00
      0.135    12.0598     5.2738     48.994  28.285813     38.161      7.026   272.4467     0.8856     3.2670     0.0206      0.006      0.132      0.192        156 6.9337e+02 0.0000e+00
      0.136    12.0569     5.2611     48.876  28.240533     38.088      7.023   272.2953     0.8694     3.2535     0.0206      0.008      0.134      0.194        157 9.2859e+02 0.0000e+00
      0.136    12.0549     5.2524     48.792  28.291526     38.167      7.022   272.1438     0.8815     3.2804     0.0206      0.009      0.134      0.194        158 6.0084e+02 0.0000e+00
      0.136    12.0536     5.2517     48.780  28.340949     38.245      7.019   272.7874     0.8775     3.3072     0.0207      0.009      0.134      0.194        159 9.6240e+02 0.0000e+00
      0.136    12.0518     5.2418     48.685  28.297621     38.172      7.017   274.2260     0.9462     3.2535     0.0206      0.008      0.134      0.194        160 1.3068e+03 0.0000e+00
      0.137    12.0496     5.2365     48.635  28.286151     38.173      7.015   273.9988     0.9665     3.3475     0.0206      0.006      0.134      0.195        161 1.0377e+03 0.0000e+00
      0.137    12.0477     5.2375     48.642  28.295927     38.175      7.014   273.9610     0.9503     3.2670     0.0206      0.003      0.134      0.195        162 7.2384e+02 0.0000e+00
      0.136    12.0463     5.2396     48.659  28.285454     38.177      7.013   274.0367     0.9462     3.3207     0.0206      0.001      0.134      0.194        163 7.8745e+02 0.0000e+00
      0.135    12.0458     5.2310     48.578  28.239889     38.104      7.010   273.6581     1.0271     3.2938     0.0206      0.000      0.133      0.193        164 1.3585e+03 0.0000e+00
      0.133    12.0469     5.2222     48.495  28.234041     38.105      7.007   274.1503     1.0069     3.2401     0.0206     -0.001      0.130      0.190        165 7.1795e+02 0.0000e+00
      0.130    12.0481     5.2102     48.381  28.233436     38.106      7.004   273.4688     1.0271     3.3072     0.0206     -0.002      0.127      0.185        166 5.4608e+02 0.0000e+00
      0.126    12.0475     5.2048     48.330  28.240641     38.104      7.001   274.3396     0.9907     3.3744     0.0206     -0.004      0.124      0.180        167 5.7101e+02 0.0000e+00
      0.123    12.0446     5.1938     48.224  28.284369     38.179      6.999   273.0903     0.9948     3.3610     0.0206     -0.007      0.121      0.176        168 5.4747e+02 0.0000e+00
      0.122    12.0405     5.1875     48.163  28.297611     38.179      6.995   273.1660     0.9948     3.3610     0.0206     -0.008      0.120      0.175        169 5.9274e+02 0.0000e+00
      0.123    12.0376     5.1776     48.071  28.283460     38.182      6.989   273.5824     1.0069     3.3475     0.0206     -0.009      0.121      0.176        170 6.3556e+02 0.0000e+00
      0.128    12.0366     5.1564     47.912  28.242684     38.111      6.990   272.5981     1.0109     3.3207     0.0206     -0.007      0.125      0.181        171 1.1858e+03 0.0000e+00
      0.132    12.0349     5.1551     47.971  28.229765     38.114      6.985   272.4845     1.0271     3.3878     0.0206     -0.003      0.128      0.186        172 8.3170e+02 0.0000e+00
      0.133    12.0322     5.2270     48.690  28.240243     38.115      6.983   273.9610     0.9988     3.2267     0.0206      0.000      0.129      0.188        173 8.3885e+02 0.0000e+00
      0.132    12.0309     5.4198     50.514  28.288941     38.192      6.980   272.5224     1.0271     3.3475     0.0206      0.003      0.128      0.187        174 1.0892e+03 0.0000e+00
      0.129    12.0299     5.7756     53.847  28.287753     38.195      6.981   272.7117     1.0109     3.4147     0.0206      0.004      0.126      0.184        175 7.3813e+02 0.0000e+00
      0.127    12.0285     6.1918     57.736  28.241721     38.121      6.978   272.6360     1.0029     3.1998     0.0206      0.004      0.124      0.181        176 5.7380e+02 0.0000e+00
      0.127    12.0259     6.6387     61.903  28.227634     38.122      6.981   272.7117     1.0109     3.5087     0.0206      0.002      0.124      0.180        177 6.5353e+02 0.0000e+00
      0.127    12.0239     7.0694     65.917  28.245987     38.124      6.979   272.8631     1.0312     3.5758     0.0206      0.000      0.124      0.180        178 6.1731e+02 0.0000e+00
      0.127    12.0209     7.4667     69.621  28.278179     38.201      6.978   272.9388     0.9988     3.4550     0.0206     -0.002      0.124      0.180        179 6.7059e+02 0.0000e+00
      0.128    12.0218     7.7825     72.568  28.246871     38.129      6.979   274.7181     0.9867     3.5758     0.0206     -0.003      0.125      0.181        180 6.6198e+02 0.0000e+00
      0.128    12.0571     7.9854     74.463  28.284951     38.206      6.976   274.2260     1.0797     3.2535     0.0206     -0.002      0.126      0.182        181 6.7843e+02 0.0000e+00
      0.129    12.1199     8.0986     75.520  28.349382     38.282      6.980   274.6424     1.0797     3.2267     0.0207     -0.001      0.126      0.183        182 4.7054e+02 0.0000e+00
      0.130    12.1665     8.1128     75.656  28.344573     38.245      6.978   274.4910     1.1080     3.3207     0.0207      0.001      0.127      0.185        183 7.6994e+02 0.0000e+00
      0.132    12.1908     8.0975     75.514  28.350219     38.179      6.978   274.4531     1.0352     3.3072     0.0207      0.002      0.128      0.186        184 8.0224e+02 0.0000e+00
      0.131    12.2049     8.0554     75.123  28.342336     38.132      6.978   274.2260     1.0029     3.3744     0.0207      0.002      0.127      0.185        185 1.3254e+03 0.0000e+00
      0.128    12.2107     8.0112     74.709  28.354366     38.107      6.976   274.3396     0.9826     3.2804     0.0207      0.002      0.125      0.182        186 2.3288e+03 0.0000e+00
      0.125    12.2106     7.9495     74.133  28.394533     38.168      6.974   274.8696     1.0029     3.2938     0.0207      0.000      0.123      0.178        187 1.2897e+03 0.0000e+00
      0.123    12.2095     7.8970     73.642  28.351640     38.087      6.976   274.5667     0.9826     3.2535     0.0207     -0.002      0.121      0.177        188 8.1395e+02 0.0000e+00
      0.124    12.2091     7.8528     73.223  28.348448     38.087      6.972   274.5288     1.0635     3.2938     0.0207     -0.003      0.121      0.177        189 1.3022e+03 0.0000e+00
      0.125    12.2105     7.8037     72.760  28.398504     38.163      6.973   274.6803     1.0797     3.2804     0.0207     -0.004      0.122      0.178        190 1.6114e+03 0.0000e+00
      0.125    12.2126     7.7646     72.394  28.348643     38.089      6.973   274.8696     1.0716     3.3610     0.0207     -0.004      0.123      0.178        191 8.5679e+02 0.0000e+00
      0.126    12.2137     7.7249     72.023  28.351204     38.087      6.972   274.6046     1.0595     3.2938     0.0207     -0.003      0.124      0.180        192 6.4567e+02 0.0000e+00
      0.130    12.2149     7.6894     71.692  28.395315     38.160      6.972   274.7938     1.0716     3.3610     0.0207     -0.001      0.126      0.183        193 1.3775e+03 0.0000e+00
      0.131    12.2163     7.6648     71.463  28.353042     38.084      6.971   274.6424     1.0797     3.2938     0.0207      0.002      0.128      0.186        194 1.3633e+03 0.0000e+00
      0.131    12.2169     7.6423     71.253  28.344514     38.083      6.970   274.6803     1.0878     3.3475     0.0207      0.004      0.128      0.186        195 1.1596e+03 0.0000e+00
      0.131    12.2161     7.6309     71.146  28.346631     38.081      6.971   275.0588     1.0716     3.2535     0.0207      0.005      0.129      0.186        196 8.7648e+02 0.0000e+00
      0.131    12.2156     7.6157     71.003  28.350409     38.080      6.969   275.0588     1.0554     3.3610     0.0207      0.004      0.129      0.186        197 7.1331e+02 0.0000e+00
      0.130    12.2142     7.6026     70.880  28.339812     38.081      6.971   274.9074     1.1080     3.3744     0.0207      0.003      0.128      0.185        198 9.1670e+02 0.0000e+00
      0.129    12.2103     7.6006     70.860  28.359817     38.082      6.972   275.1724     1.1242     3.3475     0.0207      0.002      0.127      0.184        199 9.6240e+02 0.0000e+00
      0.128    12.2072     7.5907     70.764  28.384810     38.158      6.969   275.1724     1.1565     3.2401     0.0207      0.000      0.126      0.183        200 7.0879e+02 0.0000e+00
      0.129    12.2063     7.5843     70.701  28.308711     38.012      6.967   275.3617     1.1484     3.2938     0.0206     -0.001      0.126      0.183        201 6.6052e+02 0.0000e+00
      0.130    12.2061     7.5776     70.636  28.335929     38.091      6.967   275.2103     1.0756     3.4012     0.0207     -0.001      0.127      0.184        202 6.0432e+02 0.0000e+00
      0.131    12.2060     7.5717     70.580  28.350938     38.092      6.966   275.5510     1.0756     3.3610     0.0207     -0.001      0.129      0.186        203 7.7361e+02 0.0000e+00
      0.131    12.2057     7.5646     70.516  28.349330     38.092      6.965   275.3238     1.0676     3.3475     0.0207     -0.000      0.129      0.187        204 7.1039e+02 0.0000e+00
      0.132    12.2058     7.5704     70.567  28.337929     38.092      6.964   275.7403     1.0554     3.3744     0.0207      0.001      0.130      0.188        205 7.7094e+02 0.0000e+00
      0.134    12.2056     7.5703     70.555  28.305830     38.017      6.965   275.6267     1.0514     3.2267     0.0206      0.002      0.131      0.191        206 9.3335e+02 0.0000e+00
      0.137    12.2048     7.5677     70.526  28.329982     38.092      6.963   275.4374     1.0392     3.3072     0.0207      0.004      0.133      0.194        207 6.8095e+02 0.0000e+00
      0.137    12.2047     7.5698     70.552  28.307872     38.017      6.963   275.7781     1.0999     3.3207     0.0206      0.005      0.134      0.195        208 7.3676e+02 0.0000e+00
      0.136    12.2037     7.5631     70.498  28.333345     38.093      6.961   276.2324     1.0716     3.4550     0.0207      0.004      0.133      0.194        209 7.8892e+02 0.0000e+00
      0.134    12.2009     7.5629     70.501  28.357578     38.093      6.960   274.9074     1.0716     3.5221     0.0207      0.003      0.132      0.192        210 6.8179e+02 0.0000e+00
      0.135    12.1987     7.5634     70.516  28.337011     38.094      6.959   275.8538     1.0635     3.5087     0.0207      0.002      0.132      0.192        211 5.7947e+02 0.0000e+00
      0.135    12.1972     7.5581     70.480  28.299644     38.022      6.955   275.9674     1.0837     3.5758     0.0206      0.002      0.132      0.191        212 5.9016e+02 0.0000e+00
      0.131    12.1969     7.5479     70.399  28.344786     38.099      6.955   274.7938     1.0514     3.5221     0.0207     -0.001      0.132      0.191        213 6.8439e+02 0.0000e+00
      0.135    12.1982     7.5409     70.347  28.340131     38.101      6.958   274.5288     0.9745     3.5490     0.0207     -0.001      0.137      0.199        214 7.0633e+02 0.0000e+00
      0.152    12.1959     7.5323     70.271  28.246140     37.951      6.952   274.6424     0.9907     3.4550     0.0206      0.003      0.150      0.218        215 5.7098e+02 0.0000e+00
      0.171    12.1895     7.5274     70.213  28.283866     38.025      6.945   274.5667     1.0473     3.5087     0.0206      0.012      0.164      0.238        216 8.9635e+02 0.0000e+00
      0.179    12.1863     7.5251     70.177  28.293181     38.027      6.931   274.8317     1.0069     3.5087     0.0206      0.021      0.169      0.245        217 7.2316e+02 0.0000e+00
      0.167    12.1899     7.5204     70.125  28.234549     37.959      6.901   274.4153     1.0029     3.5221     0.0206      0.023      0.155      0.225        218 8.2923e+02 0.0000e+00
      0.128    12.1952     7.5231     70.150  28.297540     38.037      6.884   274.4531     1.1363     3.5221     0.0206      0.013      0.120      0.174        219 1.2499e+03 0.0000e+00
      0.075    12.1990     7.5283     70.206  28.333384     38.108      6.887   274.0746     1.1403     3.4415     0.0207     -0.011      0.072      0.104        220 1.0430e+03 0.0000e+00
      0.019    12.2051     7.5332     70.271  28.308532     38.027      6.891   273.8096     1.1363     3.5624     0.0206     -0.045      0.018      0.026        221 1.0654e+03 0.0000e+00
     -0.038    12.2132     7.5307     70.294  28.328466     38.099      6.896   273.9610     1.1727     3.6027     0.0207     -0.087     -0.036     -0.052        222 6.9325e+02 0.0000e+00
     -0.091    12.2221     7.5248     70.293  28.308575     38.017      6.902   273.6581     1.0109     3.2267     0.0206     -0.132     -0.084     -0.122        223 1.2073e+03 0.0000e+00
     -0.130    12.2306     7.5074     70.170  28.333284     38.084      6.916   273.3931     1.0029     3.3610     0.0207     -0.166     -0.119     -0.172        224 1.3505e+03 0.0000e+00
     -0.142    12.2330     7.5025     70.149  28.357010     38.075      6.913   273.6581     1.0352     3.2938     0.0207     -0.178     -0.132     -0.191        225 1.2702e+03 0.0000e+00
     -0.131    12.2261     7.4878     70.025  28.338339     38.067      6.906   273.7338     1.0190     3.3207     0.0207     -0.165     -0.124     -0.180        226 1.4925e+03 0.0000e+00
     -0.105    12.2167     7.4792     69.951  28.356515     38.064      6.908   273.3174     0.8168     3.2938     0.0207     -0.128     -0.107     -0.155        227 1.4784e+03 0.0000e+00
     -0.092    12.2116     7.4632     69.808  28.334392     38.071      6.899   273.4310     0.7764     3.3341     0.0207     -0.084     -0.096     -0.140        228 1.5520e+03 0.0000e+00
     -0.096    12.2113     7.4475     69.659  28.306577     38.006      6.892   275.4374     0.8128     3.3475     0.0206     -0.043     -0.101     -0.148        229 1.4972e+03 0.0000e+00
     -0.121    12.2156     7.4363     69.545  28.331835     38.086      6.896   276.4974     0.8249     3.3475     0.0207     -0.015     -0.126     -0.183        230 1.2985e+03 0.0000e+00
     -0.165    12.2288     7.4420     69.588  28.302960     38.011      6.894   276.0431     0.8290     3.2670     0.0206     -0.009     -0.173     -0.251        231 7.9823e+02 0.0000e+00
     -0.245    12.2574     7.4491     69.643  28.283215     38.007      6.893   275.8917     0.8007     3.3207     0.0206     -0.032     -0.244     -0.354        232 7.7592e+02 0.0000e+00
     -0.338    12.2909     7.4581     69.711  28.356405     38.069      6.880   273.1660     0.8047     3.3341     0.0207     -0.083     -0.323     -0.468        233 6.1048e+02 0.0000e+00
     -0.406    12.3156     7.4593     69.703  28.389759     38.114      6.884   275.5131     0.8290     3.3878     0.0207     -0.142     -0.381     -0.553        234 5.1458e+02 0.0000e+00
     -0.424    12.3316     7.4627     69.714  28.360288     38.005      6.890   275.5510     0.8249     1.7362     0.0207     -0.185     -0.401     -0.581        235 8.2313e+02 0.0000e+00
     -0.397    12.3401     7.4671     69.731  28.393070     38.054      6.896   274.9831     0.8371     1.6690     0.0207     -0.193     -0.383     -0.556        236 1.1164e+03 0.0000e+00
     -0.353    12.3443     7.4592     69.627  28.408249     38.038      6.904   274.9074     0.8088     1.6422     0.0207     -0.166     -0.348     -0.505        237 5.7905e+02 0.0000e+00
     -0.318    12.3484     7.4466     69.485  28.400687     38.029      6.909   273.4310     0.8047     1.6825     0.0207     -0.114     -0.310     -0.450        238 4.8728e+02 0.0000e+00
     -0.278    12.3473     7.4335     69.345  28.402479     38.026      6.906   274.9453     0.8209     1.6556     0.0207     -0.045     -0.269     -0.390        239 1.2640e+03 0.0000e+00
     -0.226    12.3411     7.4330     69.313  28.406018     38.021      6.902   273.8474    -1.8883     2.2867     0.0207      0.033     -0.221     -0.321        240 1.6870e+03 0.0000e+00
     -0.171    12.3347     7.4247     69.209  28.396281     38.022      6.894   271.9924    -1.9207     2.2330     0.0207      0.103     -0.173     -0.251        241 1.5598e+03 0.0000e+00
     -0.132    12.3273     7.4352     69.288  28.355300     37.954      6.886   272.0303    -1.8803     2.3539     0.0207      0.149     -0.138     -0.199        242 9.3556e+02 0.0000e+00
     -0.118    12.3172     7.4367     69.292  28.397724     38.035      6.877   271.8031    -1.8843     2.3136     0.0207      0.162     -0.118     -0.172        243 1.6555e+03 0.0000e+00
     -0.110    12.3052     7.4506     69.416  28.402785     38.043      6.875   271.7274     0.7926     3.2670     0.0207      0.153     -0.109     -0.158        244 1.3440e+03 0.0000e+00
     -0.106    12.2920     7.4665     69.560  28.349004     37.978      6.876   272.0681     0.8128     3.2401     0.0207      0.133     -0.100     -0.145        245 6.9744e+02 0.0000e+00
     -0.089    12.2764     7.4791     69.673  28.346064     37.990      6.885   271.6895     0.8249     3.3610     0.0207      0.112     -0.083     -0.120        246 9.0406e+02 0.0000e+00
     -0.058    12.2575     7.4802     69.678  28.347153     38.004      6.885   272.1438     0.8047     3.3341     0.0207      0.094     -0.054     -0.078        247 7.4914e+02 0.0000e+00
     -0.019    12.2423     7.4913     69.777  28.347655     38.020      6.890   272.3331     0.9543     3.5490     0.0207      0.083     -0.013     -0.020        248 1.0956e+03 0.0000e+00
      0.036    12.2302     7.4943     69.805  28.286149     37.964      6.887   272.4845     0.9422     3.4684     0.0206      0.086      0.038      0.056        249 7.7559e+02 0.0000e+00
      0.101    12.2135     7.4923     69.781  28.245815     37.905      6.883   272.6738     0.9503     3.5221     0.0206      0.106      0.097      0.141        250 1.0838e+03 0.0000e+00
      0.158    12.1966     7.4905     69.758  28.279265     37.991      6.878   272.9010     0.9382     3.4281     0.0206      0.137      0.153      0.222        251 1.3091e+03 0.0000e+00
      0.209    12.1845     7.4945     69.788  28.244527     37.934      6.876   273.5446     1.0190     3.5490     0.0206      0.167      0.204      0.296        252 7.7397e+02 0.0000e+00
      0.258    12.1778     7.4891     69.733  28.229755     37.951      6.874   273.8474     1.0190     3.4952     0.0206      0.190      0.250      0.362        253 5.5612e+02 0.0000e+00
      0.297    12.1742     7.4807     69.651  28.238357     37.964      6.874   273.8853     0.9988     3.5087     0.0206      0.201      0.287      0.417        254 6.0356e+02 0.0000e+00
      0.323    12.1716     7.4778     69.621  28.233828     37.970      6.872   274.4910     1.0150     3.4281     0.0206      0.198      0.313      0.454        255 8.3868e+02 0.0000e+00
      0.337    12.1691     7.4720     69.567  28.235397     37.974      6.874   274.5667     1.1606     3.5758     0.0206      0.182      0.329      0.477        256 8.6633e+02 0.0000e+00
      0.346    12.1654     7.4659     69.509  28.236407     37.977      6.870   274.9074     1.1242     3.5892     0.0206      0.155      0.338      0.490        257 2.9197e+02 0.0000e+00
      0.351    12.1632     7.4600     69.453  28.232571     37.979      6.868   274.9074     1.1403     3.5490     0.0206      0.123      0.346      0.501        258 6.3566e+02 0.0000e+00
      0.361    12.1625     7.4546     69.400  28.240171     37.983      6.873   274.9074     1.1484     3.4550     0.0206      0.095      0.358      0.519        259 1.4764e+03 0.0000e+00
      0.384    12.1598     7.4519     69.372  28.286247     38.060      6.875   275.1346     1.1363     3.5087     0.0206      0.074      0.378      0.549        260 8.6844e+02 0.0000e+00
      0.413    12.1552     7.4483     69.335  28.293824     38.061      6.877   275.3617     1.0554     3.3475     0.0206      0.063      0.407      0.591        261 6.0703e+02 0.0000e+00
      0.450    12.1510     7.4545     69.388  28.290038     38.064      6.876   276.1188     1.0999     3.2535     0.0206      0.065      0.439      0.638        262 4.3761e+02 0.0000e+00
      0.481    12.1479     7.4562     69.396  28.290959     38.069      6.869   276.6110     1.0797     3.3341     0.0206      0.074      0.468      0.679        263 2.5508e+02 0.0000e+00
      0.501    12.1454     7.4578     69.396  28.233384     37.998      6.865   276.7624     1.0514     3.3475     0.0206      0.086      0.488      0.708        264 2.7582e+02 0.0000e+00
      0.510    12.1436     7.4684     69.479  28.243100     38.001      6.866   276.8003     1.1444     3.4952     0.0206      0.093      0.500      0.726        265 3.5873e+02 0.0000e+00
      0.519    12.1432     7.4689     69.475  28.278870     38.079      6.867   276.8003     1.1444     3.4818     0.0206      0.093      0.513      0.745        266 5.1983e+02 0.0000e+00
      0.542    12.1428     7.4705     69.488  28.248165     38.005      6.870   276.9896     1.1403     3.5624     0.0206      0.090      0.532      0.772        267 3.0977e+02 0.0000e+00
      0.565    12.1419     7.4697     69.477  28.222016     38.006      6.873   276.9896     1.1120     3.5221     0.0206      0.084      0.553      0.803        268 3.2283e+02 0.0000e+00
      0.585    12.1407     7.4734     69.507  28.192820     37.931      6.875   277.0274     1.1565     3.3610     0.0206      0.077      0.574      0.833        269 2.9702e+02 0.0000e+00
      0.607    12.1389     7.4638     69.413  28.225201     38.007      6.877   277.4060     1.1606     3.2401     0.0206      0.072      0.597      0.867        270 2.6672e+02 0.0000e+00
      0.636    12.1367     7.4582     69.359  28.241015     38.008      6.876   277.4438     1.1161     3.1998     0.0206      0.074      0.625      0.907        271 3.3382e+02 0.0000e+00
      0.671    12.1337     7.4543     69.320  28.232439     38.010      6.871   277.7846     1.1323     3.3341     0.0206      0.083      0.660      0.957        272 3.2238e+02 0.0000e+00
      0.713    12.1283     7.4507     69.282  28.235875     38.012      6.866   278.1253     1.1929     3.3475     0.0206      0.098      0.698      1.012        273 2.8872e+02 0.0000e+00
      0.751    12.1191     7.4561     69.327  28.236738     38.015      6.856   278.2767     1.2253     3.3475     0.0206      0.111      0.733      1.062        274 2.9615e+02 0.0000e+00
      0.778    12.1093     7.4571     69.332  28.231365     38.021      6.848   278.8067     1.1767     3.3207     0.0206      0.119      0.759      1.102        275 3.1009e+02 0.0000e+00
      0.796    12.1040     7.4512     69.277  28.242566     38.030      6.844   279.0339     1.2010     3.2535     0.0206      0.122      0.779      1.130        276 2.4515e+02 0.0000e+00
      0.809    12.1024     7.4565     69.326  28.222805     38.041      6.843   278.7310     1.3223     3.3475     0.0206      0.119      0.798      1.157        277 2.5478e+02 0.0000e+00
      0.836    12.1003     7.4487     69.255  28.196664     37.971      6.844   279.4503     1.3506     3.3610     0.0206      0.114      0.823      1.193        278 2.9358e+02 0.0000e+00
      0.872    12.0972     7.4391     69.167  28.215803     38.048      6.842   279.3746     1.3587     3.2401     0.0206      0.110      0.852      1.235        279 2.6587e+02 0.0000e+00
      0.895    12.0948     7.4244     69.028  28.198988     37.974      6.845   279.8289     1.3506     3.3475     0.0206      0.103      0.876      1.270        280 2.5274e+02 0.0000e+00
      0.912    12.0935     7.4167     68.953  28.217590     38.053      6.845   279.3367     1.3223     3.2938     0.0206      0.095      0.894      1.297        281 2.2765e+02 0.0000e+00
      0.928    12.0915     7.4119     68.906  28.192655     37.980      6.847   279.4124     1.4840     3.5624     0.0206      0.090      0.912      1.323        282 2.0828e+02 0.0000e+00
      0.950    12.0885     7.4048     68.836  28.170727     37.981      6.853   279.5260     1.4557     3.5087     0.0206      0.088      0.933      1.354        283 2.2310e+02 0.0000e+00
      0.977    12.0854     7.4093     68.876  28.185584     37.983      6.853   279.7153     1.4396     3.5087     0.0206      0.090      0.959      1.390        284 2.0295e+02 0.0000e+00
      1.006    12.0831     7.4085     68.867  28.174166     37.986      6.852   280.2453     1.4436     3.4281     0.0206      0.092      0.984      1.426        285 1.7121e+02 0.0000e+00
      1.025    12.0825     7.4202     68.977  28.184939     37.990      6.846   279.6017     1.5326     3.3072     0.0206      0.089      1.002      1.453        286 2.1010e+02 0.0000e+00
      1.034    12.0829     7.4267     69.037  28.172178     37.992      6.844   279.7153     1.5487     3.1998     0.0206      0.083      1.014      1.471        287 2.4154e+02 0.0000e+00
      1.046    12.0837     7.4401     69.161  28.190046     37.993      6.843   280.0181     1.5326     3.3341     0.0206      0.080      1.025      1.487        288 1.7896e+02 0.0000e+00
      1.057    12.0840     7.4426     69.184  28.221999     38.068      6.844   280.3210     1.4962     3.3207     0.0206      0.075      1.036      1.502        289 1.8453e+02 0.0000e+00
      1.067    12.0830     7.4381     69.142  28.191710     37.991      6.847   280.1317     1.6539     3.5624     0.0206      0.068      1.049      1.520        290 2.3579e+02 0.0000e+00
      1.086    12.0809     7.4358     69.118  28.168443     37.991      6.852   280.6617     1.6660     3.5624     0.0206      0.061      1.065      1.544        291 1.9977e+02 0.0000e+00
      1.104    12.0783     7.4268     69.031  28.191658     37.992      6.855   280.7374     1.6539     3.5490     0.0206      0.056      1.084      1.572        292 1.6826e+02 0.0000e+00
      1.127    12.0764     7.4239     69.002  28.222116     38.070      6.859   280.3589     1.6701     3.4818     0.0206      0.055      1.106      1.604        293 1.6580e+02 0.0000e+00
      1.152    12.0748     7.4191     68.958  28.189835     37.997      6.858   280.7374     1.6458     3.5624     0.0206      0.061      1.128      1.636        294 1.5202e+02 0.0000e+00
      1.171    12.0742     7.4172     68.939  28.172538     37.999      6.859   280.7753     1.6660     3.5490     0.0206      0.068      1.147      1.664        295 1.6896e+02 0.0000e+00
      1.187    12.0743     7.4178     68.943  28.184348     38.000      6.859   281.0781     1.6498     3.5221     0.0206      0.073      1.163      1.687        296 1.7321e+02 0.0000e+00
      1.201    12.0746     7.4260     69.017  28.175137     38.001      6.854   281.4946     1.6741     3.5221     0.0206      0.076      1.176      1.706        297 1.5749e+02 0.0000e+00
      1.210    12.0746     7.4328     69.077  28.184000     38.001      6.856   281.2674     1.6175     3.5221     0.0206      0.074      1.187      1.721        298 1.8130e+02 0.0000e+00
      1.219    12.0744     7.4362     69.107  28.173318     38.001      6.856   280.8889     1.8844     3.4952     0.0206      0.068      1.199      1.739        299 1.5375e+02 0.0000e+00
      1.238    12.0739     7.4379     69.122  28.188430     38.001      6.858   281.1917     1.8197     3.6564     0.0206      0.063      1.216      1.765        300 1.3496e+02 0.0000e+00
      1.264    12.0724     7.4397     69.137  28.224489     38.076      6.856   281.3431     1.8520     3.5624     0.0206      0.060      1.240      1.800        301 1.5033e+02 0.0000e+00
      1.294    12.0706     7.4345     69.088  28.187741     38.001      6.859   281.6081     1.8803     3.5892     0.0206      0.063      1.268      1.839        302 1.2599e+02 0.0000e+00
      1.322    12.0695     7.4283     69.030  28.174868     38.003      6.855   281.8731     1.8561     3.4684     0.0206      0.070      1.292      1.873        303 1.2428e+02 0.0000e+00
      1.335    12.0692     7.4306     69.050  28.181213     38.005      6.854   281.6460     1.8803     3.5087     0.0206      0.076      1.309      1.898        304 1.3593e+02 0.0000e+00
      1.348    12.0686     7.4241     68.988  28.179845     38.006      6.852   281.7596     1.8642     3.4012     0.0206      0.080      1.326      1.923        305 1.2119e+02 0.0000e+00
      1.373    12.0674     7.4244     68.989  28.176571     38.006      6.852   281.8731     1.8601     3.5892     0.0206      0.084      1.349      1.956        306 1.1802e+02 0.0000e+00
      1.404    12.0660     7.4244     68.988  28.185288     38.007      6.849   281.9867     2.0057     3.4415     0.0206      0.088      1.377      1.997        307 1.2662e+02 0.0000e+00
      1.436    12.0645     7.4334     69.071  28.228293     38.083      6.848   282.1760     1.9814     3.5758     0.0206      0.091      1.407      2.040        308 1.1727e+02 0.0000e+00
      1.463    12.0633     7.4386     69.119  28.182350     38.009      6.843   282.3274     2.0057     3.5221     0.0206      0.093      1.433      2.078        309 1.1229e+02 0.0000e+00
      1.485    12.0625     7.4439     69.167  28.183169     38.011      6.839   282.3274     1.9652     3.5758     0.0206      0.094      1.454      2.108        310 1.1292e+02 0.0000e+00
      1.499    12.0618     7.4455     69.182  28.227275     38.088      6.835   282.6682     1.9167     3.5221     0.0206      0.095      1.471      2.133        311 1.0008e+02 0.0000e+00
      1.516    12.0614     7.4474     69.199  28.186757     38.013      6.835   282.8574     1.8965     3.5892     0.0206      0.095      1.487      2.156        312 1.0207e+02 0.0000e+00
      1.532    12.0607     7.4532     69.252  28.174296     38.014      6.835   282.5924     1.8925     3.4818     0.0206      0.092      1.502      2.179        313 1.0764e+02 0.0000e+00
      1.546    12.0597     7.4487     69.209  28.183486     38.014      6.835   282.8196     1.9450     3.4415     0.0206      0.083      1.516      2.199        314 9.7599e+01 0.0000e+00
      1.560    12.0587     7.4470     69.192  28.175320     38.015      6.833   282.8953     1.9046     3.4952     0.0206      0.074      1.530      2.219        315 9.7365e+01 0.0000e+00
      1.574    12.0579     7.4339     69.070  28.184460     38.016      6.838   282.8953     1.8884     3.4818     0.0206      0.065      1.544      2.239        316 9.2183e+01 0.0000e+00
      1.588    12.0571     7.4320     69.052  28.172113     38.017      6.839   283.1224     1.9086     3.4952     0.0206      0.060      1.556      2.257        317 9.0753e+01 0.0000e+00
      1.599    12.0566     7.4235     68.973  28.131390     37.942      6.838   283.3496     1.9329     3.6027     0.0205      0.057      1.569      2.275        318 9.2416e+01 0.0000e+00
      1.613    12.0562     7.4062     68.812  28.175843     38.019      6.839   283.4253     1.9288     3.5892     0.0206      0.055      1.583      2.295        319 8.7097e+01 0.0000e+00
      1.630    12.0558     7.4055     68.806  28.176088     38.019      6.841   283.4632     1.8844     3.5087     0.0206      0.054      1.600      2.320        320 8.7427e+01 0.0000e+00
      1.650    12.0556     7.4026     68.779  28.131086     37.944      6.840   283.5767     1.9208     3.5221     0.0205      0.056      1.619      2.348        321 8.5931e+01 0.0000e+00
      1.673    12.0552     7.4115     68.862  28.172553     38.020      6.840   283.9932     1.9127     3.5758     0.0206      0.060      1.641      2.380        322 8.4129e+01 0.0000e+00
      1.699    12.0547     7.4130     68.876  28.183780     38.020      6.840   283.6524     1.9329     3.4818     0.0206      0.066      1.665      2.415        323 8.2663e+01 0.0000e+00
      1.721    12.0541     7.4215     68.956  28.176409     38.021      6.837   284.1824     1.9046     3.4684     0.0206      0.072      1.687      2.446        324 7.8611e+01 0.0000e+00
      1.740    12.0537     7.4286     69.022  28.181726     38.021      6.833   284.0310     1.9208     3.5087     0.0206      0.078      1.706      2.474        325 7.4691e+01 0.0000e+00
      1.759    12.0534     7.4421     69.148  28.177166     38.022      6.838   284.2203     1.9208     3.4550     0.0206      0.082      1.725      2.501        326 7.4424e+01 0.0000e+00
      1.777    12.0530     7.4328     69.061  28.182085     38.022      6.834   284.1446     1.9208     3.4415     0.0206      0.083      1.741      2.526        327 7.4268e+01 0.0000e+00
      1.790    12.0529     7.4296     69.032  28.175604     38.022      6.834   284.2960     1.8965     3.5490     0.0206      0.081      1.755      2.546        328 7.1242e+01 0.0000e+00
      1.802    12.0529     7.4229     68.969  28.125935     37.948      6.838   284.1824     1.9046     3.4952     0.0205      0.076      1.768      2.565        329 7.1212e+01 0.0000e+00
      1.817    12.0533     7.4113     68.858  28.125304     37.948      6.835   284.0689     1.9369     3.6027     0.0205      0.069      1.782      2.585        330 7.2034e+01 0.0000e+00
      1.831    12.0533     7.3990     68.741  28.176389     38.023      6.835   284.5610     1.9612     3.5758     0.0206      0.064      1.795      2.605        331 6.6197e+01 0.0000e+00
      1.844    12.0532     7.3980     68.730  28.180953     38.023      6.834   284.1446     1.9167     3.5221     0.0206      0.059      1.810      2.626        332 6.5404e+01 0.0000e+00
      1.863    12.0534     7.3896     68.650  28.178920     38.022      6.836   284.5232     1.9086     3.5490     0.0206      0.058      1.828      2.651        333 6.4402e+01 0.0000e+00
      1.883    12.0537     7.3954     68.703  28.178919     38.023      6.833   284.4474     1.9208     3.5355     0.0206      0.058      1.848      2.680        334 6.1490e+01 0.0000e+00
      1.907    12.0540     7.3990     68.733  28.180955     38.022      6.833   285.0153     1.9288     3.5355     0.0206      0.062      1.869      2.710        335 6.1868e+01 0.0000e+00
      1.927    12.0541     7.4166     68.895  28.176387     38.022      6.833   284.6367     2.0057     3.4684     0.0206      0.067      1.889      2.739        336 5.8694e+01 0.0000e+00
      1.944    12.0542     7.4273     68.993  28.184604     38.022      6.833   284.8639     1.9774     3.5490     0.0206      0.071      1.908      2.766        337 5.7731e+01 0.0000e+00
      1.963    12.0545     7.4266     68.986  28.230024     38.097      6.831   284.8639     1.9774     3.4684     0.0206      0.074      1.928      2.796        338 5.6213e+01 0.0000e+00
      1.991    12.0540     7.4204     68.927  28.179158     38.022      6.828   285.1289     1.9612     3.4281     0.0206      0.079      1.953      2.832        339 5.3969e+01 0.0000e+00
      2.021    12.0521     7.4325     69.040  28.129315     37.946      6.824   285.4317     1.9127     3.4952     0.0205      0.084      1.982      2.874        340 5.3541e+01 0.0000e+00
      2.051    12.0501     7.4220     68.942  28.173461     38.022      6.820   285.7346     1.9167     3.4818     0.0206      0.089      2.010      2.915        341 5.1907e+01 0.0000e+00
      2.076    12.0491     7.4112     68.841  28.183515     38.024      6.819   285.6589     1.9127     3.5490     0.0206      0.094      2.036      2.953        342 5.1181e+01 0.0000e+00
      2.101    12.0482     7.4131     68.860  28.176101     38.026      6.818   285.6210     1.9329     3.4952     0.0206      0.098      2.062      2.991        343 4.9699e+01 0.0000e+00
      2.132    12.0468     7.3925     68.669  28.182690     38.027      6.815   286.0753     1.9127     3.6027     0.0206      0.103      2.092      3.034        344 4.7202e+01 0.0000e+00
      2.165    12.0453     7.3914     68.658  28.175316     38.028      6.811   286.1889     2.0057     3.4550     0.0206      0.109      2.122      3.079        345 4.5662e+01 0.0000e+00
      2.196    12.0441     7.3923     68.665  28.185277     38.029      6.812   285.9239     2.0016     3.4952     0.0206      0.113      2.152      3.122        346 4.3398e+01 0.0000e+00
      2.223    12.0434     7.3943     68.681  28.170294     38.031      6.810   286.4539     1.9652     3.4952     0.0206      0.114      2.178      3.160        347 4.1759e+01 0.0000e+00
      2.244    12.0431     7.3936     68.675  28.134668     37.957      6.808   286.3782     2.0097     3.5221     0.0205      0.112      2.201      3.192        348 4.0872e+01 0.0000e+00
      2.266    12.0424     7.4014     68.747  28.170317     38.033      6.809   286.3403     1.8965     3.6161     0.0206      0.109      2.223      3.225        349 3.9523e+01 0.0000e+00
      2.293    12.0419     7.4028     68.760  28.185226     38.033      6.810   286.1889     1.9288     3.3744     0.0206      0.107      2.248      3.260        350 3.8435e+01 0.0000e+00
      2.317    12.0419     7.4147     68.870  28.175411     38.034      6.807   286.3024     1.9046     3.4415     0.0206      0.104      2.273      3.296        351 3.7790e+01 0.0000e+00
      2.343    12.0420     7.4124     68.848  28.182533     38.034      6.807   286.5674     1.9046     3.5221     0.0206      0.100      2.298      3.333        352 3.6831e+01 0.0000e+00
      2.369    12.0421     7.4181     68.900  28.176364     38.034      6.805   286.1889     1.9774     3.4818     0.0206      0.098      2.323      3.369        353 3.6043e+01 0.0000e+00
      2.393    12.0423     7.4236     68.950  28.183088     38.034      6.803   286.5674     1.9855     3.5221     0.0206      0.096      2.349      3.406        354 3.5058e+01 0.0000e+00
      2.423    12.0421     7.4115     68.837  28.174165     38.034      6.803   286.6432     1.9814     3.5490     0.0206      0.098      2.375      3.444        355 3.3387e+01 0.0000e+00
      2.448    12.0411     7.4066     68.791  28.187469     38.034      6.800   286.7189     1.9733     3.4147     0.0206      0.101      2.400      3.480        356 3.2895e+01 0.0000e+00
      2.470    12.0403     7.3959     68.692  28.166532     38.034      6.797   287.1353     1.9127     3.5490     0.0206      0.101      2.421      3.510        357 3.1721e+01 0.0000e+00
      2.487    12.0400     7.3811     68.555  28.140924     37.960      6.798   287.2110     1.9288     3.6027     0.0205      0.098      2.437      3.534        358 3.1381e+01 0.0000e+00
      2.498    12.0396     7.3714     68.466  28.160040     38.036      6.798   287.1353     1.9208     3.5758     0.0206      0.092      2.450      3.553        359 3.1297e+01 0.0000e+00
      2.510    12.0394     7.3668     68.423  28.142743     37.961      6.800   287.1732     1.8965     3.5355     0.0205      0.084      2.463      3.572        360 3.0154e+01 0.0000e+00
      2.524    12.0391     7.3593     68.352  28.162452     38.037      6.797   287.4003     1.8035     3.6027     0.0206      0.076      2.477      3.592        361 3.0062e+01 0.0000e+00
      2.540    12.0388     7.3639     68.394  28.194810     38.037      6.798   287.3246     1.7995     3.4684     0.0206      0.068      2.492      3.614        362 2.9423e+01 0.0000e+00
      2.558    12.0384     7.3713     68.461  28.161770     38.037      6.800   287.4382     1.7792     3.5892     0.0206      0.062      2.507      3.638        363 2.8508e+01 0.0000e+00
      2.573    12.0376     7.3789     68.532  28.144274     37.962      6.799   287.2489     1.7671     3.4281     0.0205      0.059      2.522      3.659        364 2.8465e+01 0.0000e+00
      2.585    12.0370     7.3918     68.650  28.216585     38.113      6.801   287.5139     1.7711     3.5221     0.0206      0.057      2.533      3.674        365 2.7863e+01 0.0000e+00
      2.590    12.0369     7.4026     68.750  28.190372     38.039      6.801   287.1353     1.9288     3.2938     0.0206      0.054      2.538      3.681        366 2.7841e+01 0.0000e+00
      2.589    12.0373     7.4166     68.880  28.117599     37.964      6.798   287.3246     1.9531     3.2938     0.0205      0.050      2.538      3.682        367 2.8227e+01 0.0000e+00
      2.587    12.0379     7.4301     69.005  28.129263     37.964      6.801   287.2867     1.9208     3.1998     0.0205      0.041      2.538      3.682        368 2.7991e+01 0.0000e+00
      2.589    12.0380     7.4272     68.978  28.175856     38.039      6.803   287.0974     1.9208     3.3207     0.0206      0.031      2.542      3.688        369 2.7728e+01 0.0000e+00
      2.602    12.0376     7.4303     69.007  28.178205     38.038      6.806   287.3624     1.7954     3.2670     0.0206      0.024      2.554      3.705        370 2.7231e+01 0.0000e+00
      2.623    12.0370     7.4344     69.045  28.185635     38.038      6.807   287.4382     1.7671     3.2938     0.0206      0.023      2.574      3.734        371 2.6544e+01 0.0000e+00
      2.651    12.0363     7.4302     69.005  28.166609     38.039      6.806   287.4760     1.8075     3.3475     0.0206      0.029      2.601      3.773        372 2.4747e+01 0.0000e+00
      2.684    12.0358     7.4179     68.890  28.053644     37.851      6.803   287.9303     1.7873     3.3475     0.0205      0.043      2.633      3.819        373 2.4011e+01 0.0000e+00
      2.719    12.0353     7.4187     68.898  28.118683     37.965      6.799   288.1575     1.9774     3.6027     0.0205      0.063      2.663      3.864        374 2.3430e+01 0.0000e+00
      2.746    12.0350     7.4172     68.883  28.174613     38.041      6.791   288.3467     1.9612     3.6027     0.0206      0.083      2.688      3.899        375 2.2137e+01 0.0000e+00
      2.760    12.0347     7.4074     68.793  28.132281     37.966      6.785   288.3846     2.0057     3.4952     0.0205      0.095      2.704      3.922        376 2.2419e+01 0.0000e+00
      2.768    12.0346     7.3997     68.721  28.171364     38.041      6.781   288.0817     1.9774     3.5490     0.0206      0.098      2.713      3.934        377 2.2290e+01 0.0000e+00
      2.771    12.0346     7.3885     68.617  28.125974     37.966      6.781   287.9682     1.9046     3.4952     0.0205      0.091      2.719      3.944        378 2.1642e+01 0.0000e+00
      2.780    12.0344     7.3786     68.527  28.129473     37.966      6.779   287.7032     1.9410     3.5355     0.0205      0.078      2.727      3.956        379 2.1634e+01 0.0000e+00
      2.793    12.0343     7.3667     68.416  28.167010     38.042      6.782   288.1196     1.9450     3.6295     0.0206      0.064      2.737      3.970        380 2.1348e+01 0.0000e+00
      2.798    12.0341     7.3672     68.420  28.138556     37.966      6.784   287.9682     1.9208     3.5490     0.0205      0.050      2.747      3.983        381 2.0948e+01 0.0000e+00
      2.812    12.0337     7.3617     68.369  28.164885     38.042      6.786   288.1953     1.8884     3.4550     0.0206      0.040      2.760      4.003        382 2.0711e+01 0.0000e+00
      2.834    12.0333     7.3679     68.426  28.134246     37.967      6.788   288.0439     2.0744     3.3475     0.0205      0.039      2.780      4.033        383 2.0055e+01 0.0000e+00
      2.859    12.0331     7.3785     68.524  28.176686     38.043      6.791   288.5739     2.0461     3.3744     0.0206      0.046      2.803      4.066        384 1.9432e+01 0.0000e+00
      2.882    12.0332     7.3871     68.603  28.230659     38.119      6.788   288.4603     2.0704     3.3475     0.0206      0.055      2.825      4.098        385 1.9183e+01 0.0000e+00
      2.901    12.0333     7.3971     68.696  28.126373     37.968      6.792   288.6117     2.0340     3.3744     0.0205      0.065      2.843      4.124        386 1.8751e+01 0.0000e+00
      2.916    12.0334     7.4039     68.758  28.128581     37.968      6.793   288.6875     2.0461     3.5221     0.0205      0.071      2.856      4.143        387 1.8624e+01 0.0000e+00
      2.922    12.0337     7.4051     68.767  28.168617     38.043      6.789   288.8389     2.0663     3.5087     0.0206      0.071      2.865      4.156        388 1.8723e+01 0.0000e+00
      2.928    12.0340     7.4054     68.769  28.135846     37.967      6.790   288.6875     2.0380     3.5221     0.0205      0.069      2.875      4.170        389 1.8482e+01 0.0000e+00
      2.945    12.0340     7.4014     68.733  28.169363     38.043      6.792   288.6875     2.0542     3.5624     0.0206      0.064      2.891      4.193        390 1.7967e+01 0.0000e+00
      2.971    12.0341     7.3908     68.634  28.186201     38.042      6.794   288.9146     2.0704     3.3207     0.0206      0.060      2.915      4.228        391 1.7415e+01 0.0000e+00
      3.000    12.0337     7.3924     68.649  28.174188     38.042      6.791   289.1417     2.0299     3.3072     0.0206      0.061      2.941      4.266        392 1.6842e+01 0.0000e+00
      3.027    12.0333     7.3909     68.637  28.184315     38.042      6.788   289.1796     2.0623     3.2670     0.0206      0.066      2.965      4.301        393 1.6449e+01 0.0000e+00
      3.045    12.0329     7.3879     68.610  28.173599     38.043      6.788   289.0282     2.0704     3.2535     0.0206      0.072      2.983      4.327        394 1.6144e+01 0.0000e+00
      3.054    12.0324     7.3844     68.577  28.187523     38.043      6.784   288.9525     2.0987     3.5490     0.0206      0.077      2.994      4.343        395 1.6006e+01 0.0000e+00
      3.061    12.0322     7.3830     68.565  28.166985     38.043      6.786   288.9525     2.0785     3.5624     0.0206      0.078      3.002      4.354        396 1.6040e+01 0.0000e+00
      3.068    12.0316     7.3926     68.653  28.139861     37.968      6.785   289.0660     2.1270     3.6161     0.0205      0.073      3.010      4.366        397 1.5814e+01 0.0000e+00
      3.081    12.0306     7.3962     68.686  28.161984     38.044      6.787   289.2553     2.1149     3.5355     0.0206      0.064      3.022      4.382        398 1.5549e+01 0.0000e+00
      3.094    12.0302     7.4061     68.779  28.139455     37.969      6.788   289.0660     2.0502     3.2535     0.0205      0.054      3.034      4.400        399 1.5367e+01 0.0000e+00
      3.106    12.0302     7.4015     68.736  28.167898     38.046      6.790   288.7632     2.0461     3.2670     0.0206      0.046      3.048      4.421        400 1.5013e+01 0.0000e+00
      3.126    12.0304     7.4074     68.791  28.185882     38.046      6.788   289.0282     2.0461     3.3207     0.0206      0.044      3.068      4.450        401 1.4626e+01 0.0000e+00
      3.154    12.0306     7.4115     68.829  28.176371     38.046      6.788   289.2932     2.0623     3.3207     0.0206      0.050      3.093      4.487        402 1.4264e+01 0.0000e+00
      3.183    12.0314     7.4075     68.792  28.179737     38.046      6.788   289.7853     2.0097     3.3207     0.0206      0.061      3.119      4.523        403 1.3698e+01 0.0000e+00
      3.203    12.0320     7.3998     68.721  28.181694     38.046      6.784   289.6339     2.0623     3.2535     0.0206      0.071      3.139      4.553        404 1.3468e+01 0.0000e+00
      3.216    12.0323     7.4016     68.739  28.173936     38.045      6.782   289.5582     2.0421     3.3341     0.0206      0.078      3.156      4.578        405 1.3249e+01 0.0000e+00
      3.238    12.0325     7.4037     68.759  28.130096     37.969      6.781   289.7096     2.0825     3.3744     0.0205      0.081      3.176      4.606        406 1.2765e+01 0.0000e+00
      3.261    12.0318     7.4070     68.790  28.176956     38.044      6.785   289.6717     2.0542     3.2938     0.0206      0.084      3.197      4.637        407 1.2549e+01 0.0000e+00
      3.283    12.0316     7.4077     68.795  28.174915     38.044      6.782   289.8989     2.1027     3.5221     0.0206      0.086      3.219      4.668        408 1.2268e+01 0.0000e+00
      3.303    12.0320     7.4060     68.780  28.132634     37.969      6.779   290.0882     2.1149     3.6295     0.0205      0.084      3.239      4.697        409 1.1919e+01 0.0000e+00
      3.323    12.0322     7.4108     68.823  28.170277     38.045      6.780   290.3153     2.1310     3.4818     0.0206      0.081      3.258      4.725        410 1.1749e+01 0.0000e+00
      3.340    12.0322     7.4235     68.937  28.187366     38.044      6.777   290.1260     2.1068     3.6564     0.0206      0.079      3.273      4.748        411 1.1540e+01 0.0000e+00
      3.350    12.0324     7.4211     68.911  28.170665     38.044      6.777   290.0503     2.3696     3.2804     0.0206      0.077      3.287      4.767        412 1.1342e+01 0.0000e+00
      3.365    12.0325     7.4218     68.916  28.131765     37.969      6.779   290.0882     2.3656     3.3207     0.0205      0.074      3.303      4.790        413 1.1128e+01 0.0000e+00
      3.388    12.0325     7.4142     68.846  28.117184     37.969      6.780   290.5046     2.3696     3.2938     0.0205      0.071      3.324      4.821        414 1.0722e+01 0.0000e+00
      3.415    12.0332     7.4080     68.789  28.129514     37.968      6.779   290.2396     2.3696     3.2670     0.0205      0.071      3.350      4.859        415 1.0346e+01 0.0000e+00
      3.446    12.0337     7.4027     68.738  28.116419     37.968      6.774   290.6939     2.3736     3.4952     0.0205      0.075      3.378      4.900        416 1.0070e+01 0.0000e+00
      3.474    12.0333     7.4012     68.722  28.133480     37.968      6.774   290.8453     2.3656     3.4012     0.0205      0.081      3.405      4.939        417 9.7467e+00 0.0000e+00
      3.498    12.0331     7.4000     68.708  28.167579     38.043      6.769   291.1103     2.3656     3.5087     0.0206      0.088      3.429      4.973        418 9.5307e+00 0.0000e+00
      3.517    12.0332     7.4019     68.725  28.133281     37.967      6.772   290.7317     2.3656     3.4550     0.0205      0.094      3.449      5.003        419 9.3657e+00 0.0000e+00
      3.538    12.0325     7.4044     68.748  28.176165     38.043      6.768   290.9589     2.0582     3.4012     0.0206      0.097      3.468      5.031        420 9.0620e+00 0.0000e+00
      3.556    12.0300     7.4064     68.766  28.173507     38.043      6.769   290.5803     2.0542     3.5221     0.0206      0.096      3.485      5.056        421 8.8725e+00 0.0000e+00
      3.570    12.0275     7.4040     68.744  28.136589     37.968      6.772   290.9210     2.0623     3.5624     0.0205      0.090      3.498      5.074        422 8.9014e+00 0.0000e+00
      3.575    12.0268     7.4029     68.734  28.162815     38.046      6.768   290.5046     2.0623     3.6027     0.0206      0.080      3.504      5.083        423 8.8255e+00 0.0000e+00
      3.575    12.0271     7.4010     68.717  28.140871     37.974      6.770   290.5803     2.0340     3.5221     0.0205      0.066      3.507      5.087        424 8.7772e+00 0.0000e+00
      3.578    12.0272     7.3991     68.700  28.163898     38.050      6.772   290.9210     1.9774     3.2938     0.0206      0.052      3.511      5.092        425 8.7760e+00 0.0000e+00
      3.587    12.0260     7.3957     68.667  28.134157     37.974      6.774   290.6939     1.9733     3.3207     0.0205      0.041      3.522      5.107        426 8.5272e+00 0.0000e+00
      3.608    12.0244     7.4009     68.715  28.118586     37.974      6.773   291.0346     2.0097     3.3610     0.0205      0.037      3.539      5.132        427 8.2743e+00 0.0000e+00
      3.629    12.0234     7.4019     68.724  28.123981     37.975      6.774   291.0725     1.9976     3.4415     0.0205      0.037      3.559      5.162        428 8.1155e+00 0.0000e+00
      3.649    12.0227     7.4023     68.728  28.127445     37.977      6.772   291.4132     1.9693     3.4952     0.0205      0.041      3.580      5.193        429 7.8775e+00 0.0000e+00
      3.674    12.0223     7.4178     68.872  28.173573     38.053      6.771   291.2239     1.9693     3.5087     0.0206      0.051      3.604      5.229        430 7.5863e+00 0.0000e+00
      3.705    12.0221     7.4141     68.839  28.125872     37.978      6.768   291.3753     1.9733     3.5490     0.0205      0.065      3.633      5.269        431 7.3594e+00 0.0000e+00
      3.734    12.0225     7.4155     68.851  28.127510     37.979      6.762   291.9432     1.9652     3.5892     0.0205      0.081      3.660      5.308        432 7.1902e+00 0.0000e+00
      3.756    12.0228     7.4066     68.769  28.171534     38.055      6.755   291.7917     1.9208     3.5221     0.0206      0.091      3.683      5.341        433 7.0323e+00 0.0000e+00
      3.775    12.0230     7.4082     68.783  28.130381     37.979      6.757   292.1703     1.9288     3.4952     0.0205      0.096      3.703      5.370        434 6.8334e+00 0.0000e+00
      3.797    12.0231     7.4029     68.734  28.119427     37.978      6.754   292.0189     1.9167     3.5221     0.0205      0.096      3.723      5.400        435 6.6156e+00 0.0000e+00
      3.818    12.0226     7.3881     68.596  28.125871     37.978      6.751   292.0946     1.9086     3.5758     0.0205      0.095      3.742      5.427        436 6.5386e+00 0.0000e+00
      3.831    12.0224     7.3794     68.515  28.122364     37.978      6.751   292.2082     2.1472     3.6027     0.0205      0.091      3.756      5.448        437 6.4858e+00 0.0000e+00
      3.842    12.0221     7.3718     68.445  28.123791     37.979      6.753   291.9053     2.1755     3.4684     0.0205      0.082      3.770      5.467        438 6.3215e+00 0.0000e+00
      3.860    12.0222     7.3737     68.463  28.124094     37.979      6.757   291.9432     2.1472     3.4550     0.0205      0.074      3.785      5.489        439 6.1346e+00 0.0000e+00
      3.876    12.0226     7.3681     68.411  28.181283     38.055      6.753   292.1325     2.1512     3.5221     0.0206      0.068      3.800      5.511        440 6.0281e+00 0.0000e+00
      3.888    12.0228     7.3725     68.452  28.171214     38.054      6.758   291.9432     2.3130     3.4952     0.0206      0.064      3.812      5.528        441 5.9496e+00 0.0000e+00
      3.897    12.0228     7.3707     68.435  28.136626     37.979      6.760   291.9432     2.3049     3.5892     0.0205      0.060      3.822      5.543        442 5.8831e+00 0.0000e+00
      3.905    12.0227     7.3694     68.423  28.165031     38.054      6.760   291.8675     2.2887     3.5087     0.0206      0.054      3.832      5.558        443 5.8317e+00 0.0000e+00
      3.922    12.0226     7.3831     68.549  28.135864     37.978      6.762   292.0567     2.3090     3.5221     0.0205      0.051      3.849      5.582        444 5.6299e+00 0.0000e+00
      3.948    12.0224     7.3854     68.570  28.113628     37.978      6.764   292.0567     2.2281     3.5490     0.0205      0.054      3.871      5.613        445 5.4598e+00 0.0000e+00
      3.968    12.0222     7.3843     68.560  28.133409     37.979      6.762   292.1703     2.2483     3.6027     0.0205      0.058      3.891      5.643        446 5.3701e+00 0.0000e+00
      3.984    12.0223     7.3900     68.613  28.170542     38.054      6.760   292.3217     2.2483     3.4550     0.0206      0.060      3.908      5.668        447 5.2383e+00 0.0000e+00
      4.003    12.0224     7.3897     68.610  28.186006     38.054      6.760   292.3596     2.2443     3.5355     0.0206      0.064      3.927      5.695        448 5.1357e+00 0.0000e+00
      4.025    12.0223     7.3888     68.603  28.173461     38.054      6.759   292.3596     2.2523     3.5758     0.0206      0.070      3.947      5.725        449 5.0060e+00 0.0000e+00
      4.046    12.0224     7.3921     68.634  28.186157     38.054      6.758   293.0032     2.0946     3.5221     0.0206      0.075      3.966      5.752        450 4.9232e+00 0.0000e+00
      4.059    12.0224     7.3917     68.630  28.170208     38.054      6.754   292.7760     2.1149     3.5892     0.0206      0.077      3.982      5.775        451 4.8911e+00 0.0000e+00
      4.075    12.0224     7.3936     68.647  28.134012     37.979      6.753   292.5868     2.1270     3.5758     0.0205      0.075      4.002      5.803        452 4.7115e+00 0.0000e+00
      4.107    12.0222     7.3980     68.689  28.171905     38.054      6.753   293.1925     2.0906     3.4684     0.0206      0.075      4.028      5.842        453 4.5097e+00 0.0000e+00
      4.138    12.0219     7.3997     68.705  28.182349     38.054      6.747   293.4196     2.2402     3.5087     0.0206      0.080      4.058      5.885        454 4.4041e+00 0.0000e+00
      4.168    12.0217     7.3969     68.679  28.121015     37.979      6.744   293.5710     2.2443     3.5221     0.0205      0.087      4.087      5.928        455 4.2495e+00 0.0000e+00
      4.196    12.0216     7.4006     68.712  28.129640     37.979      6.741   293.7982     2.2362     3.4550     0.0205      0.094      4.113      5.966        456 4.1994e+00 0.0000e+00
      4.216    12.0218     7.3970     68.679  28.171615     38.055      6.738   293.8739     2.2604     3.7235     0.0206      0.098      4.134      5.997        457 4.1401e+00 0.0000e+00
      4.235    12.0220     7.3976     68.685  28.187371     38.055      6.736   293.7603     2.2968     3.6698     0.0206      0.100      4.152      6.023        458 4.0210e+00 0.0000e+00
      4.251    12.0221     7.3957     68.666  28.169328     38.055      6.740   293.3060     2.3130     3.5490     0.0206      0.100      4.167      6.044        459 4.0109e+00 0.0000e+00
      4.260    12.0223     7.3922     68.634  28.134774     37.979      6.739   293.5710     2.3090     3.5758     0.0205      0.093      4.178      6.060        460 3.9700e+00 0.0000e+00
      4.269    12.0224     7.3881     68.594  28.171078     38.055      6.739   293.1546     2.3130     3.5490     0.0206      0.080      4.186      6.071        461 3.9807e+00 0.0000e+00
      4.274    12.0224     7.3907     68.618  28.183443     38.054      6.738   293.1925     2.1472     3.3341     0.0206      0.066      4.191      6.079        462 4.0084e+00 0.0000e+00
      4.280    12.0227     7.3923     68.633  28.119386     37.979      6.741   293.2303     2.1149     3.3072     0.0205      0.053      4.198      6.089        463 3.9540e+00 0.0000e+00
      4.289    12.0229     7.3950     68.657  28.132206     37.979      6.743   293.4575     2.1189     3.3207     0.0205      0.043      4.206      6.101        464 3.9078e+00 0.0000e+00
      4.299    12.0228     7.4016     68.719  28.167490     38.054      6.743   293.5710     2.1108     3.3475     0.0206      0.037      4.216      6.115        465 3.8779e+00 0.0000e+00
      4.309    12.0223     7.4005     68.709  28.134771     37.978      6.745   293.3060     2.1027     3.4415     0.0205      0.033      4.226      6.130        466 3.8535e+00 0.0000e+00
      4.320    12.0221     7.4045     68.746  28.113627     37.978      6.748   293.5710     1.8682     3.5221     0.0205      0.032      4.240      6.150        467 3.7608e+00 0.0000e+00
      4.344    12.0221     7.4064     68.763  28.134507     37.979      6.749   293.7225     1.8803     3.5355     0.0205      0.038      4.263      6.183        468 3.5954e+00 0.0000e+00
      4.379    12.0221     7.3996     68.700  28.168083     38.055      6.743   294.1389     1.8480     3.5490     0.0206      0.049      4.293      6.226        469 3.4672e+00 0.0000e+00
      4.410    12.0216     7.3977     68.683  28.131139     37.979      6.737   294.2146     1.8439     3.6027     0.0205      0.064      4.323      6.270        470 3.3581e+00 0.0000e+00
      4.438    12.0211     7.4015     68.717  28.121188     37.979      6.733   295.0096     2.1917     3.5624     0.0205      0.078      4.348      6.306        471 3.3101e+00 0.0000e+00
      4.453    12.0206     7.3976     68.681  28.180466     38.055      6.727   294.5553     2.1836     3.5490     0.0206      0.087      4.366      6.332        472 3.2834e+00 0.0000e+00
      4.467    12.0204     7.3906     68.616  28.175960     38.056      6.729   294.4418     2.1917     3.4818     0.0206      0.092      4.382      6.356        473 3.2079e+00 0.0000e+00
      4.489    12.0204     7.3909     68.619  28.186093     38.056      6.728   294.5553     2.1553     3.5355     0.0206      0.094      4.402      6.384        474 3.1285e+00 0.0000e+00
      4.509    12.0205     7.3818     68.535  28.167857     38.056      6.730   294.7446     2.3292     3.4952     0.0206      0.092      4.422      6.413        475 3.0479e+00 0.0000e+00
      4.528    12.0206     7.3782     68.502  28.139358     37.981      6.730   294.4418     2.3049     3.6161     0.0205      0.086      4.440      6.439        476 2.9926e+00 0.0000e+00
      4.546    12.0205     7.3825     68.541  28.162262     38.056      6.730   294.8582     2.3292     3.4952     0.0206      0.079      4.455      6.461        477 2.9735e+00 0.0000e+00
      4.553    12.0206     7.3747     68.469  28.139352     37.981      6.729   294.5932     2.3130     3.5624     0.0205      0.071      4.462      6.472        478 2.9779e+00 0.0000e+00
      4.552    12.0207     7.3717     68.442  28.167869     38.056      6.732   294.6689     2.3170     3.5490     0.0206      0.062      4.466      6.477        479 2.9918e+00 0.0000e+00
      4.557    12.0205     7.3670     68.398  28.186070     38.056      6.734   294.4418     2.2968     3.5624     0.0206      0.055      4.474      6.489        480 2.9666e+00 0.0000e+00
      4.579    12.0204     7.3732     68.455  28.175999     38.056      6.733   294.8203     2.3211     3.5221     0.0206      0.050      4.493      6.516        481 2.8422e+00 0.0000e+00
      4.609    12.0203     7.3803     68.521  28.180403     38.056      6.732   295.3503     2.3211     3.4415     0.0206      0.049      4.518      6.553        482 2.7202e+00 0.0000e+00
      4.633    12.0202     7.3833     68.549  28.121293     37.981      6.727   295.5396     2.3696     3.5892     0.0205      0.053      4.543      6.589        483 2.6782e+00 0.0000e+00
      4.655    12.0204     7.3893     68.605  28.130969     37.981      6.728   295.3882     2.3494     3.5087     0.0205      0.059      4.564      6.620        484 2.6306e+00 0.0000e+00
      4.674    12.0204     7.3973     68.680  28.168362     38.057      6.728   295.0096     2.3858     3.5490     0.0206      0.067      4.583      6.648        485 2.5788e+00 0.0000e+00
      4.693    12.0205     7.4096     68.794  28.134053     37.981      6.732   295.0475     2.3979     3.5892     0.0205      0.077      4.600      6.673        486 2.5410e+00 0.0000e+00
      4.707    12.0206     7.4145     68.839  28.114369     37.981      6.727   295.4639     2.3534     3.4684     0.0205      0.083      4.613      6.690        487 2.5172e+00 0.0000e+00
      4.711    12.0207     7.4241     68.927  28.133563     37.981      6.728   295.0096     2.2321     3.5355     0.0205      0.079      4.620      6.700        488 2.5136e+00 0.0000e+00
      4.715    12.0207     7.4230     68.917  28.169464     38.056      6.728   294.7825     2.2362     3.5892     0.0206      0.068      4.625      6.708        489 2.5013e+00 0.0000e+00
      4.722    12.0208     7.4212     68.899  28.188285     38.056      6.731   295.0475     2.2483     3.4952     0.0206      0.055      4.630      6.716        490 2.4891e+00 0.0000e+00
      4.727    12.0207     7.4266     68.950  28.169437     38.056      6.732   295.2746     2.2443     3.5624     0.0206      0.044      4.635      6.723        491 2.4968e+00 0.0000e+00
      4.727    12.0207     7.4183     68.872  28.133623     37.980      6.734   295.2368     1.9693     3.4952     0.0205      0.034      4.639      6.728        492 2.4974e+00 0.0000e+00
      4.736    12.0204     7.4212     68.898  28.173558     38.056      6.737   295.0853     1.9895     3.5624     0.0206      0.026      4.650      6.744        493 2.4012e+00 0.0000e+00
      4.763    12.0206     7.4189     68.877  28.179035     38.056      6.735   295.2368     1.9693     3.5221     0.0206      0.027      4.672      6.776        494 2.3126e+00 0.0000e+00
      4.794    12.0208     7.4187     68.876  28.126808     37.981      6.733   295.5396     1.9652     3.4684     0.0205      0.036      4.698      6.814        495 2.2823e+00 0.0000e+00
      4.814    12.0207     7.4141     68.833  28.179257     38.056      6.732   295.5775     2.1472     3.5490     0.0206      0.048      4.718      6.844        496 2.2495e+00 0.0000e+00
      4.826    12.0206     7.4079     68.775  28.173059     38.056      6.728   295.6532     2.1755     3.5355     0.0206      0.058      4.734      6.867        497 2.2241e+00 0.0000e+00
      4.844    12.0203     7.4051     68.749  28.134522     37.981      6.729   295.5018     2.1957     3.5087     0.0205      0.067      4.752      6.892        498 2.1427e+00 0.0000e+00
      4.867    12.0201     7.4015     68.716  28.167919     38.056      6.730   295.7668     2.1634     3.4550     0.0206      0.075      4.773      6.921        499 2.0689e+00 0.0000e+00
      4.887    12.0197     7.3971     68.676  28.190792     38.057      6.729   295.6153     2.2402     3.4684     0.0206      0.080      4.793      6.951        500 2.0370e+00 0.0000e+00
      4.907    12.0192     7.3894     68.604  28.165353     38.057      6.729   295.7289     2.2362     3.5221     0.0206      0.081      4.812      6.979        501 1.9837e+00 0.0000e+00
      4.925    12.0190     7.3916     68.625  28.140283     37.982      6.728   296.2968     2.2645     3.5490     0.0205      0.077      4.829      7.004        502 1.9454e+00 0.0000e+00
      4.940    12.0189     7.3899     68.609  28.162697     38.057      6.728   296.1075     2.2523     3.5490     0.0206      0.073      4.846      7.029        503 1.9270e+00 0.0000e+00
      4.961    12.0189     7.3862     68.575  28.137459     37.982      6.726   296.1453     2.1715     3.4550     0.0205      0.074      4.865      7.057        504 1.8623e+00 0.0000e+00
      4.983    12.0190     7.3859     68.571  28.171691     38.058      6.723   296.5618     2.1755     3.4952     0.0206      0.076      4.885      7.085        505 1.8233e+00 0.0000e+00
      4.999    12.0190     7.3900     68.609  28.120096     37.982      6.721   296.4103     2.1634     3.5221     0.0205      0.075      4.901      7.108        506 1.7970e+00 0.0000e+00
      5.009    12.0192     7.3908     68.617  28.142373     37.982      6.723   296.4860     2.1836     3.5355     0.0205      0.072      4.912      7.125        507 1.8000e+00 0.0000e+00
      5.018    12.0191     7.3964     68.668  28.203264     38.133      6.723   296.0696     2.1796     3.5355     0.0206      0.067      4.922      7.140        508 1.7925e+00 0.0000e+00
      5.030    12.0192     7.3940     68.646  28.162909     37.982      6.725   296.3346     2.3292     3.5490     0.0205      0.062      4.937      7.161        509 1.7069e+00 0.0000e+00
      5.056    12.0194     7.3884     68.594  28.192593     38.133      6.725   296.7510     2.2968     3.4550     0.0206      0.061      4.961      7.195        510 1.6719e+00 0.0000e+00
      5.089    12.0195     7.3917     68.626  28.166323     37.982      6.722   297.0160     2.3049     3.5758     0.0205      0.065      4.990      7.237        511 1.6150e+00 0.0000e+00
      5.117    12.0195     7.3984     68.690  28.195604     38.133      6.718   297.0918     2.3211     3.5355     0.0206      0.070      5.017      7.277        512 1.5517e+00 0.0000e+00
      5.143    12.0193     7.3992     68.697  28.215450     38.057      6.716   297.1675     2.1512     3.5221     0.0206      0.078      5.042      7.313        513 1.5400e+00 0.0000e+00
      5.164    12.0194     7.3955     68.662  28.200920     38.133      6.712   297.0539     2.1755     3.5087     0.0206      0.086      5.063      7.343        514 1.5095e+00 0.0000e+00
      5.180    12.0192     7.3990     68.695  28.154391     37.982      6.715   296.9782     2.1876     3.5490     0.0205      0.092      5.079      7.366        515 1.4843e+00 0.0000e+00
      5.192    12.0191     7.4076     68.774  28.154763     38.057      6.713   297.0160     2.1715     3.4952     0.0206      0.093      5.093      7.386        516 1.4577e+00 0.0000e+00
      5.208    12.0191     7.4093     68.790  28.141161     37.982      6.718   297.1675     2.1472     3.4684     0.0205      0.088      5.109      7.410        517 1.3919e+00 0.0000e+00
      5.229    12.0189     7.4077     68.774  28.171318     38.058      6.717   296.8268     2.0825     3.5221     0.0206      0.081      5.127      7.436        518 1.3726e+00 0.0000e+00
      5.247    12.0188     7.4122     68.816  28.176529     38.058      6.719   296.8268     2.1391     3.5490     0.0206      0.074      5.145      7.462        519 1.3838e+00 0.0000e+00
      5.262    12.0191     7.4118     68.812  28.134676     37.982      6.717   296.8268     2.1189     3.5490     0.0205      0.069      5.161      7.485        520 1.3423e+00 0.0000e+00
      5.277    12.0201     7.4200     68.888  28.164107     38.058      6.721   296.9403     2.1189     3.5758     0.0206      0.066      5.176      7.506        521 1.3228e+00 0.0000e+00
      5.293    12.0207     7.4223     68.910  28.139904     37.982      6.719   297.0539     2.0785     3.4550     0.0205      0.065      5.191      7.529        522 1.3082e+00 0.0000e+00
      5.309    12.0204     7.4138     68.831  28.164797     38.057      6.721   297.1675     2.1149     3.4550     0.0206      0.065      5.208      7.553        523 1.2401e+00 0.0000e+00
      5.328    12.0203     7.3999     68.702  28.192424     38.056      6.721   297.2053     2.1027     3.4550     0.0206      0.066      5.228      7.582        524 1.1827e+00 0.0000e+00
      5.356    12.0204     7.3964     68.669  28.164818     38.056      6.720   297.2432     2.0057     3.6027     0.0206      0.068      5.253      7.620        525 1.1956e+00 0.0000e+00
      5.387    12.0203     7.3916     68.625  28.139856     37.981      6.716   297.4703     1.9652     3.4281     0.0205      0.073      5.282      7.660        526 1.1951e+00 0.0000e+00
      5.414    12.0201     7.3822     68.537  28.164194     38.056      6.712   297.5461     1.9814     3.5355     0.0206      0.081      5.308      7.699        527 1.1425e+00 0.0000e+00
      5.437    12.0198     7.3797     68.512  28.134529     37.981      6.710   297.6596     2.0178     3.4952     0.0205      0.088      5.333      7.734        528 1.0834e+00 0.0000e+00
      5.464    12.0196     7.3715     68.435  28.117478     37.981      6.709   298.0761     1.9652     3.4281     0.0205      0.095      5.358      7.771        529 1.0361e+00 0.0000e+00
      5.491    12.0195     7.3821     68.533  28.185415     38.057      6.705   297.9625     2.1755     3.5758     0.0206      0.100      5.383      7.809        530 1.0395e+00 0.0000e+00
      5.516    12.0197     7.3861     68.570  28.168576     38.057      6.705   298.4168     2.1634     3.4550     0.0206      0.103      5.408      7.844        531 9.9706e-01 0.0000e+00
      5.539    12.0198     7.3928     68.632  28.138434     37.982      6.702   297.6975     2.1836     3.5087     0.0205      0.103      5.430      7.875        532 9.5409e-01 0.0000e+00
      5.555    12.0197     7.3889     68.595  28.163628     38.057      6.700   298.1896     2.1876     3.6295     0.0206      0.099      5.447      7.900        533 9.4494e-01 0.0000e+00
      5.570    12.0195     7.3866     68.573  28.137222     37.982      6.701   297.9246     2.0380     3.5355     0.0205      0.092      5.464      7.924        534 9.1465e-01 0.0000e+00
      5.591    12.0194     7.3865     68.567  28.112001     37.982      6.701   298.2653     2.0704     3.4281     0.0205      0.087      5.484      7.954        535 9.0399e-01 0.0000e+00
      5.616    12.0196     7.3799     68.499  28.135719     37.982      6.701   298.3789     2.0461     3.6429     0.0205      0.085      5.510      7.991        536 8.6362e-01 0.0000e+00
      5.649    12.0193     7.3769     68.468  28.167001     38.057      6.698   298.5682     2.0380     3.5087     0.0206      0.085      5.541      8.036        537 8.3995e-01 0.0000e+00
      5.686    12.0186     7.3805     68.498  28.191664     38.057      6.693   299.0982     1.9248     3.5221     0.0206      0.090      5.575      8.085        538 8.2964e-01 0.0000e+00
      5.718    12.0178     7.3869     68.554  28.164324     38.057      6.687   299.2118     1.9167     3.5087     0.0206      0.097      5.606      8.130        539 7.5620e-01 0.0000e+00
      5.746    12.0172     7.3968     68.645  28.141730     37.983      6.685   299.4011     1.9086     3.5490     0.0205      0.105      5.633      8.170        540 7.2814e-01 0.0000e+00
      5.769    12.0172     7.4025     68.697  28.160487     38.059      6.684   299.3253     1.9127     3.5490     0.0206      0.112      5.658      8.206        541 7.4762e-01 0.0000e+00
      5.793    12.0168     7.4046     68.716  28.140981     37.984      6.684   299.4768     2.0380     3.5087     0.0205      0.115      5.683      8.243        542 7.1500e-01 0.0000e+00
      5.824    12.0165     7.4046     68.716  28.166004     38.060      6.681   299.1739     2.0704     3.5490     0.0206      0.115      5.713      8.287        543 6.7822e-01 0.0000e+00
      5.861    12.0159     7.4001     68.674  28.129347     37.985      6.680   299.7796     2.0502     3.4684     0.0205      0.116      5.749      8.338        544 6.6350e-01 0.0000e+00
      5.903    12.0127     7.3930     68.609  28.127305     37.985      6.674   300.3475     2.0704     3.4952     0.0205      0.118      5.787      8.394        545 6.5284e-01 0.0000e+00
      5.940    12.0087     7.3823     68.509  28.168545     38.061      6.669   300.3853     2.1108     3.5490     0.0206      0.121      5.823      8.446        546 6.1534e-01 0.0000e+00
      5.970    12.0063     7.3809     68.497  28.137321     37.989      6.667   300.4989     2.1108     3.5221     0.0205      0.126      5.856      8.493        547 5.8518e-01 0.0000e+00
      6.004    12.0044     7.3748     68.440  28.166164     38.068      6.667   300.6503     2.0946     3.4550     0.0206      0.131      5.887      8.539        548 5.6786e-01 0.0000e+00
      6.037    12.0028     7.3714     68.408  28.191948     38.071      6.665   300.2339     2.1553     3.5221     0.0206      0.136      5.917      8.581        549 5.3111e-01 0.0000e+00
      6.058    12.0016     7.3683     68.379  28.164532     38.073      6.665   300.0825     2.1310     3.5758     0.0206      0.134      5.938      8.612        550 5.3089e-01 0.0000e+00
      6.070    12.0010     7.3681     68.376  28.140990     37.999      6.668   299.9689     2.1917     3.5087     0.0205      0.125      5.951      8.632        551 5.2083e-01 0.0000e+00
      6.078    12.0010     7.3752     68.441  28.161951     38.076      6.671   299.8175     2.1755     3.4684     0.0206      0.109      5.962      8.648        552 5.1755e-01 0.0000e+00
      6.093    12.0009     7.3747     68.438  28.138445     38.001      6.675   299.9689     2.1634     3.4952     0.0205      0.093      5.975      8.667        553 5.1382e-01 0.0000e+00
      6.110    12.0009     7.3764     68.455  28.170242     38.076      6.678   299.8175     2.1755     3.5355     0.0206      0.080      5.990      8.688        554 5.0474e-01 0.0000e+00
      6.121    12.0010     7.3831     68.518  28.181678     38.076      6.680   299.7039     1.9288     3.6161     0.0206      0.069      6.002      8.705        555 5.1458e-01 0.0000e+00
      6.130    12.0010     7.3851     68.536  28.124214     38.001      6.681   299.9689     1.9288     3.4684     0.0205      0.058      6.014      8.723        556 4.9180e-01 0.0000e+00
      6.148    12.0011     7.3950     68.628  28.123162     38.001      6.682   299.7418     1.9167     3.5490     0.0205      0.052      6.032      8.749        557 4.9433e-01 0.0000e+00
      6.176    12.0011     7.4037     68.710  28.182986     38.076      6.681   299.9689     1.9127     3.4952     0.0206      0.055      6.056      8.784        558 4.8500e-01 0.0000e+00
      6.201    12.0010     7.4079     68.749  28.227652     38.152      6.682   300.2339     1.9208     3.5624     0.0206      0.062      6.080      8.819        559 4.6589e-01 0.0000e+00
      6.223    12.0005     7.3994     68.670  28.186169     38.076      6.679   300.3475     1.9531     3.4818     0.0206      0.070      6.104      8.853        560 4.7551e-01 0.0000e+00
      6.249    12.0000     7.3966     68.645  28.175315     38.076      6.678   299.9689     1.8925     3.4415     0.0206      0.076      6.127      8.886        561 4.5878e-01 0.0000e+00
      6.269    11.9999     7.3942     68.624  28.181862     38.077      6.677   300.4611     1.9127     3.4952     0.0206      0.083      6.147      8.914        562 4.2583e-01 0.0000e+00
      6.284    12.0003     7.3880     68.568  28.178023     38.077      6.679   300.3096     1.9733     3.4818     0.0206      0.086      6.163      8.938        563 4.3874e-01 0.0000e+00
      6.300    12.0012     7.3904     68.593  28.180096     38.077      6.679   300.2339     1.9935     3.6027     0.0206      0.087      6.176      8.958        564 4.5661e-01 0.0000e+00
      6.309    12.0016     7.3849     68.546  28.179283     38.077      6.680   300.0068     1.9895     3.5221     0.0206      0.080      6.187      8.973        565 4.3383e-01 0.0000e+00
      6.317    12.0019     7.3836     68.534  28.119737     38.001      6.680   299.8175     1.9733     3.4952     0.0205      0.070      6.199      8.991        566 4.4522e-01 0.0000e+00
      6.337    12.0017     7.3836     68.533  28.135607     38.000      6.682   300.1582     1.9774     3.3475     0.0205      0.064      6.219      9.019        567 4.3171e-01 0.0000e+00
      6.368    12.0018     7.3902     68.593  28.159534     38.075      6.680   300.4989     2.0016     3.3610     0.0206      0.063      6.245      9.057        568 4.0968e-01 0.0000e+00
      6.397    12.0024     7.3937     68.626  28.149257     38.000      6.677   300.5368     1.9612     3.2938     0.0205      0.066      6.271      9.096        569 3.9374e-01 0.0000e+00
      6.419    12.0025     7.3960     68.647  28.148396     38.075      6.676   300.6125     2.0057     3.3744     0.0206      0.072      6.296      9.132        570 3.8615e-01 0.0000e+00
      6.446    12.0027     7.3960     68.647  28.160605     37.999      6.673   300.8018     1.9774     3.3744     0.0205      0.081      6.324      9.172        571 3.5618e-01 0.0000e+00
      6.480    12.0037     7.3917     68.606  28.193360     38.150      6.671   301.2939     2.1796     3.5221     0.0206      0.091      6.356      9.219        572 3.3977e-01 0.0000e+00
      6.518    12.0052     7.3907     68.596  28.077987     37.886      6.667   301.2561     2.1796     3.5624     0.0205      0.104      6.392      9.271        573 3.7068e-01 0.0000e+00
      6.556    12.0069     7.3855     68.545  28.155946     38.073      6.661   301.4075     2.1553     3.5758     0.0206      0.116      6.427      9.321        574 3.1631e-01 0.0000e+00
      6.586    12.0087     7.3829     68.517  28.185285     38.072      6.657   301.5589     2.1755     3.5758     0.0206      0.122      6.456      9.364        575 3.0604e-01 0.0000e+00
      6.609    12.0090     7.3747     68.440  28.130417     37.995      6.656   301.1803     1.9855     3.4281     0.0205      0.123      6.481      9.400        576 3.1870e-01 0.0000e+00
      6.631    12.0086     7.3673     68.372  28.224228     38.144      6.657   301.3318     1.9855     3.5221     0.0206      0.122      6.503      9.432        577 3.1368e-01 0.0000e+00
      6.654    12.0081     7.3706     68.402  28.187132     38.068      6.661   301.4453     1.9491     3.5758     0.0206      0.119      6.525      9.464        578 2.9289e-01 0.0000e+00
      6.677    12.0078     7.3778     68.468  28.176582     38.069      6.664   301.2939     1.9572     3.5624     0.0206      0.113      6.549      9.499        579 3.0461e-01 0.0000e+00
      6.706    12.0078     7.3834     68.520  28.178060     38.069      6.663   301.5589     1.9127     3.5221     0.0206      0.106      6.575      9.537        580 3.1751e-01 0.0000e+00
      6.732    12.0075     7.3952     68.628  28.185292     38.069      6.658   301.5968     1.9208     3.6295     0.0206      0.100      6.601      9.574        581 2.8673e-01 0.0000e+00
      6.755    12.0072     7.4061     68.729  28.167583     38.069      6.657   301.7861     1.9450     3.4952     0.0206      0.096      6.626      9.611        582 2.8478e-01 0.0000e+00
      6.784    12.0065     7.4135     68.797  28.140805     37.994      6.657   301.6725     1.9410     3.5087     0.0205      0.097      6.655      9.652        583 2.6187e-01 0.0000e+00
      6.820    12.0047     7.4304     68.953  28.159321     38.070      6.654   302.1646     1.7388     3.4684     0.0206      0.102      6.687      9.698        584 2.6653e-01 0.0000e+00
      6.851    12.0028     7.4279     68.930  28.144539     37.995      6.652   302.2782     1.7388     3.5758     0.0205      0.107      6.718      9.743        585 2.8885e-01 0.0000e+00
      6.880    12.0019     7.4348     68.993  28.159202     38.072      6.652   302.0889     1.7307     3.5490     0.0206      0.112      6.745      9.782        586 2.8948e-01 0.0000e+00
      6.902    12.0017     7.4329     68.975  28.141075     37.999      6.649   302.2782     1.7428     3.5221     0.0205      0.113      6.768      9.816        587 2.7518e-01 0.0000e+00
      6.921    12.0017     7.4315     68.961  28.167097     38.075      6.652   302.2403     1.5851     3.4952     0.0206      0.110      6.789      9.846        588 2.5730e-01 0.0000e+00
      6.945    12.0013     7.4216     68.870  28.186113     38.076      6.651   302.1646     1.6013     3.5221     0.0206      0.108      6.812      9.880        589 2.3103e-01 0.0000e+00
      6.973    12.0009     7.4176     68.833  28.176706     38.076      6.647   302.4296     1.6094     3.5490     0.0206      0.105      6.837      9.916        590 2.2171e-01 0.0000e+00
      6.996    12.0005     7.4068     68.733  28.178805     38.076      6.644   302.1646     1.5932     3.5087     0.0206      0.101      6.859      9.949        591 2.1795e-01 0.0000e+00
      7.016    12.0001     7.3975     68.646  28.183501     38.076      6.647   302.5432     1.5851     3.4684     0.0206      0.095      6.879      9.977        592 2.1985e-01 0.0000e+00
      7.032    11.9998     7.3922     68.596  28.170861     38.077      6.644   302.5054     1.6013     3.6161     0.0206      0.090      6.898     10.004        593 2.2327e-01 0.0000e+00
      7.055    11.9995     7.3909     68.584  28.135240     38.002      6.644   302.6568     1.5973     3.5758     0.0205      0.087      6.921     10.039        594 2.1002e-01 0.0000e+00
      7.087    11.9992     7.3943     68.616  28.168537     38.078      6.643   302.9596     1.5892     3.5490     0.0206      0.089      6.952     10.084        595 2.0530e-01 0.0000e+00
      7.128    11.9990     7.3954     68.627  28.188722     38.078      6.640   303.3382     1.6013     3.5624     0.0206      0.095      6.990     10.138        596 2.2043e-01 0.0000e+00
      7.168    11.9986     7.3960     68.632  28.169417     38.078      6.633   303.3761     1.5771     3.5490     0.0206      0.103      7.028     10.193        597 2.2555e-01 0.0000e+00
      7.204    11.9984     7.3974     68.645  28.133264     38.003      6.632   303.6411     1.5973     3.4684     0.0205      0.112      7.062     10.242        598 2.0016e-01 0.0000e+00
      7.230    11.9985     7.4011     68.679  28.115121     38.003      6.630   303.4896     1.6215     3.4818     0.0205      0.121      7.087     10.279        599 1.8372e-01 0.0000e+00
      7.247    11.9984     7.4060     68.725  28.132702     38.003      6.631   302.8082     1.6094     3.5087     0.0205      0.124      7.107     10.308        600 1.6541e-01 0.0000e+00
      7.266    11.9982     7.3989     68.659  28.170682     38.079      6.631   302.8461     1.4436     3.4684     0.0206      0.123      7.127     10.337        601 1.6936e-01 0.0000e+00
      7.289    11.9981     7.3953     68.625  28.127152     38.004      6.635   302.7704     1.4598     3.5221     0.0205      0.116      7.148     10.367        602 1.8574e-01 0.0000e+00
      7.311    11.9982     7.3939     68.612  28.127580     38.004      6.637   302.4296     1.4396     3.4818     0.0205      0.106      7.171     10.401        603 1.8400e-01 0.0000e+00
      7.338    11.9983     7.3929     68.603  28.170150     38.079      6.638   302.9218     1.4638     3.4281     0.0206      0.096      7.196     10.437        604 1.3866e-01 0.0000e+00
      7.364    11.9983     7.3973     68.643  28.133469     38.004      6.637   302.7325     1.4396     3.5355     0.0205      0.091      7.222     10.474        605 1.3600e-01 0.0000e+00
      7.390    11.9983     7.3969     68.639  28.173229     38.079      6.634   302.8461     1.4719     3.4550     0.0206      0.090      7.248     10.512        606 1.7125e-01 0.0000e+00
      7.418    11.9982     7.3892     68.568  28.179967     38.079      6.630   303.1111     1.4517     3.5758     0.0206      0.093      7.275     10.551        607 1.4001e-01 0.0000e+00
      7.446    11.9981 -9.990e-29 -9.990e-29  28.125084     38.004      6.628   302.8082     1.4517     3.4952     0.0205      0.098      7.301     10.590        608 1.4392e-01 0.0000e+00
      7.472    11.9981 -9.990e-29 -9.990e-29  28.122936     38.004      6.628   301.8618     1.4881     3.4952     0.0205      0.102      7.325     10.625        609 1.3593e-01 0.0000e+00
      7.493    11.9979 -9.990e-29 -9.990e-29  28.123343     38.004      6.630   301.4453     1.4315     3.5221     0.0205      0.103      7.345     10.654        610 1.2770e-01 0.0000e+00
      7.507    11.9979 -9.990e-29 -9.990e-29  28.124578     38.004      6.634   301.3696     1.4517     3.4550     0.0205      0.099      7.359     10.673        611 1.4416e-01 0.0000e+00
      7.512    11.9980 -9.990e-29 -9.990e-29  28.180695     38.079      6.638   301.4453     1.4517     3.5758     0.0206      0.091      7.366     10.683        612 1.2550e-01 0.0000e+00
      7.514    11.9978 -9.990e-29 -9.990e-29  28.172099     38.079      6.642   301.2561     1.4517     3.5221     0.0206      0.078      7.369     10.687        613 1.2714e-01 0.0000e+00
      7.517    11.9977 -9.990e-29 -9.990e-29  28.135277     38.004      6.642   301.1046     1.7307     3.4281     0.0205      0.063      7.372     10.692        614 1.2787e-01 0.0000e+00
      7.521    11.9978 -9.990e-29 -9.990e-29  28.167223     38.080      6.644   300.8018     1.7145     3.5221     0.0206      0.048      7.377     10.698        615 1.2925e-01 0.0000e+00
      7.528    11.9978 -9.990e-29 -9.990e-29  28.191639     38.080      6.648   300.5368     1.7145     3.4684     0.0206      0.035      7.383     10.707        616 1.2056e-01 0.0000e+00
      7.535    11.9977 -9.990e-29 -9.990e-29  28.164188     38.080      6.648   300.6503     1.7064     3.6295     0.0206      0.026      7.388     10.716        617 1.3395e-01 0.0000e+00
      7.540 -9.990e-29 -9.990e-29 -9.990e-29  28.142087     38.004      6.651   300.2718     1.4517     3.4684     0.0205      0.020      7.393     10.723        618 1.5198e-01 0.0000e+00
      7.542 -9.990e-29 -9.990e-29 -9.990e-29  28.159847     38.080      6.652   300.5368     1.4436     3.5221     0.0206      0.018      7.395     10.725        619 1.3728e-01 0.0000e+00
