* Sea-Bird SBE19plus  Data File:
* FileName = C:\DATA\101518_fcr_0015.hex
* Software version 2.6.3.104
* Temperature SN = 7809
* Conductivity SN = 7809
* System UpLoad Time = Oct 29 2018 16:41:02
* <ApplicationData>
* <Seaterm232>
* <SoftwareVersion>2.6.3.104</SoftwareVersion>
* <BuildDate>30-Jun-2017</BuildDate>
* </Seaterm232>
* </ApplicationData>
* <InstrumentState>
* <HardwareData DeviceType='SBE19plus' SerialNumber='01907809'>
*
*    <Manufacturer>Sea-Bird Electronics, Inc.</Manufacturer>
*
*    <FirmwareVersion>3.1.8</FirmwareVersion>
*
*    <FirmwareDate>Mar  9 2016 16:22:29</FirmwareDate>
*
*    <CommandSetVersion>1.4</CommandSetVersion>
*
*    <PCBAssembly PCBSerialNum='120721' AssemblyNum='41054J'/>
*
*    <PCBAssembly PCBSerialNum='120715' AssemblyNum='41967A'/>
*
*    <PCBAssembly PCBSerialNum='116699' AssemblyNum='41606'/>
*
*    <PCBAssembly PCBSerialNum='120719' AssemblyNum='41059D'/>
*
*    <MfgDate>28-Apr-2017</MfgDate>
*
*    <InternalSensors>
*
*       <Sensor id='Main Temperature'>
*
*          <type>temperature0</type>
*
*          <SerialNumber>01907809</SerialNumber>
*
*       </Sensor>
*
*       <Sensor id='Main Conductivity'>
*
*          <type>conductivity-0</type>
*
*          <SerialNumber>01907809</SerialNumber>
*
*       </Sensor>
*
*       <Sensor id='Main Pressure'>
*
*          <type>strain-0</type>
*
*          <SerialNumber>10586018</SerialNumber>
*
*       </Sensor>
*
*    </InternalSensors>
*
*    <ExternalSensors>
*
*       <Sensor id='volt 0'>
*
*          <type>pH</type>
*
*          <SerialNumber>27-0363</SerialNumber>
*
*       </Sensor>
*
*       <Sensor id='volt 1'>
*
*          <type>ORP</type>
*
*          <SerialNumber>27-0363</SerialNumber>
*
*       </Sensor>
*
*       <Sensor id='volt 2'>
*
*          <type>OXY</type>
*
*          <SerialNumber>43-0434</SerialNumber>
*
*       </Sensor>
*
*       <Sensor id='volt 3'>
*
*          <type>PAR</type>
*
*          <SerialNumber>1122</SerialNumber>
*
*       </Sensor>
*
*       <Sensor id='volt 4'>
*
*          <type>ECO AFL/FL</type>
*
*          <SerialNumber>FLNTURT-2496</SerialNumber>
*
*       </Sensor>
*
*       <Sensor id='volt 5'>
*
*          <type>ECO-NTU</type>
*
*          <SerialNumber>FLNTURT-2496</SerialNumber>
*
*       </Sensor>
*
*       <Sensor id='serial'>
*
*          <type>not assigned</type>
*
*          <SerialNumber>not assigned</SerialNumber>
*
*       </Sensor>
*
*    </ExternalSensors>
*
* </HardwareData>
* <StatusData DeviceType='SBE19plus' SerialNumber='01907809'>
*
*    <DateTime>2018-10-29T20:36:07</DateTime>
*
*    <LoggingState>not logging</LoggingState>
*
*    <EventSummary numEvents='0'/>
*
*    <Power>
*
*       <vMain>12.7</vMain>
*
*       <vLith>8.4</vLith>
*
*       <iMain>63.3</iMain>
*
*       <iPump>138.1</iPump>
*
*       <iExt01>14.7</iExt01>
*
*       <iExt2345>45.2</iExt2345>
*
*    </Power>
*
*    <MemorySummary>
*
*       <Bytes>262706</Bytes>
*
*       <Samples>11422</Samples>
*
*       <SamplesFree>2849366</SamplesFree>
*
*       <SampleLength>23</SampleLength>
*
*       <Profiles>17</Profiles>
*
*    </MemorySummary>
*
* </StatusData>
* <ConfigurationData DeviceType='SBE19plus' SerialNumber='01907809'>
*
*    <ProfileMode>
*
*       <ScansToAverage>1</ScansToAverage>
*
*       <MinimumCondFreq>5</MinimumCondFreq>
*
*       <PumpDelay>45</PumpDelay>
*
*       <AutoRun>no</AutoRun>
*
*       <IgnoreSwitch>no</IgnoreSwitch>
*
*    </ProfileMode>
*
*    <Battery>
*
*       <Type>alkaline</Type>
*
*       <CutOff>7.5</CutOff>
*
*    </Battery>
*
*    <DataChannels>
*
*       <ExtVolt0>yes</ExtVolt0>
*
*       <ExtVolt1>yes</ExtVolt1>
*
*       <ExtVolt2>yes</ExtVolt2>
*
*       <ExtVolt3>yes</ExtVolt3>
*
*       <ExtVolt4>yes</ExtVolt4>
*
*       <ExtVolt5>yes</ExtVolt5>
*
*       <SBE38>no</SBE38>
*
*       <WETLABS>no</WETLABS>
*
*       <OPTODE>no</OPTODE>
*
*       <SBE63>no</SBE63>
*
*       <SeaFET>no</SeaFET>
*
*       <GTD>no</GTD>
*
*    </DataChannels>
*
*    <EchoCharacters>yes</EchoCharacters>
*
*    <OutputExecutedTag>yes</OutputExecutedTag>
*
*    <OutputFormat>raw HEX</OutputFormat>
*
* </ConfigurationData>
* <CalibrationCoefficients DeviceType='SBE19plus' SerialNumber='01907809'>
*
*    <Calibration format='TEMP1' id='Main Temperature'>
*
*       <SerialNum>01907809</SerialNum>
*
*       <CalDate>09-Mar-18</CalDate>
*
*       <TA0>1.210932e-03</TA0>
*
*       <TA1>2.843566e-04</TA1>
*
*       <TA2>-1.945074e-06</TA2>
*
*       <TA3>2.128067e-07</TA3>
*
*       <TOFFSET>0.000000e+00</TOFFSET>
*
*    </Calibration>
*
*    <Calibration format='WBCOND0' id='Main Conductivity'>
*
*       <SerialNum>01907809</SerialNum>
*
*       <CalDate>09-Mar-18</CalDate>
*
*       <G>-1.006721e+00</G>
*
*       <H>1.269065e-01</H>
*
*       <I>-1.405844e-04</I>
*
*       <J>2.478371e-05</J>
*
*       <CPCOR>-9.570000e-08</CPCOR>
*
*       <CTCOR>3.250000e-06</CTCOR>
*
*       <CSLOPE>1.000000e+00</CSLOPE>
*
*    </Calibration>
*
*    <Calibration format='STRAIN0' id='Main Pressure'>
*
*       <SerialNum>10586018</SerialNum>
*
*       <CalDate>07-Mar-18</CalDate>
*
*       <PA0>-4.081764e-02</PA0>
*
*       <PA1>4.851884e-04</PA1>
*
*       <PA2>-3.511682e-12</PA2>
*
*       <PTCA0>5.252134e+05</PTCA0>
*
*       <PTCA1>1.795324e+00</PTCA1>
*
*       <PTCA2>-2.843535e-01</PTCA2>
*
*       <PTCB0>2.516687e+01</PTCB0>
*
*       <PTCB1>3.750000e-04</PTCB1>
*
*       <PTCB2>0.000000e+00</PTCB2>
*
*       <PTEMPA0>-5.378069e+01</PTEMPA0>
*
*       <PTEMPA1>5.366207e+01</PTEMPA1>
*
*       <PTEMPA2>4.872143e-02</PTEMPA2>
*
*       <POFFSET>5.000000e-01</POFFSET>
*
*       <PRANGE>1.600000e+02</PRANGE>
*
*    </Calibration>
*
*    <Calibration format='VOLT0' id='Volt 0'>
*
*       <OFFSET>-4.920000e-02</OFFSET>
*
*       <SLOPE>1.248122e+00</SLOPE>
*
*    </Calibration>
*
*    <Calibration format='VOLT0' id='Volt 1'>
*
*       <OFFSET>-4.784000e-02</OFFSET>
*
*       <SLOPE>1.248871e+00</SLOPE>
*
*    </Calibration>
*
*    <Calibration format='VOLT0' id='Volt 2'>
*
*       <OFFSET>-4.864632e-02</OFFSET>
*
*       <SLOPE>1.248714e+00</SLOPE>
*
*    </Calibration>
*
*    <Calibration format='VOLT0' id='Volt 3'>
*
*       <OFFSET>-4.743790e-02</OFFSET>
*
*       <SLOPE>1.248571e+00</SLOPE>
*
*    </Calibration>
*
*    <Calibration format='VOLT0' id='Volt 4'>
*
*       <OFFSET>-4.671263e-02</OFFSET>
*
*       <SLOPE>1.248951e+00</SLOPE>
*
*    </Calibration>
*
*    <Calibration format='VOLT0' id='Volt 5'>
*
*       <OFFSET>-4.871053e-02</OFFSET>
*
*       <SLOPE>1.249136e+00</SLOPE>
*
*    </Calibration>
*
*    <Calibration format='FREQ0' id='external frequency channel'>
*
*       <EXTFREQSF>1.000014e+00</EXTFREQSF>
*
*    </Calibration>
*
* </CalibrationCoefficients>
* <EventCounters DeviceType='SBE19plus' SerialNumber='01907809'>
*
*    <EventSummary numEvents='0'/>
*
* </EventCounters></InstrumentState>
* <Headers>
*
* cast  15 29 Oct 2018 14:55:08 samples 9448 to 9933, avg = 1, stop = mag switch
*
# nquan = 17
# nvalues = 419                         
# units = specified
# name 0 = depFM: Depth [fresh water, m]
# name 1 = tv290C: Temperature [ITS-90, deg C]
# name 2 = sbeox0Mg/L: Oxygen, SBE 43 [mg/l]
# name 3 = sbeox0PS: Oxygen, SBE 43 [% saturation]
# name 4 = c0uS/cm: Conductivity [uS/cm]
# name 5 = specc: Specific Conductance [uS/cm]
# name 6 = ph: pH
# name 7 = orp: Oxidation Reduction Potential [mV]
# name 8 = flECO-AFL: Fluorescence, WET Labs ECO-AFL/FL [mg/m^3]
# name 9 = turbWETntu0: Turbidity, WET Labs ECO [NTU]
# name 10 = sal00: Salinity, Practical [PSU]
# name 11 = dz/dtM: Descent Rate [m/s]
# name 12 = prdM: Pressure, Strain Gauge [db]
# name 13 = prdE: Pressure, Strain Gauge [psi]
# name 14 = scan: Scan Count
# name 15 = par/sat/log: PAR/Logarithmic, Satlantic
# name 16 = flag:  0.000e+00
# span 0 =     -0.628,      5.394       
# span 1 =    10.1391,    12.0330       
# span 2 =     5.9216,    10.7989       
# span 3 =     54.386,    100.017       
# span 4 =   1.306636,  28.131025       
# span 5 =      1.796,     38.416       
# span 6 =     -2.993,      7.694       
# span 7 = -1240.7455,  1240.2295       
# span 8 =    -0.2385,     2.8670       
# span 9 =    -0.2914,   140.6348       
# span 10 =     0.0054,     0.0205      
# span 11 =     -0.246,      0.301      
# span 12 =     -0.616,      5.289      
# span 13 =     -0.893,      7.672      
# span 14 =          1,        419      
# span 15 = 7.4420e-01, 3.3041e+02      
# span 16 = 0.0000e+00, 0.0000e+00      
# interval = seconds: 0.25
# start_time = Oct 29 2018 14:55:08 [Instrument's time stamp, header]
# bad_flag = -9.990e-29
# <Sensors count="9" >
#   <sensor Channel="1" >
#     <!-- Count, Temperature -->
#     <TemperatureSensor SensorID="58" >
#       <SerialNumber>7809</SerialNumber>
#       <CalibrationDate>09-Mar-18</CalibrationDate>
#       <A0>1.21093245e-003</A0>
#       <A1>2.84356597e-004</A1>
#       <A2>-1.94507398e-006</A2>
#       <A3>2.12806664e-007</A3>
#       <Slope>1.00000000</Slope>
#       <Offset>0.0000</Offset>
#     </TemperatureSensor>
#   </sensor>
#   <sensor Channel="2" >
#     <!-- Frequency 0, Conductivity -->
#     <ConductivitySensor SensorID="3" >
#       <SerialNumber>7809</SerialNumber>
#       <CalibrationDate>09-Mar-18</CalibrationDate>
#       <UseG_J>1</UseG_J>
#       <!-- Cell const and series R are applicable only for wide range sensors. -->
#       <SeriesR>0.0000</SeriesR>
#       <CellConst>2000.0000</CellConst>
#       <ConductivityType>0</ConductivityType>
#       <Coefficients equation="0" >
#         <A>0.00000000e+000</A>
#         <B>0.00000000e+000</B>
#         <C>0.00000000e+000</C>
#         <D>0.00000000e+000</D>
#         <M>0.0</M>
#         <CPcor>-9.57000000e-008</CPcor>
#       </Coefficients>
#       <Coefficients equation="1" >
#         <G>-1.00672082e+000</G>
#         <H>1.26906489e-001</H>
#         <I>-1.40584351e-004</I>
#         <J>2.47837121e-005</J>
#         <CPcor>-9.57000000e-008</CPcor>
#         <CTcor>3.2500e-006</CTcor>
#         <!-- WBOTC not applicable unless ConductivityType = 1. -->
#         <WBOTC>0.00000000e+000</WBOTC>
#       </Coefficients>
#       <Slope>1.00000000</Slope>
#       <Offset>0.00000</Offset>
#     </ConductivitySensor>
#   </sensor>
#   <sensor Channel="3" >
#     <!-- Count, Pressure, Strain Gauge -->
#     <PressureSensor SensorID="46" >
#       <SerialNumber>7809</SerialNumber>
#       <CalibrationDate>07-Mar-18</CalibrationDate>
#       <PA0>-4.08176359e-002</PA0>
#       <PA1>4.85188419e-004</PA1>
#       <PA2>-3.51168169e-012</PA2>
#       <PTEMPA0>-5.37806900e+001</PTEMPA0>
#       <PTEMPA1>5.36620721e+001</PTEMPA1>
#       <PTEMPA2>4.87214332e-002</PTEMPA2>
#       <PTCA0>5.25213435e+005</PTCA0>
#       <PTCA1>1.79532409e+000</PTCA1>
#       <PTCA2>-2.84353509e-001</PTCA2>
#       <PTCB0>2.51668750e+001</PTCB0>
#       <PTCB1>3.75000000e-004</PTCB1>
#       <PTCB2>0.00000000e+000</PTCB2>
#       <Offset>0.000000</Offset>
#     </PressureSensor>
#   </sensor>
#   <sensor Channel="4" >
#     <!-- A/D voltage 0, pH -->
#     <pH_Sensor SensorID="43" >
#       <SerialNumber>0363</SerialNumber>
#       <CalibrationDate>16-Mar-18</CalibrationDate>
#       <Slope>4.6194</Slope>
#       <Offset>2.5947</Offset>
#     </pH_Sensor>
#   </sensor>
#   <sensor Channel="5" >
#     <!-- A/D voltage 1, Oxidation Reduction Potential -->
#     <OxidationReductionPotentialSensor SensorID="41" >
#       <SerialNumber>0363</SerialNumber>
#       <CalibrationDate>16-Mar-18</CalibrationDate>
#       <B>2.499480</B>
#       <M>-0.496195</M>
#       <Offset>0.0</Offset>
#     </OxidationReductionPotentialSensor>
#   </sensor>
#   <sensor Channel="6" >
#     <!-- A/D voltage 2, Oxygen, SBE 43 -->
#     <OxygenSensor SensorID="38" >
#       <SerialNumber>0434</SerialNumber>
#       <CalibrationDate>13-Mar-18</CalibrationDate>
#       <Use2007Equation>1</Use2007Equation>
#       <CalibrationCoefficients equation="0" >
#         <!-- Coefficients for Owens-Millard equation. -->
#         <Boc>0.0000</Boc>
#         <Soc>0.0000e+000</Soc>
#         <offset>0.0000</offset>
#         <Pcor>0.00e+000</Pcor>
#         <Tcor>0.0000</Tcor>
#         <Tau>0.0</Tau>
#       </CalibrationCoefficients>
#       <CalibrationCoefficients equation="1" >
#         <!-- Coefficients for Sea-Bird equation - SBE calibration in 2007 and later. -->
#         <Soc>4.5718e-001</Soc>
#         <offset>-0.6113</offset>
#         <A>-4.0649e-003</A>
#         <B> 2.0945e-004</B>
#         <C>-3.3182e-006</C>
#         <D0> 2.5826e+000</D0>
#         <D1> 1.92634e-004</D1>
#         <D2>-4.64803e-002</D2>
#         <E> 3.6000e-002</E>
#         <Tau20> 1.2200</Tau20>
#         <H1>-3.3000e-002</H1>
#         <H2> 5.0000e+003</H2>
#         <H3> 1.4500e+003</H3>
#       </CalibrationCoefficients>
#     </OxygenSensor>
#   </sensor>
#   <sensor Channel="7" >
#     <!-- A/D voltage 3, PAR/Logarithmic, Satlantic -->
#     <PARLog_SatlanticSensor SensorID="76" >
#       <SerialNumber>1122</SerialNumber>
#       <CalibrationDate>22-Jun-2017</CalibrationDate>
#       <a0>9.6090e-001</a0>
#       <a1>8.0780e-001</a1>
#       <Im>1.3589e+000</Im>
#       <Multiplier>1.0000e+000</Multiplier>
#     </PARLog_SatlanticSensor>
#   </sensor>
#   <sensor Channel="8" >
#     <!-- A/D voltage 4, Fluorometer, WET Labs ECO-AFL/FL -->
#     <FluoroWetlabECO_AFL_FL_Sensor SensorID="20" >
#       <SerialNumber>FLNTURT-2496</SerialNumber>
#       <CalibrationDate>25-Jan-2017</CalibrationDate>
#       <ScaleFactor>5.30000000e+001</ScaleFactor>
#       <!-- Dark output -->
#       <Vblank>0.0560</Vblank>
#     </FluoroWetlabECO_AFL_FL_Sensor>
#   </sensor>
#   <sensor Channel="9" >
#     <!-- A/D voltage 5, Turbidity Meter, WET Labs, ECO-NTU -->
#     <TurbidityMeter SensorID="67" >
#       <SerialNumber>FLNTURT-2496</SerialNumber>
#       <CalibrationDate>25-Jan-2017</CalibrationDate>
#       <ScaleFactor>176.000000</ScaleFactor>
#       <!-- Dark output -->
#       <DarkVoltage>0.072000</DarkVoltage>
#     </TurbidityMeter>
#   </sensor>
# </Sensors>
# datcnv_date = Oct 29 2018 16:48:40, 7.26.7.114 [datcnv_vars = 16]
# datcnv_in = C:\DATA\102918_fcr30.hex C:\DATA\SBE19plusV2_7809.xmlcon
# datcnv_skipover = 0
# datcnv_ox_hysteresis_correction = yes
# datcnv_ox_tau_correction = yes
# filter_date = Oct 29 2018 16:49:04, 7.26.7.114
# filter_in = C:\DATA\102918_fcr30.cnv
# filter_low_pass_tc_A = 0.030
# filter_low_pass_tc_B = 0.150
# filter_low_pass_A_vars = tv290C c0uS/cm par/sat/log
# filter_low_pass_B_vars = prdM prdE
# alignctd_date = Oct 29 2018 16:49:26, 7.26.7.114
# alignctd_in = C:\DATA\102918_fcr30.cnv
# alignctd_adv = tv290C 0.500, sbeox0Mg/L 3.000, sbeox0PS 3.000                                                                                                                                                                      
# file_type = ascii
*END*
     -0.628    10.1392    10.7046     95.166   1.705364      2.392      6.031  1223.9509    -0.2021    -0.0900     0.0056 -2.105e-16     -0.616     -0.893          1 1.4985e+02 0.0000e+00
     -0.627    10.1391    10.6914     95.050   1.968141      2.829      5.999  1240.2295    -0.2224    -0.1034     0.0057      0.000     -0.616     -0.893          2 1.0717e+02 0.0000e+00
     -0.628    10.1402    10.6809     94.959   1.991184      2.829      6.149   660.5214    -0.2102    -0.0497     0.0057      0.000     -0.616     -0.893          3 7.3393e+01 0.0000e+00
     -0.628    10.1413    10.6739     94.898   2.002393      2.829      5.700  1240.2295    -0.2102     0.0845     0.0057      0.000     -0.616     -0.893          4 5.4483e+01 0.0000e+00
     -0.628    10.1427    10.6689     94.855   2.043020      2.948      6.913  -774.9499    -0.2062     0.0040     0.0057     -0.000     -0.616     -0.893          5 5.0513e+01 0.0000e+00
     -0.628    10.1439    10.6649     94.822   1.911014      2.670      6.455  -150.4567    -0.2102    -0.0497     0.0056     -0.000     -0.616     -0.893          6 6.3734e+01 0.0000e+00
     -0.628    10.1450    10.6557     94.791   2.018624      2.908      5.638   838.3748    -0.2385    -0.0095     0.0057     -0.000     -0.616     -0.893          7 8.9904e+01 0.0000e+00
     -0.628    10.1457    10.5586     94.736   2.057150      2.908      5.725   787.9110    -0.2224    -0.1437     0.0057     -0.000     -0.616     -0.893          8 1.1245e+02 0.0000e+00
     -0.628    10.1471    10.4479     94.720   1.981508      2.829      5.611 -1240.7455    -0.2224    -0.2512     0.0057     -0.000     -0.616     -0.893          9 1.2615e+02 0.0000e+00
     -0.628    10.1471    10.3891     94.784   1.935100      2.749      5.353 -1240.7455    -0.1941    -0.2512     0.0057     -0.000     -0.616     -0.893         10 1.2525e+02 0.0000e+00
     -0.628    10.1489    10.3566     94.925   1.789197      2.551      0.174  -256.7598    -0.2224    -0.2914     0.0056      0.000     -0.616     -0.893         11 1.1108e+02 0.0000e+00
     -0.627    10.1482    10.3314     95.043   1.689331      2.392     -2.993  -212.6940    -0.1860    -0.2780     0.0056      0.000     -0.616     -0.893         12 1.1961e+02 0.0000e+00
     -0.628    10.1517    10.3333     95.320   1.556023      2.233     -2.993   -10.8013    -0.2143    -0.2914     0.0055      0.000     -0.616     -0.893         13 1.2241e+02 0.0000e+00
     -0.628    10.1479    10.3557     95.700   1.481349      2.074     -2.993   224.6330    -0.2021    -0.1974     0.0055      0.000     -0.616     -0.893         14 1.4781e+02 0.0000e+00
     -0.628    10.1562    10.4017     96.234   1.367736      1.995     -2.993   297.7353    -0.1900    -0.2512     0.0055      0.000     -0.616     -0.893         15 2.0634e+02 0.0000e+00
     -0.627    10.1448    10.4609     96.828   1.460542      1.995     -2.992   333.3969    -0.1860    -0.2109     0.0055      0.000     -0.615     -0.892         16 2.3211e+02 0.0000e+00
     -0.627    10.1880    10.5262     97.455   1.306636      1.995     -2.992   282.4789    -0.2021    -0.2914     0.0055      0.000     -0.614     -0.891         17 2.4211e+02 0.0000e+00
     -0.627    10.5360    10.5880     98.050   1.411224      1.796     -2.992   265.3295    -0.2062    -0.2109     0.0054      0.000     -0.607     -0.881         18 2.5542e+02 0.0000e+00
     -0.607    10.9795    10.6446     98.587   9.326326     12.902     -2.992  1240.2295    -0.2224    -0.2243     0.0093      0.006     -0.576     -0.835         19 2.7459e+02 0.0000e+00
     -0.523    11.2571    10.6961     99.064  22.263028     31.823      1.532   253.6695    -0.1941    -0.2109     0.0172      0.032     -0.507     -0.736         20 2.8606e+02 0.0000e+00
     -0.424    11.4566    10.7385     99.446  27.680746     38.416      4.291   254.1238    -0.1941    -0.1572     0.0203      0.077     -0.419     -0.608         21 3.0236e+02 0.0000e+00
     -0.338    11.6177    10.7659     99.695  27.685583     38.203      5.944   254.6538    -0.2102    -0.0766     0.0203      0.131     -0.332     -0.482         22 3.1731e+02 0.0000e+00
     -0.254    11.7361    10.7930     99.957  27.829950     38.146      6.888   250.7545    -0.2143     0.0308     0.0204      0.188     -0.248     -0.360         23 3.0583e+02 0.0000e+00
     -0.165    11.8168    10.7989    100.017  27.856775     38.055      7.364   256.2816    -0.1617     0.0443     0.0204      0.244     -0.172     -0.249         24 3.0943e+02 0.0000e+00
     -0.108    11.8657    10.7681     99.737  27.830025     37.855      7.586   249.3916     1.8358    11.0820     0.0204      0.285     -0.113     -0.164         25 3.2333e+02 0.0000e+00
     -0.071    11.8872    10.6443     98.607  27.803900     37.774      7.682   257.9852     1.8358    11.1089     0.0204      0.301     -0.076     -0.110         26 3.1899e+02 0.0000e+00
     -0.053    11.8974    10.4280     96.622  27.770666     37.647      7.694   259.7645     1.8116    11.1223     0.0203      0.286     -0.056     -0.081         27 3.2342e+02 0.0000e+00
     -0.045    11.9076    10.0917     93.523  27.812070     37.702      7.671   260.4459     1.8520    11.1357     0.0204      0.242     -0.046     -0.066         28 3.2025e+02 0.0000e+00
     -0.041    11.9132     9.7213     90.105  27.811658     37.691      7.635   260.4838     1.8480    11.0820     0.0204      0.190     -0.040     -0.059         29 3.3006e+02 0.0000e+00
     -0.039    11.9134     9.3323     86.509  27.771172     37.605      7.595   260.4459     2.1027     3.3072     0.0203      0.139     -0.034     -0.051         30 3.1598e+02 0.0000e+00
     -0.026    11.9086     8.9567     83.033  27.803155     37.675      7.555   257.5688     2.1229     3.3072     0.0204      0.095     -0.024     -0.036         31 2.4256e+02 0.0000e+00
     -0.009    11.9070     8.6456     80.141  27.771854     37.599      7.517   261.1652     2.0946     3.2938     0.0203      0.062     -0.016     -0.023         32 2.3087e+02 0.0000e+00
     -0.015    11.9111     8.3831     77.707  27.750831     37.604      7.481   260.8245     2.0946     3.3072     0.0203      0.040     -0.017     -0.024         33 2.6180e+02 0.0000e+00
     -0.026    11.9135     8.1992     76.013  27.770025     37.606      7.448   261.3924     2.0704     3.4684     0.0203      0.025     -0.022     -0.033         34 2.7240e+02 0.0000e+00
     -0.027    11.9162     8.0970     75.073  27.807264     37.677      7.413   261.6574     2.0785     3.4550     0.0204      0.016     -0.025     -0.037         35 2.6917e+02 0.0000e+00
     -0.028    11.9231     8.0453     74.599  27.823076     37.675      7.383   261.6574     2.1068     3.6027     0.0204      0.010     -0.025     -0.037         36 2.4780e+02 0.0000e+00
     -0.024    11.9316     8.0090     74.262  27.868935     37.748      7.361   261.8467     2.1310     3.5892     0.0204      0.005     -0.022     -0.032         37 2.4916e+02 0.0000e+00
     -0.015    11.9403     7.9745     73.932  27.868782     37.740      7.341   261.8088     1.9572     3.3207     0.0204      0.003     -0.017     -0.023         38 2.5246e+02 0.0000e+00
     -0.011    11.9472     7.9349     73.547  27.882559     37.732      7.327   261.5438     1.9814     3.3072     0.0204      0.001     -0.014     -0.019         39 2.4129e+02 0.0000e+00
     -0.014    11.9525     7.8830     73.065  27.970379     37.874      7.307   261.3167     1.9491     3.2401     0.0205      0.001     -0.017     -0.024         40 2.5179e+02 0.0000e+00
     -0.028    11.9547     7.8090     72.384  27.996672     37.867      7.294   261.2409     1.9652     3.3072     0.0205      0.002     -0.026     -0.037         41 2.4957e+02 0.0000e+00
     -0.037    11.9511     7.7426     71.776  27.968427     37.862      7.283   260.8624     2.0987     3.4281     0.0205     -0.000     -0.034     -0.048         42 2.4999e+02 0.0000e+00
     -0.036    11.9508     7.6805     71.207  27.946232     37.783      7.272   261.2788     2.0866     3.3341     0.0204     -0.005     -0.035     -0.051         43 2.5257e+02 0.0000e+00
     -0.034    11.9561     7.6336     70.779  27.964996     37.863      7.263   261.2409     2.1108     3.3610     0.0205     -0.008     -0.033     -0.048         44 2.5119e+02 0.0000e+00
     -0.031    11.9608     7.5875     70.358  27.945076     37.788      7.255   261.3167     2.1149     3.3207     0.0204     -0.010     -0.029     -0.044         45 2.4860e+02 0.0000e+00
     -0.026    11.9635     7.5511     70.026  27.971021     37.858      7.244   261.3924     2.1027     3.3475     0.0205     -0.010     -0.023     -0.035         46 2.4458e+02 0.0000e+00
     -0.017    11.9637     7.5211     69.753  27.992001     37.853      7.239   260.9381     2.1674     3.3475     0.0205     -0.004     -0.011     -0.016         47 2.2998e+02 0.0000e+00
      0.010    11.9573     7.4774     69.352  27.978262     37.850      7.229   256.6224     2.1068     3.3207     0.0205      0.010      0.012      0.018         48 2.0495e+02 0.0000e+00
      0.044    11.9479     7.4537     69.135  27.988118     37.850      7.220   259.8024     2.0906     3.3207     0.0205      0.031      0.038      0.056         49 2.0339e+02 0.0000e+00
      0.062    11.9460     7.4134     68.762  27.979735     37.856      7.206   259.6888     2.0906     3.2535     0.0205      0.048      0.055      0.080         50 2.0159e+02 0.0000e+00
      0.063    11.9494     7.3986     68.627  27.929401     37.791      7.199   259.6509     2.1229     3.3341     0.0204      0.057      0.060      0.087         51 1.9011e+02 0.0000e+00
      0.060    11.9539     7.3931     68.577  27.932169     37.793      7.190   259.8024     2.1027     3.3341     0.0204      0.059      0.059      0.086         52 1.9002e+02 0.0000e+00
      0.057    11.9582     7.3944     68.590  28.005938     37.903      7.179   259.6888     2.0946     3.2267     0.0205      0.054      0.056      0.081         53 2.0002e+02 0.0000e+00
      0.053    11.9620     7.3970     68.599  27.985835     37.860      7.173   259.7267     2.0866     3.3744     0.0205      0.043      0.052      0.076         54 2.0132e+02 0.0000e+00
      0.051    11.9664     7.4122     68.721  27.986834     37.856      7.168   259.6131     2.0016     4.0995     0.0205      0.028      0.051      0.074         55 1.9443e+02 0.0000e+00
      0.052    11.9702     7.4109     68.711  27.975045     37.852      7.160   259.6131     1.9855     3.9652     0.0205      0.011      0.052      0.076         56 1.9419e+02 0.0000e+00
      0.056    11.9733     7.3971     68.591  27.941210     37.772      7.160   259.7645     1.9935     3.9249     0.0204     -0.001      0.055      0.080         57 1.9737e+02 0.0000e+00
      0.060    11.9759     7.3855     68.492  27.910349     37.768      7.163   259.2345     1.9572     3.9652     0.0204     -0.003      0.059      0.086         58 1.9247e+02 0.0000e+00
      0.066    11.9772     7.3622     68.281  27.894858     37.689      7.163   256.2438     2.1836     3.3207     0.0204      0.000      0.064      0.092         59 1.8807e+02 0.0000e+00
      0.069    11.9783     7.3476     68.149  27.960488     37.838      7.158   256.6981     2.1553     3.3072     0.0205      0.005      0.067      0.098         60 1.8914e+02 0.0000e+00
      0.071    11.9794     7.3261     67.952  27.887969     37.685      7.159   258.9695     2.1553     3.3072     0.0204      0.009      0.069      0.101         61 1.9056e+02 0.0000e+00
      0.072    11.9803     7.3084     67.789  27.866515     37.684      7.153   256.8116     2.1553     3.2267     0.0204      0.012      0.070      0.102         62 1.9010e+02 0.0000e+00
      0.073    11.9803     7.2841     67.564  27.927890     37.758      7.150   256.6602     2.2928     3.2938     0.0204      0.012      0.073      0.106         63 1.8527e+02 0.0000e+00
      0.080    11.9710     7.2681     67.413  27.870882     37.682      7.145   256.2816     2.3009     3.3341     0.0204      0.012      0.080      0.116         64 1.8272e+02 0.0000e+00
      0.092    11.9596     7.2466     67.213  27.878165     37.682      7.142   256.8495     2.2928     3.2401     0.0204      0.015      0.088      0.128         65 1.8254e+02 0.0000e+00
      0.096    11.9601     7.2238     66.998  27.918828     37.767      7.139   256.2438     2.3130     3.2938     0.0204      0.016      0.092      0.135         66 1.8136e+02 0.0000e+00
      0.095    11.9656     7.2101     66.869  27.879576     37.704      7.135   256.5466     2.2240     3.2267     0.0204      0.016      0.092      0.135         67 1.7871e+02 0.0000e+00
      0.093    11.9703     7.1950     66.728  27.867721     37.702      7.133   256.7359     2.2321     3.3744     0.0204      0.015      0.091      0.132         68 1.8379e+02 0.0000e+00
      0.092    11.9742     7.1855     66.640  27.874286     37.697      7.126   256.5466     2.2483     3.2535     0.0204      0.014      0.090      0.131         69 1.8999e+02 0.0000e+00
      0.092    11.9763     7.1873     66.655  27.871404     37.692      7.122   256.6602     2.2281     3.2938     0.0204      0.011      0.090      0.131         70 1.8169e+02 0.0000e+00
      0.092    11.9778     7.1892     66.673  27.871307     37.688      7.119   256.7738     2.1998     3.3207     0.0204      0.007      0.090      0.131         71 1.7696e+02 0.0000e+00
      0.091    11.9788     7.1867     66.651  27.874408     37.686      7.114   256.9631     2.2443     3.3475     0.0204      0.002      0.090      0.131         72 1.8226e+02 0.0000e+00
      0.092    11.9785     7.1888     66.671  27.926840     37.760      7.105   257.0009     2.2443     3.3744     0.0204     -0.001      0.091      0.132         73 1.7817e+02 0.0000e+00
      0.094    11.9776     7.1828     66.616  27.924645     37.759      7.094   257.4174     2.2362     3.3207     0.0204     -0.001      0.091      0.132         74 1.7786e+02 0.0000e+00
      0.092    11.9765     7.1712     66.507  27.877139     37.684      7.086   257.0388     2.2483     3.3475     0.0204     -0.001      0.090      0.131         75 1.8433e+02 0.0000e+00
      0.091    11.9749     7.1523     66.328  27.867371     37.685      7.080   257.0388     2.2240     3.4415     0.0204     -0.000      0.089      0.129         76 1.8489e+02 0.0000e+00
      0.089    11.9735     7.1268     66.089  27.877506     37.686      7.074   257.3795     2.2685     3.2401     0.0204     -0.001      0.087      0.127         77 1.8419e+02 0.0000e+00
      0.088    11.9725     7.0920     65.766  27.864525     37.688      7.071   257.7202     2.2200     3.3207     0.0204     -0.002      0.087      0.126         78 1.8371e+02 0.0000e+00
      0.088    11.9722     7.0635     65.504  27.883526     37.689      7.070   257.7959     2.2079     3.3610     0.0204     -0.002      0.087      0.126         79 1.8159e+02 0.0000e+00
      0.090    11.9719     7.0220     65.119  27.913156     37.766      7.067   257.4174     2.1755     3.3744     0.0204     -0.002      0.089      0.128         80 1.8107e+02 0.0000e+00
      0.092    11.9720     6.9760     64.685  27.886947     37.690      7.070   257.6824     2.1634     3.3610     0.0204     -0.001      0.091      0.130         81 1.8531e+02 0.0000e+00
      0.092    11.9726     6.9360     64.303  27.856848     37.691      7.070   257.7959     2.1674     3.3207     0.0204     -0.000      0.091      0.131         82 1.8063e+02 0.0000e+00
      0.093    11.9731     6.9015     63.972  27.832022     37.615      7.065   257.7202     2.1553     3.2938     0.0204      0.001      0.091      0.132         83 1.8130e+02 0.0000e+00
      0.093    11.9733     6.8685     63.658  27.858546     37.690      7.065   257.5688     2.1674     3.3744     0.0204      0.002      0.091      0.132         84 1.8579e+02 0.0000e+00
      0.094    11.9725     6.8344     63.334  27.883135     37.689      7.058   257.9474     2.1836     3.3744     0.0204      0.003      0.092      0.133         85 1.8013e+02 0.0000e+00
      0.094    11.9699     6.8084     63.090  27.860717     37.689      7.057   258.1745     2.1634     3.4012     0.0204      0.003      0.092      0.133         86 1.8046e+02 0.0000e+00
      0.093    11.9682     6.7713     62.742  27.827149     37.614      7.053   258.4774     2.1836     3.3207     0.0204      0.002      0.092      0.133         87 1.8170e+02 0.0000e+00
      0.092    11.9683     6.7434     62.471  27.865614     37.693      7.045   258.2502     2.1796     3.3341     0.0204      0.001      0.092      0.133         88 1.7568e+02 0.0000e+00
      0.095    11.9694     6.7173     62.233  27.872144     37.694      7.040   258.4017     2.1796     3.2938     0.0204      0.001      0.095      0.138         89 1.7925e+02 0.0000e+00
      0.103    11.9695     6.6830     61.928  27.819024     37.619      7.035   258.4017     2.1715     3.3475     0.0204      0.003      0.101      0.147         90 1.6972e+02 0.0000e+00
      0.111    11.9644     6.6552     61.672  27.813131     37.618      7.032   258.2881     2.1917     3.3207     0.0204      0.007      0.107      0.155         91 1.6749e+02 0.0000e+00
      0.113    11.9565     6.6275     61.392  27.820183     37.617      7.028   258.6288     2.1593     3.3207     0.0204      0.010      0.110      0.159         92 1.7258e+02 0.0000e+00
      0.112    11.9497     6.5960     61.069  27.869544     37.698      7.021   259.1209     2.1027     3.4012     0.0204      0.012      0.110      0.159         93 1.6993e+02 0.0000e+00
      0.112    11.9435     6.5625     60.735  27.870295     37.706      7.018   258.6667     2.0987     3.4012     0.0204      0.012      0.110      0.159         94 1.7121e+02 0.0000e+00
      0.112    11.9379     6.5260     60.380  27.819251     37.638      7.014   258.4395     2.1108     3.3207     0.0204      0.012      0.110      0.159         95 1.7495e+02 0.0000e+00
      0.112    11.9363     6.4889     60.025  27.814478     37.644      7.014   258.8559     2.0704     3.2535     0.0204      0.010      0.113      0.164         96 1.7442e+02 0.0000e+00
      0.123    11.9325     6.4365     59.533  27.816941     37.650      7.013   258.1745     2.2523     3.2804     0.0204      0.009      0.123      0.178         97 1.6702e+02 0.0000e+00
      0.140    11.9250     6.4052     59.238  27.816188     37.652      7.003   258.6667     2.2402     3.3878     0.0204      0.012      0.135      0.195         98 1.7191e+02 0.0000e+00
      0.149    11.9267     6.3701     58.909  27.815417     37.655      7.002   258.7424     2.2402     3.3207     0.0204      0.017      0.143      0.207         99 1.6821e+02 0.0000e+00
      0.148    11.9360     6.3368     58.593  27.758608     37.588      7.003   259.2345     2.2604     3.3475     0.0203      0.021      0.144      0.208        100 1.6164e+02 0.0000e+00
      0.143    11.9368     6.2999     58.240  27.709001     37.510      7.004   259.3859     2.4020     3.3878     0.0203      0.022      0.141      0.204        101 1.6468e+02 0.0000e+00
      0.140    11.9206     6.2822     58.026  27.699265     37.501      7.007   259.7267     2.4303     3.2804     0.0203      0.020      0.139      0.202        102 1.6513e+02 0.0000e+00
      0.141    11.8982     6.2557     57.751  27.711430     37.499      7.006   259.5752     2.4262     3.3475     0.0203      0.016      0.139      0.202        103 1.6398e+02 0.0000e+00
      0.144    11.8806     6.2354     57.568  27.693864     37.516      7.009   260.0674     2.4303     3.2804     0.0203      0.011      0.140      0.204        104 1.6319e+02 0.0000e+00
      0.145    11.8677     6.2218     57.430  27.721129     37.539      7.007   259.8781     2.4343     3.2670     0.0203      0.005      0.141      0.205        105 1.6253e+02 0.0000e+00
      0.144    11.8599     6.2132     57.272  27.736801     37.633      7.009   260.1052     2.4262     3.3475     0.0203     -0.000      0.141      0.204        106 1.6772e+02 0.0000e+00
      0.142    11.8545     6.2211     57.280  27.674367     37.494      7.007   260.4081     2.4383     3.4415     0.0203     -0.002      0.137      0.199        107 1.6686e+02 0.0000e+00
      0.132    11.8512     6.2366     57.398  27.680243     37.578      7.005   260.1052     2.4343     3.3207     0.0203     -0.004      0.131      0.191        108 1.6747e+02 0.0000e+00
      0.127    11.8463     6.2792     57.807  27.670199     37.507      7.006   260.1809     2.2523     3.3341     0.0203     -0.006      0.129      0.187        109 1.6791e+02 0.0000e+00
      0.136    11.8426     6.3347     58.364  27.686867     37.587      7.002   260.1809     2.2847     3.2804     0.0203     -0.006      0.130      0.189        110 1.6681e+02 0.0000e+00
      0.134    11.8304     6.4143     59.131  27.659499     37.515      6.999   260.6731     2.2928     3.3610     0.0203     -0.006      0.123      0.179        111 1.7503e+02 0.0000e+00
      0.106    11.7953     6.4932     59.883  27.644966     37.521      6.997   260.4081     2.3170     3.3341     0.0203     -0.014      0.102      0.148        112 1.8528e+02 0.0000e+00
      0.072    11.7712     6.5667     60.570  27.645661     37.530      6.997   264.5345     2.2887     3.3610     0.0203     -0.027      0.076      0.110        113 1.9839e+02 0.0000e+00
      0.055    11.7753     6.6365     61.189  27.658639     37.569      6.995   260.5595     2.2968     3.3207     0.0203     -0.040      0.058      0.084        114 2.0490e+02 0.0000e+00
      0.054    11.7628     6.6944     61.691  27.688121     37.668      6.992   260.4081     2.2928     3.3475     0.0203     -0.047      0.040      0.057        115 2.0554e+02 0.0000e+00
      0.010    11.7067     6.7266     61.959  27.668275     37.589      6.978   261.0138     2.3090     3.3475     0.0203     -0.061     -0.008     -0.012        116 2.4932e+02 0.0000e+00
     -0.093    11.6554     6.7440     62.090  27.683339     37.675      6.960   260.9002     2.3090     3.2804     0.0203     -0.096     -0.091     -0.132        117 3.1336e+02 0.0000e+00
     -0.192    11.6375     6.7447     62.074  27.669380     37.660      6.960   265.2160     2.1027     3.1864     0.0203     -0.144     -0.183     -0.266        118 3.2335e+02 0.0000e+00
     -0.277    11.6501     6.7343     61.960  27.685663     37.788      6.963   260.5217     2.0987     2.9984     0.0203     -0.191     -0.262     -0.381        119 3.2017e+02 0.0000e+00
     -0.336    11.6832     6.7280     61.882  27.663092     37.730      6.963   260.1809     2.1108     3.0253     0.0203     -0.226     -0.317     -0.460        120 3.2263e+02 0.0000e+00
     -0.358    11.7087     6.7160     61.758  27.697474     37.794      6.964   259.8402     2.1351     3.0521     0.0203     -0.246     -0.341     -0.495        121 3.1957e+02 0.0000e+00
     -0.351    11.7269     6.7018     61.620  27.702164     37.758      6.966   266.1245     1.8480    43.2151     0.0203     -0.244     -0.338     -0.491        122 3.2512e+02 0.0000e+00
     -0.327    11.7326     6.6924     61.532  27.657247     37.657      6.966   266.4274     1.8197    43.2151     0.0203     -0.214     -0.321     -0.466        123 3.3041e+02 0.0000e+00
     -0.307    11.7159     6.6791     61.411  27.694070     37.714      6.965   266.5410     1.8601    43.3091     0.0203     -0.155     -0.303     -0.440        124 3.2574e+02 0.0000e+00
     -0.293    11.6932     6.6531     61.175  27.715625     37.707      6.966   266.9195     1.8803    43.2285     0.0203     -0.082     -0.290     -0.420        125 3.1873e+02 0.0000e+00
     -0.286    11.6732     6.6361     61.030  27.689715     37.725      6.964   266.8060     2.2281     3.4818     0.0203     -0.022     -0.282     -0.409        126 3.1991e+02 0.0000e+00
     -0.283    11.6529     6.6133     60.826  27.667025     37.673      6.958   267.3360     2.2159     3.3341     0.0203      0.020     -0.279     -0.403        127 3.2177e+02 0.0000e+00
     -0.281    11.6366     6.5861     60.569  27.684575     37.769      6.959   267.4117     2.2240     3.2670     0.0203      0.040     -0.281     -0.407        128 3.2137e+02 0.0000e+00
     -0.295    11.6235     6.5633     60.343  27.667883     37.714      6.954   266.8060     2.2604     3.3744     0.0203      0.037     -0.294     -0.426        129 3.1719e+02 0.0000e+00
     -0.325    11.6098     6.5331     60.049  27.687806     37.807      6.948   266.1245     2.2281     3.3072     0.0203      0.017     -0.315     -0.456        130 3.1726e+02 0.0000e+00
     -0.341    11.5997     6.5191     59.911  27.719082     37.820      6.946   265.9731     2.2159     3.3341     0.0203     -0.007     -0.330     -0.479        131 3.1766e+02 0.0000e+00
     -0.345    11.5947     6.5091     59.814  27.747555     37.911      6.947   266.0488     2.2402     3.3744     0.0203     -0.025     -0.336     -0.487        132 3.1443e+02 0.0000e+00
     -0.343    11.5933     6.5054     59.774  27.711671     37.845      6.949   266.2760     2.2523     3.2670     0.0203     -0.035     -0.332     -0.481        133 3.1675e+02 0.0000e+00
     -0.328    11.5941     6.4941     59.664  27.645153     37.774      6.949   266.5410     2.2079     3.4012     0.0203     -0.034     -0.315     -0.456        134 3.1848e+02 0.0000e+00
     -0.290    11.5970     6.4813     59.543  27.652453     37.776      6.937   266.3517     2.4869   140.4199     0.0203     -0.019     -0.283     -0.409        135 3.1819e+02 0.0000e+00
     -0.246    11.6046     6.4734     59.469  27.702587     37.851      6.928   265.2160     2.4788   140.5408     0.0203      0.010     -0.244     -0.354        136 3.1175e+02 0.0000e+00
     -0.211    11.6087     6.4581     59.328  27.701351     37.848      6.924   264.7238     2.4747   140.5274     0.0203      0.045     -0.212     -0.308        137 3.0355e+02 0.0000e+00
     -0.194    11.6040     6.4442     59.200  27.653989     37.763      6.922   264.7617     2.4869   140.6348     0.0203      0.076     -0.192     -0.279        138 3.0670e+02 0.0000e+00
     -0.183    11.5926     6.4300     59.070  27.702231     37.836      6.922   264.4967     2.3736     3.2535     0.0203      0.094     -0.180     -0.261        139 3.0932e+02 0.0000e+00
     -0.174    11.5802     6.4229     59.005  27.700610     37.841      6.920   264.8374     2.3575     3.3207     0.0203      0.099     -0.172     -0.249        140 3.0601e+02 0.0000e+00
     -0.170    11.5734     6.4161     58.941  27.656010     37.776      6.920   264.3074     2.3615     3.2938     0.0203      0.093     -0.164     -0.237        141 3.0200e+02 0.0000e+00
     -0.157    11.5699     6.4137     58.915  27.698444     37.866      6.922   264.3074     2.3494     3.3475     0.0203      0.080     -0.151     -0.219        142 2.9723e+02 0.0000e+00
     -0.135    11.5654     6.4298     59.061  27.707101     37.872      6.923   264.6481     2.2159     3.3878     0.0203      0.065     -0.131     -0.191        143 3.0142e+02 0.0000e+00
     -0.111    11.5608     6.4214     58.982  27.704534     37.876      6.921   264.5724     2.2362     3.2267     0.0203      0.056     -0.106     -0.155        144 3.0661e+02 0.0000e+00
     -0.077    11.5584     6.4180     58.950  27.701639     37.880      6.915   264.4967     2.2443     3.3744     0.0203      0.058     -0.081     -0.117        145 3.0153e+02 0.0000e+00
     -0.061    11.5576     6.4072     58.851  27.710705     37.885      6.911   264.7238     2.2200     3.2133     0.0203      0.066     -0.063     -0.091        146 2.9734e+02 0.0000e+00
     -0.052    11.5572     6.3896     58.689  27.693254     37.888      6.912   264.9131     2.3130     3.2535     0.0203      0.071     -0.053     -0.077        147 2.9394e+02 0.0000e+00
     -0.049    11.5570     6.3648     58.461  27.664063     37.812      6.914   264.8374     2.2968     3.3744     0.0203      0.072     -0.050     -0.072        148 2.9291e+02 0.0000e+00
     -0.051    11.5578     6.3426     58.256  27.687739     37.889      6.917   264.8752     2.2887     3.2938     0.0203      0.066     -0.051     -0.073        149 2.9570e+02 0.0000e+00
     -0.055    11.5577     6.3102     57.957  27.723084     37.889      6.918   265.1024     2.3211     3.2938     0.0203      0.053     -0.054     -0.078        150 2.9305e+02 0.0000e+00
     -0.059    11.5560     6.2751     57.634  27.738665     37.965      6.918   265.1781     2.2321     3.3475     0.0203      0.035     -0.056     -0.080        151 2.9476e+02 0.0000e+00
     -0.056    11.5537     6.2514     57.415  27.668351     37.812      6.920   265.4052     2.2240     3.2804     0.0203      0.019     -0.054     -0.078        152 2.9349e+02 0.0000e+00
     -0.052    11.5516     6.2279     57.198  27.692000     37.890      6.922   265.0645     2.2281     3.2535     0.0203      0.007     -0.050     -0.072        153 2.9831e+02 0.0000e+00
     -0.046    11.5505     6.1945     56.889  27.709233     37.893      6.925   265.4052     2.2362     3.3207     0.0203      0.003     -0.045     -0.065        154 2.9611e+02 0.0000e+00
     -0.041    11.5501     6.1704     56.667  27.706200     37.895      6.922   265.2917     2.2240     3.3475     0.0203      0.003     -0.041     -0.059        155 2.7022e+02 0.0000e+00
     -0.038    11.5500     6.1381     56.369  27.695776     37.896      6.928   265.1781     2.1755     3.3744     0.0203      0.007     -0.038     -0.054        156 2.5682e+02 0.0000e+00
     -0.038    11.5499     6.1203     56.204  27.662913     37.820      6.928   265.4810     2.1715     3.2267     0.0203      0.010     -0.037     -0.053        157 2.8399e+02 0.0000e+00
     -0.038    11.5495     6.0952     55.971  27.687804     37.897      6.928   265.5567     2.1674     3.3207     0.0203      0.012     -0.036     -0.052        158 2.8052e+02 0.0000e+00
     -0.036    11.5489     6.0719     55.756  27.664799     37.820      6.930   265.2917     2.1472     3.4281     0.0203      0.012     -0.035     -0.050        159 2.2999e+02 0.0000e+00
     -0.033    11.5481     6.0538     55.589  27.691541     37.897      6.928   265.2917     2.0502     3.3475     0.0203      0.010     -0.032     -0.047        160 2.4729e+02 0.0000e+00
     -0.031    11.5472     6.0228     55.303  27.713818     37.898      6.929   265.8217     2.0542     3.3341     0.0203      0.009     -0.030     -0.044        161 2.6078e+02 0.0000e+00
     -0.028    11.5462     6.0057     55.145  27.696370     37.898      6.930   265.1024     2.0502     3.2267     0.0203      0.007     -0.027     -0.040        162 2.4896e+02 0.0000e+00
     -0.025    11.5451     5.9834     54.939  27.653960     37.823      6.930   265.5567     2.0219     3.3207     0.0203      0.007     -0.024     -0.035        163 2.5682e+02 0.0000e+00
     -0.020    11.5441     5.9667     54.784  27.648009     37.824      6.930   265.7838     2.1472     3.3072     0.0203      0.009     -0.020     -0.029        164 2.4930e+02 0.0000e+00
     -0.016    11.5430     5.9475     54.609  27.703777     37.902      6.930   265.6324     2.1796     3.2267     0.0203      0.011     -0.016     -0.023        165 2.3400e+02 0.0000e+00
     -0.012    11.5420     5.9364     54.511  27.703147     37.903      6.927   266.0488     2.1593     3.3207     0.0203      0.013     -0.011     -0.017        166 2.2388e+02 0.0000e+00
     -0.007    11.5408     5.9216     54.386  27.708089     37.904      6.930   265.9731     2.1593     3.2938     0.0203      0.014     -0.007     -0.010        167 2.0727e+02 0.0000e+00
     -0.002    11.5395     5.9237     54.407  27.697629     37.905      6.929   266.0867     2.2443     3.3475     0.0203      0.015     -0.002     -0.003        168 2.0226e+02 0.0000e+00
      0.004    11.5382     5.9512     54.657  27.656869     37.830      6.928   265.8595     2.2443     3.3878     0.0203      0.017      0.003      0.005        169 2.2494e+02 0.0000e+00
      0.008    11.5375     6.0078     55.176  27.640223     37.831      6.928   266.0110     2.2362     3.2938     0.0203      0.018      0.007      0.011        170 2.2884e+02 0.0000e+00
      0.010    11.5369     6.0706     55.833  27.659052     37.832      6.929   265.7460     2.2362     3.2267     0.0203      0.018      0.009      0.013        171 2.2353e+02 0.0000e+00
      0.009    11.5360     6.1553     56.819  27.692732     37.909      6.927   265.7838     2.1674     3.3475     0.0203      0.016      0.010      0.014        172 2.1047e+02 0.0000e+00
      0.012    11.5344     6.2830     58.151  27.657601     37.834      6.928   265.7838     2.1634     3.4147     0.0203      0.014      0.014      0.021        173 1.9793e+02 0.0000e+00
      0.025    11.5333     6.4866     60.123  27.643477     37.835      6.927   265.8974     2.1836     3.3744     0.0203      0.015      0.024      0.035        174 1.8814e+02 0.0000e+00
      0.038    11.5340     6.7370     62.491  27.651017     37.836      6.926   265.9731     2.1634     3.3072     0.0203      0.018      0.028      0.041        175 1.9245e+02 0.0000e+00
      0.023    11.5379     7.0087     65.036  27.707515     37.914      6.923   264.3831     2.1836     3.3207     0.0203      0.016      0.009      0.013        176 2.1489e+02 0.0000e+00
     -0.035    11.5458     7.2893     67.658  27.751050     37.989      6.914   264.0802     2.1553     3.2804     0.0203     -0.002     -0.038     -0.055        177 2.7319e+02 0.0000e+00
     -0.101    11.5480     7.5384     69.981  27.715426     37.910      6.906   264.1181     2.1593     3.3072     0.0203     -0.034     -0.097     -0.140        178 3.2984e+02 0.0000e+00
     -0.159    11.5461     7.7589     72.035  27.692552     37.900      6.903   264.3452     2.1836     3.3207     0.0203     -0.072     -0.153     -0.221        179 2.9779e+02 0.0000e+00
     -0.206    11.5447     7.9200     73.535  27.660924     37.822      6.893   264.2695     2.1917     3.3207     0.0203     -0.111     -0.204     -0.295        180 2.8944e+02 0.0000e+00
     -0.259    11.6121     8.0482     74.729  27.695490     37.901      6.892   265.1024     1.9774     3.3207     0.0203     -0.150     -0.254     -0.368        181 3.0192e+02 0.0000e+00
     -0.313    11.7644     8.0872     75.091  27.827420     38.055      6.891   267.2602     1.9895     3.2535     0.0204     -0.185     -0.300     -0.435        182 2.9127e+02 0.0000e+00
     -0.346    11.8839     8.1015     75.225  27.971094     38.218      6.890   266.9952     1.9652     3.2804     0.0205     -0.203     -0.330     -0.478        183 2.9972e+02 0.0000e+00
     -0.350    11.9459     8.0806     75.033  27.991024     38.052      6.893   267.1845     1.9814     3.4012     0.0205     -0.193     -0.337     -0.489        184 2.9634e+02 0.0000e+00
     -0.336    11.9804     8.0510     74.760  27.980455     37.933      6.893   267.5631     2.1593   106.4741     0.0205     -0.159     -0.330     -0.477        185 2.9468e+02 0.0000e+00
     -0.323    11.9967     8.0205     74.477  28.013851     37.905      6.894   267.7524     2.1512   106.5144     0.0205     -0.117     -0.316     -0.458        186 2.9939e+02 0.0000e+00
     -0.306    12.0082     7.9977     74.265  27.979084     37.833      6.889   268.0174     2.1674   106.5815     0.0205     -0.074     -0.298     -0.433        187 2.9983e+02 0.0000e+00
     -0.283    12.0150     7.9596     73.911  27.994059     37.816      6.883   268.0174     2.1634   106.5547     0.0205     -0.030     -0.278     -0.403        188 2.9856e+02 0.0000e+00
     -0.261    12.0197     7.9309     73.643  28.024857     37.880      6.877   268.3203     1.8520     3.3475     0.0205      0.012     -0.257     -0.373        189 2.9841e+02 0.0000e+00
     -0.244    12.0228     7.9072     73.422  28.000050     37.798      6.871   267.9038     1.8156     3.3878     0.0205      0.045     -0.237     -0.345        190 2.9833e+02 0.0000e+00
     -0.223    12.0243     7.8802     73.170  28.024928     37.868      6.876   267.2981     1.8601     3.3207     0.0205      0.065     -0.216     -0.314        191 2.9982e+02 0.0000e+00
     -0.195    12.0243     7.8512     72.902  27.993895     37.790      6.880   266.9195     1.8601     3.3207     0.0204      0.076     -0.189     -0.274        192 2.9602e+02 0.0000e+00
     -0.162    12.0251     7.8230     72.640  28.009022     37.826      6.884   265.0645     1.8237     3.2670     0.0205      0.084     -0.158     -0.229        193 2.8945e+02 0.0000e+00
     -0.127    12.0263     7.8027     72.452  28.035750     37.864      6.888   265.2917     1.8278     3.2670     0.0205      0.094     -0.127     -0.184        194 2.8621e+02 0.0000e+00
     -0.100    12.0273     7.7788     72.231  27.990281     37.787      6.887   265.4431     1.8520     3.4818     0.0204      0.101     -0.099     -0.144        195 2.8390e+02 0.0000e+00
     -0.075    12.0278     7.7696     72.145  28.035959     37.862      6.888   264.7995     1.8844     3.4147     0.0205      0.105     -0.073     -0.105        196 2.8186e+02 0.0000e+00
     -0.045    12.0276     7.7608     72.064  28.038198     37.861      6.887   264.8752     1.8520     3.2535     0.0205      0.110     -0.044     -0.064        197 2.5756e+02 0.0000e+00
     -0.013    12.0272     7.7697     72.147  27.987495     37.785      6.888   265.2538     2.0582     3.3610     0.0204      0.115     -0.013     -0.019        198 2.0460e+02 0.0000e+00
      0.019    12.0266     7.7647     72.100  28.010116     37.823      6.879   264.7995     2.0138     3.3207     0.0205      0.118      0.018      0.024        199 1.7730e+02 0.0000e+00
      0.047    12.0261     7.7665     72.116  28.039694     37.861      6.875   264.7238     2.0461     3.2938     0.0205      0.117      0.045      0.064        200 1.8726e+02 0.0000e+00
      0.070    12.0256     7.7603     72.058  27.980332     37.786      6.872   265.2917     2.0502     3.3207     0.0204      0.114      0.068      0.098        201 1.7271e+02 0.0000e+00
      0.090    12.0256     7.7616     72.071  27.935751     37.711      6.860   264.7238     2.1472     3.2267     0.0204      0.110      0.089      0.129        202 1.6716e+02 0.0000e+00
      0.110    12.0259     7.7492     71.956  28.035881     37.862      6.859   264.9131     2.1634     3.3207     0.0205      0.106      0.112      0.162        203 1.6478e+02 0.0000e+00
      0.142    12.0261     7.7409     71.878  28.033613     37.862      6.860   264.9131     2.1512     3.1998     0.0205      0.104      0.139      0.202        204 1.4825e+02 0.0000e+00
      0.173    12.0263     7.7378     71.850  27.997869     37.787      6.866   265.0645     2.1674     3.3072     0.0204      0.102      0.168      0.245        205 1.4527e+02 0.0000e+00
      0.199    12.0263     7.7417     71.886  28.050715     37.900      6.870   265.4431     2.3049     3.2535     0.0205      0.101      0.197      0.285        206 1.3255e+02 0.0000e+00
      0.231    12.0268     7.7466     71.932  27.997495     37.786      6.872   265.8974     2.2968     3.1998     0.0204      0.102      0.224      0.324        207 1.2658e+02 0.0000e+00
      0.255    12.0273     7.7486     71.950  27.975156     37.786      6.867   266.2381     2.2766     3.4012     0.0204      0.104      0.247      0.359        208 1.2101e+02 0.0000e+00
      0.273    12.0268     7.7479     71.944  27.989573     37.786      6.863   266.3517     2.3211     3.3744     0.0204      0.105      0.267      0.387        209 1.1756e+02 0.0000e+00
      0.290    12.0262     7.7490     71.955  28.038851     37.861      6.866   266.6545     2.2968     3.2535     0.0205      0.103      0.283      0.410        210 1.1641e+02 0.0000e+00
      0.303    12.0261     7.7548     72.008  28.032421     37.861      6.865   266.7681     2.3049     3.2938     0.0205      0.096      0.297      0.431        211 1.1239e+02 0.0000e+00
      0.315    12.0261     7.7440     71.908  27.997574     37.786      6.870   267.1845     2.3413     3.3207     0.0204      0.085      0.311      0.452        212 1.0950e+02 0.0000e+00
      0.336    12.0263     7.7320     71.797  28.052569     37.900      6.874   267.5252     2.3211     3.2938     0.0205      0.077      0.331      0.479        213 1.0289e+02 0.0000e+00
      0.362    12.0264     7.7287     71.767  27.993629     37.786      6.877   268.0174     2.3736     3.3341     0.0204      0.073      0.354      0.513        214 1.0233e+02 0.0000e+00
      0.384    12.0266     7.7234     71.718  27.981982     37.786      6.880   268.2067     2.3453     3.3878     0.0204      0.071      0.377      0.547        215 9.8162e+01 0.0000e+00
      0.406    12.0265     7.7143     71.633  28.037416     37.862      6.881   268.0553     2.3575     3.3475     0.0205      0.073      0.401      0.582        216 9.3269e+01 0.0000e+00
      0.439    12.0266     7.7144     71.633  28.043233     37.861      6.878   268.6610     2.3575     3.3207     0.0205      0.080      0.431      0.626        217 8.9860e+01 0.0000e+00
      0.475    12.0268     7.7150     71.637  28.034039     37.861      6.877   268.9638     2.3777     3.2938     0.0205      0.090      0.466      0.675        218 8.3905e+01 0.0000e+00
      0.511    12.0266     7.7190     71.675  27.989563     37.786      6.876   269.6074     2.3656     3.4818     0.0204      0.102      0.499      0.724        219 7.8869e+01 0.0000e+00
      0.542    12.0267     7.7111     71.601  27.979991     37.786      6.873   269.9481     2.3656     3.4684     0.0204      0.112      0.528      0.766        220 7.5801e+01 0.0000e+00
      0.561    12.0266     7.7114     71.603  27.986654     37.786      6.869   269.8724     2.3656     3.5490     0.0204      0.115      0.548      0.796        221 7.4602e+01 0.0000e+00
      0.575    12.0267     7.7095     71.585  27.981271     37.786      6.867   270.4024     2.3817     3.5490     0.0204      0.113      0.563      0.817        222 7.3954e+01 0.0000e+00
      0.586    12.0270     7.7168     71.653  27.986692     37.786      6.866   270.6674     2.2968     3.2401     0.0204      0.106      0.577      0.837        223 7.2051e+01 0.0000e+00
      0.604    12.0273     7.7226     71.707  27.979910     37.786      6.862   270.7431     2.3251     3.2535     0.0204      0.097      0.596      0.865        224 6.9702e+01 0.0000e+00
      0.634    12.0275     7.7273     71.750  27.989712     37.785      6.865   270.4403     2.3009     3.3475     0.0204      0.089      0.623      0.903        225 6.6917e+01 0.0000e+00
      0.666    12.0272     7.7032     71.527  28.063438     37.898      6.865   270.7431     2.2806     3.3744     0.0205      0.084      0.653      0.947        226 6.4058e+01 0.0000e+00
      0.697    12.0267     7.6905     71.408  28.036398     37.860      6.858   271.2353     2.3090     3.2670     0.0205      0.085      0.685      0.993        227 6.0757e+01 0.0000e+00
      0.733    12.0261     7.6931     71.432  27.993714     37.785      6.858   271.2353     2.2766     3.1595     0.0204      0.092      0.718      1.041        228 5.8150e+01 0.0000e+00
      0.767    12.0257     7.6877     71.382  28.027614     37.861      6.859   271.5003     2.3049     3.3207     0.0205      0.103      0.750      1.088        229 5.6084e+01 0.0000e+00
      0.796    12.0256     7.6902     71.404  27.994211     37.786      6.860   271.2731     2.3292     3.3744     0.0204      0.114      0.780      1.132        230 5.3169e+01 0.0000e+00
      0.825    12.0254     7.6859     71.364  27.975988     37.787      6.858   271.8031     2.2443     3.2401     0.0204      0.122      0.808      1.172        231 5.1640e+01 0.0000e+00
      0.851    12.0251     7.6945     71.444  27.990996     37.787      6.858   272.1438     2.2443     3.2804     0.0204      0.123      0.835      1.211        232 4.9942e+01 0.0000e+00
      0.879    12.0251     7.7196     71.677  28.005182     37.825      6.858   272.1438     2.2402     3.1998     0.0205      0.121      0.863      1.251        233 4.7444e+01 0.0000e+00
      0.909    12.0251     7.7414     71.880  27.987983     37.787      6.856   272.5224     2.2443     3.2938     0.0204      0.118      0.889      1.290        234 4.5791e+01 0.0000e+00
      0.933    12.0250     7.7448     71.911  27.982752     37.787      6.857   272.2953     2.2321     3.3610     0.0204      0.114      0.914      1.326        235 4.4856e+01 0.0000e+00
      0.955    12.0251     7.7476     71.936  27.982045     37.787      6.857   272.7117     2.2604     3.2535     0.0204      0.109      0.937      1.359        236 4.3774e+01 0.0000e+00
      0.977    12.0249     7.7457     71.919  27.988865     37.788      6.858   272.4088     2.2362     3.2804     0.0204      0.104      0.957      1.389        237 4.2941e+01 0.0000e+00
      0.996    12.0247     7.7467     71.929  28.033559     37.863      6.859   272.2953     2.2362     3.3610     0.0205      0.099      0.978      1.419        238 4.1716e+01 0.0000e+00
      1.020    12.0243     7.7522     71.981  28.015365     37.825      6.860   272.8253     2.2402     3.3610     0.0205      0.095      1.002      1.452        239 4.0033e+01 0.0000e+00
      1.047    12.0241     7.7487     71.949  28.041154     37.863      6.861   272.7874     2.2240     3.2535     0.0205      0.093      1.028      1.489        240 3.8636e+01 0.0000e+00
      1.075    12.0240     7.7424     71.891  28.031113     37.864      6.859   273.2796     2.2523     3.2267     0.0205      0.092      1.053      1.527        241 3.7687e+01 0.0000e+00
      1.100    12.0241     7.7531     71.990  27.998215     37.788      6.855   273.3931     2.2443     3.3341     0.0204      0.093      1.077      1.562        242 3.6848e+01 0.0000e+00
      1.119    12.0240     7.7493     71.955  28.022801     37.864      6.854   273.2796     2.2604     3.3475     0.0205      0.093      1.097      1.590        243 3.6326e+01 0.0000e+00
      1.135    12.0241     7.7543     72.001  28.000516     37.788      6.854   273.6203     2.2483     3.3610     0.0204      0.092      1.114      1.615        244 3.5651e+01 0.0000e+00
      1.152    12.0240     7.7578     72.033  28.025950     37.864      6.851   273.5067     2.2362     3.2535     0.0205      0.089      1.132      1.642        245 3.4544e+01 0.0000e+00
      1.177    12.0237     7.7466     71.929  28.020798     37.826      6.851   273.4688     2.2159     3.2938     0.0205      0.088      1.156      1.676        246 3.3354e+01 0.0000e+00
      1.207    12.0239     7.7419     71.886  27.977278     37.788      6.852   273.6960     2.2362     3.2133     0.0204      0.087      1.185      1.718        247 3.2084e+01 0.0000e+00
      1.241    12.0244     7.7447     71.912  27.991166     37.789      6.852   273.9231     2.3696     3.3207     0.0204      0.089      1.217      1.766        248 3.0859e+01 0.0000e+00
      1.276    12.0247     7.7482     71.945  28.033164     37.864      6.854   273.4310     2.3736     3.2401     0.0205      0.094      1.252      1.816        249 2.9354e+01 0.0000e+00
      1.314    12.0249     7.7409     71.876  27.984310     37.788      6.854   273.9231     2.3656     3.2267     0.0204      0.104      1.287      1.866        250 2.8108e+01 0.0000e+00
      1.346    12.0251     7.7463     71.927  27.992670     37.788      6.852   274.0746     2.3292     3.2670     0.0204      0.115      1.319      1.913        251 2.7140e+01 0.0000e+00
      1.376    12.0252     7.7326     71.799  28.052407     37.901      6.851   274.0746     2.4909     3.5758     0.0205      0.123      1.350      1.958        252 2.6181e+01 0.0000e+00
      1.408    12.0251     7.7304     71.778  27.998910     37.788      6.854   274.2638     2.5030     3.5758     0.0204      0.129      1.380      2.002        253 2.5283e+01 0.0000e+00
      1.437    12.0250     7.7314     71.787  27.970302     37.787      6.852   274.3396     2.4869     3.4550     0.0204      0.130      1.409      2.044        254 2.4474e+01 0.0000e+00
      1.468    12.0248     7.7199     71.680  27.939770     37.712      6.850   274.4153     2.4950     3.4818     0.0204      0.128      1.439      2.087        255 2.3720e+01 0.0000e+00
      1.497    12.0248     7.7189     71.670  27.977612     37.788      6.849   274.6424     2.4181     3.3341     0.0204      0.125      1.469      2.130        256 2.2762e+01 0.0000e+00
      1.529    12.0249     7.7120     71.605  28.041800     37.863      6.853   274.9831     2.4545     3.3878     0.0205      0.122      1.499      2.175        257 2.1831e+01 0.0000e+00
      1.560    12.0252     7.7179     71.660  28.037777     37.863      6.854   274.9074     2.4586     3.2401     0.0205      0.120      1.529      2.218        258 2.1140e+01 0.0000e+00
      1.590    12.0253     7.7252     71.727  28.012266     37.825      6.851   274.9831     2.4262     3.2267     0.0205      0.120      1.556      2.256        259 2.0696e+01 0.0000e+00
      1.609    12.0251     7.7353     71.821  27.984602     37.787      6.855   275.0588     2.4060     3.2670     0.0204      0.117      1.576      2.286        260 2.0409e+01 0.0000e+00
      1.624    12.0251     7.7438     71.900  27.983261     37.787      6.854   274.7181     2.6931     3.3207     0.0204      0.110      1.591      2.308        261 2.0123e+01 0.0000e+00
      1.637    12.0248     7.7457     71.919  27.984289     37.787      6.854   275.4374     2.6810     3.2267     0.0204      0.101      1.604      2.327        262 1.9791e+01 0.0000e+00
      1.650    12.0244     7.7513     71.972  27.983324     37.787      6.854   275.1724     2.7012     3.3072     0.0204      0.091      1.614      2.341        263 1.9590e+01 0.0000e+00
      1.652    12.0244     7.7576     72.031  27.984462     37.788      6.854   275.3617     2.6850     3.3744     0.0204      0.077      1.614      2.341        264 2.0009e+01 0.0000e+00
      1.635    12.0242     7.7645     72.095  27.982872     37.788      6.855   275.7024     2.5718     3.3341     0.0204      0.055      1.605      2.328        265 2.0423e+01 0.0000e+00
      1.625    12.0236     7.7620     72.073  27.985303     37.788      6.855   275.7781     2.5677     3.2804     0.0204      0.033      1.598      2.317        266 2.0278e+01 0.0000e+00
      1.628    12.0233     7.7664     72.113  28.040734     37.864      6.857   275.8538     2.5718     3.3475     0.0205      0.016      1.596      2.314        267 2.0211e+01 0.0000e+00
      1.625    12.0231     7.7626     72.078  28.032481     37.864      6.853   276.2324     2.5314     3.3878     0.0205      0.002      1.593      2.309        268 2.0466e+01 0.0000e+00
      1.615    12.0230     7.7597     72.051  27.995572     37.789      6.854   275.9296     2.3170     3.4147     0.0204     -0.009      1.588      2.303        269 2.0535e+01 0.0000e+00
      1.618    12.0229     7.7566     72.021  28.027370     37.865      6.855   275.9296     2.3453     3.3878     0.0205     -0.016      1.592      2.311        270 2.0090e+01 0.0000e+00
      1.641    12.0233     7.7522     71.981  27.992910     37.790      6.853   276.0810     2.3130     3.2401     0.0204     -0.012      1.612      2.339        271 1.9337e+01 0.0000e+00
      1.673    12.0239     7.7524     71.982  28.008811     37.827      6.850   276.3081     2.3130     3.2938     0.0205      0.005      1.640      2.379        272 1.8650e+01 0.0000e+00
      1.703    12.0245     7.7433     71.899  28.037230     37.865      6.844   276.8381     2.2968     3.4281     0.0205      0.028      1.670      2.422        273 1.8020e+01 0.0000e+00
      1.732    12.0248     7.7458     71.923  27.987190     37.789      6.837   276.8381     2.3292     3.3610     0.0204      0.051      1.700      2.465        274 1.7404e+01 0.0000e+00
      1.763    12.0250     7.7471     71.936  27.982141     37.788      6.831   276.8003     2.2968     3.2938     0.0204      0.071      1.731      2.511        275 1.6701e+01 0.0000e+00
      1.800    12.0251     7.7498     71.961  27.984218     37.788      6.829   277.2167     2.2968     3.2804     0.0204      0.094      1.766      2.561        276 1.5894e+01 0.0000e+00
      1.838    12.0249     7.7430     71.898  27.984606     37.788      6.821   277.2167     2.3130     3.2267     0.0204      0.114      1.801      2.611        277 1.5326e+01 0.0000e+00
      1.869    12.0248     7.7403     71.873  28.040954     37.863      6.818   277.2546     2.3615     3.3744     0.0205      0.125      1.831      2.655        278 1.4911e+01 0.0000e+00
      1.893    12.0248     7.7407     71.878  28.062333     37.901      6.818   277.4817     2.3979     3.3207     0.0205      0.126      1.855      2.690        279 1.4547e+01 0.0000e+00
      1.911    12.0247     7.7350     71.826  28.046944     37.863      6.817   277.7089     2.3575     3.3207     0.0205      0.122      1.875      2.720        280 1.4181e+01 0.0000e+00
      1.933    12.0248     7.7307     71.786  28.030456     37.863      6.820   277.5574     2.3858     3.2535     0.0205      0.117      1.896      2.751        281 1.3730e+01 0.0000e+00
      1.957    12.0247     7.7250     71.734  27.993907     37.788      6.823   277.8603     2.4262     3.3207     0.0204      0.110      1.921      2.787        282 1.3212e+01 0.0000e+00
      1.990    12.0252     7.7212     71.699  28.033135     37.863      6.821   277.7089     2.4222     3.2267     0.0205      0.105      1.951      2.830        283 1.2743e+01 0.0000e+00
      2.023    12.0258     7.7297     71.778  28.040935     37.863      6.822   277.8981     2.4747     3.2938     0.0205      0.102      1.982      2.875        284 1.2356e+01 0.0000e+00
      2.051    12.0261     7.7292     71.773  27.984201     37.787      6.823   277.8981     2.4262     3.4012     0.0204      0.102      2.009      2.915        285 1.2020e+01 0.0000e+00
      2.074    12.0263     7.7293     71.773  27.985149     37.787      6.827   278.2010     2.5718     3.3207     0.0204      0.103      2.034      2.950        286 1.1775e+01 0.0000e+00
      2.097    12.0263     7.7282     71.762  27.980460     37.786      6.831   277.4817     2.5556     3.3878     0.0204      0.105      2.056      2.983        287 1.1470e+01 0.0000e+00
      2.120    12.0265     7.7180     71.667  27.990036     37.786      6.833   277.9360     2.5758     3.3207     0.0204      0.106      2.078      3.015        288 1.1191e+01 0.0000e+00
      2.141    12.0271     7.7106     71.598  28.032527     37.862      6.832   277.9739     2.5880     3.2535     0.0205      0.104      2.099      3.045        289 1.0976e+01 0.0000e+00
      2.161    12.0278     7.7113     71.606  27.986877     37.786      6.836   278.3146     2.4262     3.2670     0.0204      0.099      2.121      3.077        290 1.0746e+01 0.0000e+00
      2.188    12.0280     7.7068     71.564  27.987552     37.785      6.836   278.3903     2.4343     3.2804     0.0204      0.094      2.149      3.117        291 1.0319e+01 0.0000e+00
      2.226    12.0281     7.6900     71.408  28.002038     37.822      6.835   278.6174     2.4343     3.3475     0.0205      0.094      2.180      3.163        292 9.8850e+00 0.0000e+00
      2.256    12.0283     7.6823     71.337  27.998496     37.784      6.830   278.2767     2.4181     3.4147     0.0204      0.098      2.210      3.207        293 9.6970e+00 0.0000e+00
      2.281    12.0286     7.6970     71.473  28.021608     37.860      6.826   278.5417     2.5475     3.2938     0.0205      0.102      2.238      3.247        294 9.3954e+00 0.0000e+00
      2.313    12.0285     7.6995     71.497  28.002924     37.784      6.830   278.9581     2.5516     3.3341     0.0204      0.107      2.268      3.290        295 9.0050e+00 0.0000e+00
      2.346    12.0279     7.7203     71.690  28.021748     37.859      6.824   278.9581     2.5516     3.3207     0.0205      0.113      2.299      3.335        296 8.6974e+00 0.0000e+00
      2.375    12.0276     7.7236     71.720  27.998182     37.784      6.822   279.1853     2.5718     3.3475     0.0204      0.117      2.325      3.373        297 8.4968e+00 0.0000e+00
      2.393    12.0271     7.7225     71.709  27.972956     37.785      6.816   279.1096     2.5637     3.2938     0.0204      0.117      2.345      3.402        298 8.3690e+00 0.0000e+00
      2.407    12.0269     7.7210     71.696  28.023493     37.823      6.818   279.4124     2.4222     3.3341     0.0205      0.110      2.363      3.428        299 8.1436e+00 0.0000e+00
      2.431    12.0273     7.7283     71.764  28.024234     37.861      6.816   279.7531     2.4262     3.2938     0.0205      0.102      2.387      3.463        300 7.8562e+00 0.0000e+00
      2.464    12.0277     7.7327     71.805  28.001682     37.786      6.816   279.9424     2.4262     3.3475     0.0204      0.099      2.418      3.508        301 7.5365e+00 0.0000e+00
      2.504    12.0279     7.7188     71.675  28.021911     37.861      6.810   280.1696     2.4262     3.3207     0.0205      0.101      2.455      3.560        302 7.2312e+00 0.0000e+00
      2.541    12.0279     7.7257     71.739  27.999061     37.785      6.813   280.4346     2.5030     3.3475     0.0204      0.105      2.491      3.612        303 6.9626e+00 0.0000e+00
      2.573    12.0278     7.7303     71.782  28.030121     37.860      6.811   280.6617     2.4869     3.3341     0.0205      0.110      2.524      3.661        304 6.7451e+00 0.0000e+00
      2.607    12.0278     7.7352     71.828  28.012906     37.822      6.810   280.5860     2.5030     3.2938     0.0205      0.119      2.558      3.710        305 6.4520e+00 0.0000e+00
      2.643    12.0277     7.7292     71.772  27.990836     37.785      6.808   280.7753     2.4909     3.4012     0.0204      0.129      2.594      3.762        306 6.0674e+00 0.0000e+00
      2.685    12.0274     7.7341     71.818  28.027938     37.860      6.804   280.8889     2.6082     3.2938     0.0205      0.138      2.631      3.816        307 5.8166e+00 0.0000e+00
      2.719    12.0273     7.7092     71.585  27.996381     37.785      6.805   280.9646     2.6001     3.2535     0.0204      0.141      2.663      3.863        308 5.6346e+00 0.0000e+00
      2.742    12.0275     7.7083     71.577  27.970813     37.785      6.807   280.7753     2.6446     3.3207     0.0204      0.138      2.690      3.901        309 5.4861e+00 0.0000e+00
      2.768    12.0278     7.6937     71.441  28.000461     37.785      6.808   280.9646     2.6527     3.3475     0.0204      0.133      2.717      3.941        310 5.3180e+00 0.0000e+00
      2.802    12.0279     7.7159     71.647  28.018781     37.860      6.807   281.4946     2.6405     3.3341     0.0205      0.129      2.750      3.988        311 5.0735e+00 0.0000e+00
      2.842    12.0277     7.7129     71.619  28.007312     37.785      6.805   281.5324     2.6365     3.3610     0.0204      0.128      2.788      4.043        312 4.8485e+00 0.0000e+00
      2.884    12.0272     7.6994     71.494  28.014735     37.860      6.804   281.3053     2.6324     3.2938     0.0205      0.130      2.827      4.100        313 4.6224e+00 0.0000e+00
      2.922    12.0271     7.7089     71.582  27.950247     37.709      6.805   281.0403     2.6284     3.4012     0.0204      0.132      2.864      4.154        314 4.4377e+00 0.0000e+00
      2.955    12.0274     7.7039     71.534  27.968975     37.785      6.804   281.4189     2.5111     3.2535     0.0204      0.134      2.896      4.201        315 4.3184e+00 0.0000e+00
      2.983    12.0275     7.7130     71.619  27.991429     37.785      6.806   281.0781     2.5111     3.3341     0.0204      0.136      2.923      4.239        316 4.2179e+00 0.0000e+00
      3.005    12.0275     7.6985     71.484  27.981601     37.785      6.805   281.3810     2.5233     3.3610     0.0204      0.136      2.943      4.268        317 4.1418e+00 0.0000e+00
      3.015    12.0273     7.7091     71.582  28.040502     37.860      6.806   281.1160     2.4990     3.2938     0.0205      0.128      2.956      4.287        318 4.1019e+00 0.0000e+00
      3.022    12.0271     7.7086     71.578  28.066366     37.898      6.809   281.2296     2.6244     3.1998     0.0205      0.111      2.970      4.306        319 4.0258e+00 0.0000e+00
      3.046    12.0270     7.7129     71.618  28.038356     37.861      6.810   281.5703     2.6527     3.4147     0.0205      0.096      2.993      4.340        320 3.9171e+00 0.0000e+00
      3.085    12.0268     7.7375     71.848  27.986415     37.785      6.810   281.7974     2.6324     3.2133     0.0204      0.088      3.027      4.390        321 3.7423e+00 0.0000e+00
      3.128    12.0269     7.7097     71.590  27.982768     37.785      6.806   281.9489     2.6244     3.3207     0.0204      0.088      3.064      4.444        322 3.6138e+00 0.0000e+00
      3.160    12.0268     7.7241     71.724  27.983600     37.786      6.801   281.5324     2.6607     3.3475     0.0204      0.094      3.094      4.486        323 3.5947e+00 0.0000e+00
      3.175    12.0263     7.7134     71.625  28.044675     37.861      6.799   281.7974     2.4950     3.3207     0.0205      0.099      3.114      4.516        324 3.5387e+00 0.0000e+00
      3.192    12.0261     7.7248     71.730  28.055002     37.899      6.798   281.9867     2.4667     3.2938     0.0205      0.103      3.131      4.541        325 3.5165e+00 0.0000e+00
      3.211    12.0258     7.7195     71.680  28.000395     37.786      6.799   281.7217     2.4505     3.2267     0.0204      0.106      3.150      4.569        326 3.4881e+00 0.0000e+00
      3.235    12.0256     7.7190     71.675  28.023688     37.862      6.801   282.1003     2.4788     3.3207     0.0205      0.105      3.174      4.604        327 3.5239e+00 0.0000e+00
      3.264    12.0258     7.7333     71.808  27.996368     37.787      6.800   282.4789     2.5192     3.1998     0.0204      0.099      3.205      4.648        328 3.5474e+00 0.0000e+00
      3.305    12.0258     7.7329     71.805  27.975099     37.787      6.796   283.3874     2.4950     3.2938     0.0204      0.096      3.242      4.702        329 3.5286e+00 0.0000e+00
      3.349    12.0261     7.7323     71.799  27.990862     37.787      6.789   282.9710     2.4950     3.3072     0.0204      0.101      3.282      4.761        330 3.6194e+00 0.0000e+00
      3.388    12.0266     7.7206     71.690  28.036048     37.862      6.788   283.5767     2.4950     3.3878     0.0205      0.112      3.321      4.817        331 3.7100e+00 0.0000e+00
      3.424    12.0270     7.7302     71.778  28.067104     37.900      6.786   283.6146     2.4990     3.3610     0.0205      0.126      3.354      4.865        332 3.8444e+00 0.0000e+00
      3.450    12.0273     7.7237     71.718  28.041156     37.861      6.783   283.6903     2.4828     3.3475     0.0205      0.135      3.382      4.905        333 4.0702e+00 0.0000e+00
      3.473    12.0271     7.7282     71.759  28.038692     37.861      6.784   283.5389     2.5030     3.2670     0.0205      0.137      3.404      4.937        334 4.3266e+00 0.0000e+00
      3.492    12.0268     7.7289     71.766  28.040522     37.861      6.786   283.7282     2.4909     3.3475     0.0205      0.132      3.424      4.966        335 4.5970e+00 0.0000e+00
      3.510    12.0267     7.7073     71.566  28.038879     37.861      6.788   283.6146     2.5758     3.3207     0.0205      0.122      3.444      4.995        336 4.8361e+00 0.0000e+00
      3.534    12.0267     7.6988     71.487  28.040738     37.861      6.786   283.8796     2.5597     3.3341     0.0205      0.109      3.468      5.030        337 5.0805e+00 0.0000e+00
      3.564    12.0265     7.6975     71.474  28.008563     37.823      6.785   283.8039     2.5556     3.2267     0.0205      0.099      3.497      5.073        338 5.2679e+00 0.0000e+00
      3.601    12.0265     7.6880     71.387  27.989977     37.786      6.786   283.5767     2.5718     3.3610     0.0204      0.097      3.531      5.122        339 5.3789e+00 0.0000e+00
      3.638    12.0266     7.6871     71.379  28.034220     37.862      6.779   284.4096     2.6891     3.2804     0.0205      0.100      3.567      5.174        340 5.4831e+00 0.0000e+00
      3.676    12.0261     7.6877     71.384  28.042448     37.861      6.778   284.2582     2.6850     3.3475     0.0205      0.109      3.604      5.227        341 5.5339e+00 0.0000e+00
      3.712    12.0260     7.7216     71.699  27.979738     37.786      6.773   284.5232     2.6527     3.1998     0.0204      0.120      3.637      5.276        342 5.5957e+00 0.0000e+00
      3.738    12.0258     7.7297     71.775  27.934375     37.711      6.772   284.6746     2.7012     3.2938     0.0204      0.127      3.666      5.317        343 5.6818e+00 0.0000e+00
      3.766    12.0256     7.7349     71.824  27.980310     37.786      6.772   284.7882     2.7133     3.4281     0.0204      0.131      3.694      5.357        344 5.6743e+00 0.0000e+00
      3.795    12.0257     7.7510     71.973  28.011516     37.824      6.771   284.7882     2.5597     3.2401     0.0205      0.131      3.722      5.397        345 5.6039e+00 0.0000e+00
      3.823    12.0256     7.7429     71.897  27.984483     37.787      6.773   284.5610     2.5556     3.3878     0.0204      0.127      3.747      5.434        346 5.5524e+00 0.0000e+00
      3.843    12.0256     7.7356     71.829  27.984304     37.787      6.773   284.6746     2.5435     3.3207     0.0204      0.119      3.768      5.464        347 5.4947e+00 0.0000e+00
      3.859    12.0256     7.7112     71.603  28.041388     37.862      6.774   284.4853     2.5556     3.2938     0.0205      0.109      3.785      5.490        348 5.4312e+00 0.0000e+00
      3.879    12.0260     7.7019     71.516  28.032036     37.862      6.774   285.0532     2.8427     3.4012     0.0205      0.099      3.805      5.519        349 5.3362e+00 0.0000e+00
      3.903    12.0263     7.6905     71.410  27.995942     37.787      6.774   285.0910     2.8144     3.1998     0.0204      0.093      3.827      5.551        350 5.2207e+00 0.0000e+00
      3.925    12.0265     7.7045     71.541  28.027010     37.862      6.773   285.3560     2.8225     3.3341     0.0205      0.089      3.850      5.584        351 5.0843e+00 0.0000e+00
      3.951    12.0267     7.6911     71.416  28.023022     37.824      6.772   285.7724     2.8306     3.2670     0.0205      0.087      3.875      5.619        352 4.9756e+00 0.0000e+00
      3.976    12.0266     7.7189     71.674  28.030553     37.861      6.770   285.4696     2.7740     3.3878     0.0205      0.086      3.898      5.654        353 4.8750e+00 0.0000e+00
      3.997    12.0267     7.7334     71.808  27.987988     37.786      6.772   285.7346     2.7699     3.3610     0.0204      0.087      3.921      5.686        354 4.7667e+00 0.0000e+00
      4.021    12.0268     7.7074     71.567  27.987050     37.786      6.771   285.6210     2.7335     3.2267     0.0204      0.090      3.945      5.720        355 4.6472e+00 0.0000e+00
      4.047    12.0267     7.7228     71.710  28.031723     37.861      6.771   285.8482     2.7457     3.2938     0.0205      0.093      3.970      5.758        356 4.5127e+00 0.0000e+00
      4.076    12.0267     7.7314     71.791  27.991691     37.786      6.771   285.6210     2.4707     3.2535     0.0204      0.095      3.998      5.799        357 4.3604e+00 0.0000e+00
      4.109    12.0265     7.7212     71.696  28.007222     37.823      6.774   285.4317     2.5152     3.3610     0.0205      0.099      4.028      5.842        358 4.1818e+00 0.0000e+00
      4.136    12.0264     7.7151     71.639  27.982746     37.786      6.772   285.6967     2.5111     3.2938     0.0204      0.102      4.053      5.878        359 4.0585e+00 0.0000e+00
      4.153    12.0264     7.7150     71.637  27.992501     37.786      6.771   285.7724     2.5030     3.3744     0.0204      0.102      4.073      5.907        360 3.9208e+00 0.0000e+00
      4.171    12.0263     7.7221     71.702  28.024730     37.862      6.771   285.6967     2.4828     3.2804     0.0205      0.100      4.093      5.936        361 3.7811e+00 0.0000e+00
      4.197    12.0261     7.7341     71.815  28.001934     37.786      6.772   285.9239     2.6405     3.3207     0.0204      0.099      4.118      5.972        362 3.6116e+00 0.0000e+00
      4.229    12.0261     7.7426     71.893  28.020870     37.862      6.770   286.0374     2.6284     3.2535     0.0205      0.099      4.147      6.014        363 3.4605e+00 0.0000e+00
      4.258    12.0260     7.7280     71.759  28.001164     37.786      6.770   286.1132     2.6244     3.2804     0.0204      0.099      4.176      6.056        364 3.3608e+00 0.0000e+00
      4.286    12.0259     7.7381     71.852  27.996810     37.824      6.767   285.8103     2.6163     3.2804     0.0205      0.099      4.203      6.096        365 3.2455e+00 0.0000e+00
      4.315    12.0262     7.7270     71.750  28.055938     37.862      6.767   286.3782     2.7012     3.4415     0.0205      0.101      4.231      6.137        366 3.1415e+00 0.0000e+00
      4.344    12.0269     7.7389     71.861  28.016525     37.862      6.768   285.9617     2.7133     3.5758     0.0205      0.105      4.260      6.179        367 3.0396e+00 0.0000e+00
      4.372    12.0270     7.7320     71.797  27.956914     37.711      6.767   286.4917     2.7174     3.4550     0.0204      0.110      4.288      6.220        368 2.9341e+00 0.0000e+00
      4.403    12.0263     7.7143     71.634  28.011531     37.861      6.765   286.6053     2.6769     3.5087     0.0205      0.114      4.316      6.260        369 2.8276e+00 0.0000e+00
      4.429    12.0255     7.7212     71.697  28.007851     37.785      6.763   286.7567     2.8144     3.5892     0.0204      0.113      4.340      6.294        370 2.7313e+00 0.0000e+00
      4.444    12.0255     7.7160     71.649  28.020790     37.862      6.767   286.5674     2.8670     3.5221     0.0205      0.109      4.355      6.316        371 2.7013e+00 0.0000e+00
      4.449    12.0258     7.7020     71.519  28.025078     37.825      6.764   286.3024     2.8346     3.5490     0.0205      0.100      4.361      6.325        372 2.6797e+00 0.0000e+00
      4.447    12.0258     7.6945     71.450  28.032163     37.862      6.767   286.2646     2.8265     3.4147     0.0205      0.085      4.362      6.326        373 2.6279e+00 0.0000e+00
      4.447    12.0260     7.6892     71.404  28.041621     37.862      6.770   286.7567     2.6850     3.3072     0.0205      0.068      4.362      6.327        374 2.5544e+00 0.0000e+00
      4.451    12.0260     7.7130     71.627  27.983661     37.787      6.773   286.7946     2.6769     3.4012     0.0204      0.050      4.366      6.332        375 2.4449e+00 0.0000e+00
      4.457    12.0264     7.7050     71.554  27.985702     37.786      6.775   286.7189     2.6931     3.3744     0.0204      0.034      4.373      6.342        376 2.3974e+00 0.0000e+00
      4.467    12.0268     7.7004     71.511  28.039079     37.862      6.771   286.6810     2.6850     3.2401     0.0205      0.023      4.385      6.360        377 2.2751e+00 0.0000e+00
      4.491    12.0270     7.6980     71.489  28.065472     37.899      6.775   286.7567     2.4343     3.2804     0.0205      0.022      4.406      6.392        378 2.0672e+00 0.0000e+00
      4.524    12.0273     7.7012     71.519  28.041801     37.861      6.774   286.9082     2.4222     3.3207     0.0205      0.032      4.435      6.433        379 1.9459e+00 0.0000e+00
      4.552    12.0270     7.6766     71.292  28.038891     37.861      6.771   287.1353     2.4343     3.3744     0.0205      0.049      4.464      6.474        380 1.8694e+00 0.0000e+00
      4.580    12.0270     7.6765     71.290  28.039445     37.861      6.764   287.2489     2.4424     3.3207     0.0205      0.067      4.492      6.515        381 1.7676e+00 0.0000e+00
      4.609    12.0273     7.6517     71.060  28.041111     37.861      6.764   287.4003     2.4100     3.3072     0.0205      0.084      4.521      6.558        382 1.6737e+00 0.0000e+00
      4.642    12.0279     7.6385     70.938  28.036817     37.861      6.760   287.6275     2.3656     3.3744     0.0205      0.099      4.556      6.609        383 1.6007e+00 0.0000e+00
      4.688    12.0296     7.6321     70.878  28.044789     37.861      6.752   288.6117     2.3615     3.3475     0.0205      0.114      4.600      6.671        384 1.4866e+00 0.0000e+00
      4.742    12.0310     7.6242     70.805  28.060840     37.898      6.740   289.3689     2.3696     3.3207     0.0205      0.130      4.647      6.740        385 1.3763e+00 0.0000e+00
      4.785    12.0315     7.6172     70.739  28.046492     37.858      6.736   288.8010     2.4262     3.3072     0.0205      0.141      4.690      6.803        386 1.3145e+00 0.0000e+00
      4.821    12.0316     7.6193     70.757  28.032997     37.857      6.732   289.0660     2.4586     3.4415     0.0205      0.150      4.729      6.859        387 1.2597e+00 0.0000e+00
      4.861    12.0317     7.6195     70.759  28.047986     37.856      6.730   289.0282     2.5354     3.5355     0.0205      0.158      4.768      6.916        388 1.1921e+00 0.0000e+00
      4.904    12.0320     7.6175     70.740  28.027839     37.856      6.729   289.4067     2.5030     3.6027     0.0205      0.164      4.809      6.974        389 1.1322e+00 0.0000e+00
      4.944    12.0323     7.6306     70.862  27.998774     37.781      6.725   289.5203     2.4950     3.4281     0.0204      0.167      4.849      7.033        390 1.0898e+00 0.0000e+00
      4.987    12.0325     7.6428     70.976  28.054509     37.894      6.722   289.8232     2.3575     3.5087     0.0205      0.167      4.888      7.090        391 1.0392e+00 0.0000e+00
      5.023    12.0326     7.6509     71.052  28.047421     37.855      6.722   289.5960     2.3575     3.4281     0.0205      0.162      4.924      7.142        392 9.7623e-01 0.0000e+00
      5.053    12.0328     7.6681     71.213  27.977948     37.780      6.724   289.3310     2.4100     3.5355     0.0204      0.155      4.955      7.187        393 9.3547e-01 0.0000e+00
      5.082    12.0328     7.6784     71.308  27.992729     37.780      6.724   289.3689     2.3575     3.4952     0.0204      0.150      4.983      7.227        394 9.0886e-01 0.0000e+00
      5.109    12.0328     7.6848     71.368  28.029025     37.855      6.724   289.4446     2.2523     3.2804     0.0205      0.143      5.011      7.267        395 8.7406e-01 0.0000e+00
      5.138    12.0321     7.6864     71.383  27.992074     37.780      6.725   289.1417     2.2362     3.3341     0.0204      0.135      5.040      7.310        396 8.4780e-01 0.0000e+00
      5.172    12.0313     7.6912     71.427  28.038715     37.855      6.723   289.3689     2.2443     3.3878     0.0205      0.128      5.074      7.359        397 8.1980e-01 0.0000e+00
      5.213    12.0310     7.6959     71.471  28.059925     37.894      6.719   289.5960     2.2443     3.3072     0.0205      0.125      5.110      7.412        398 7.9048e-01 0.0000e+00
      5.248    12.0308     7.6904     71.418  27.995328     37.781      6.717   289.8989     2.1391     3.2804     0.0204      0.125      5.145      7.463        399 7.7429e-01 0.0000e+00
      5.279    12.0310     7.6853     71.371  28.030161     37.857      6.717   289.6717     2.1027     3.2535     0.0205      0.126      5.177      7.509        400 7.6506e-01 0.0000e+00
      5.311    12.0315     7.6792     71.314  28.046223     37.857      6.718   289.6717     2.0987     3.3475     0.0205      0.129      5.207      7.553        401 7.4420e-01 0.0000e+00
      5.341    12.0321     7.6820     71.340  28.034635     37.857      6.711   288.9903     2.1027     3.2938     0.0205      0.131      5.236      7.594        402 7.4919e-01 0.0000e+00
      5.365    12.0326     7.6814     71.334  27.985286     37.781      6.711   288.5360     2.1351     3.3744     0.0204      0.129      5.258      7.625        403 7.8022e-01 0.0000e+00
      5.378    12.0329     7.6850     71.366  27.989047     37.780      6.715   288.6875     2.0946     3.2267     0.0204      0.121      5.272      7.645        404 8.1749e-01 0.0000e+00
      5.384    12.0330     7.6848     71.364  28.059604     37.893      6.715   288.2710     2.0987     3.4012     0.0205      0.107      5.279      7.655        405 8.3132e-01 0.0000e+00
      5.386    12.0329     7.6844     71.359  28.045719     37.855      6.717   288.3467     2.1229     3.4147     0.0205      0.089      5.282      7.660        406 8.6330e-01 0.0000e+00
      5.387    12.0326     7.6759     71.279  28.035975     37.855      6.721   288.0439     2.1149     3.2535     0.0205      0.069      5.283      7.663        407 9.2047e-01 0.0000e+00
      5.389    12.0321 -9.990e-29 -9.990e-29  28.131025     37.968      6.723   288.1953     2.2847     3.3072     0.0205      0.051      5.285      7.665        408 8.9657e-01 0.0000e+00
      5.390    12.0317 -9.990e-29 -9.990e-29  28.105318     37.968      6.727   288.0439     2.2928     3.3744     0.0205      0.033      5.286      7.666        409 9.2379e-01 0.0000e+00
      5.390    12.0314 -9.990e-29 -9.990e-29  28.008672     37.780      6.727   288.1196     2.3049     3.3744     0.0204      0.019      5.286      7.667        410 9.5713e-01 0.0000e+00
      5.391    12.0312 -9.990e-29 -9.990e-29  28.043763     37.894      6.732   287.7789     2.2968     3.2938     0.0205      0.010      5.287      7.668        411 9.3722e-01 0.0000e+00
      5.391    12.0310 -9.990e-29 -9.990e-29  28.002351     37.781      6.737   287.8167     2.1755     3.3610     0.0204      0.005      5.287      7.668        412 9.4379e-01 0.0000e+00
      5.391    12.0308 -9.990e-29 -9.990e-29  27.971266     37.781      6.738   287.7789     2.1998     3.2938     0.0204      0.003      5.287      7.668        413 9.6066e-01 0.0000e+00
      5.392    12.0304 -9.990e-29 -9.990e-29  27.993505     37.781      6.741   287.5139     2.1512     3.3610     0.0204      0.003      5.288      7.669        414 9.5411e-01 0.0000e+00
      5.392    12.0301 -9.990e-29 -9.990e-29  28.033970     37.857      6.744   287.7410     2.1876     3.3744     0.0205      0.002      5.288      7.670        415 9.5897e-01 0.0000e+00
      5.394    12.0297 -9.990e-29 -9.990e-29  28.039499     37.857      6.745   287.6653     2.3575     3.3207     0.0205      0.002      5.288      7.671        416 9.9871e-01 0.0000e+00
      5.393    12.0293 -9.990e-29 -9.990e-29  27.986624     37.782      6.745   287.6275     2.3858     3.3207     0.0204      0.002      5.288      7.671        417 9.8221e-01 0.0000e+00
      5.393 -9.990e-29 -9.990e-29 -9.990e-29  28.010828     37.820      6.749   287.4760     2.3898     3.2133     0.0205      0.001      5.289      7.672        418 9.7382e-01 0.0000e+00
      5.394 -9.990e-29 -9.990e-29 -9.990e-29  28.039026     37.859      6.750   287.7032     2.3575     3.4281     0.0205      0.002      5.289      7.672        419 9.9221e-01 0.0000e+00
