* Sea-Bird SBE19plus  Data File:
* FileName = C:\R\Reservoirs\Data\DataNotYetUploadedToEDI\Raw_CTD\RawDownloads\102924_fcr50_S7809_0011.hex
* Software version 2.8.0.119
* Temperature SN = 7809
* Conductivity SN = 7809
* System UpLoad Time = Oct 29 2024 18:05:58
* <ApplicationData>
* <Seaterm232>
* <SoftwareVersion>2.8.0.119</SoftwareVersion>
* <BuildDate>07-Nov-2018</BuildDate>
* </Seaterm232>
* </ApplicationData>
* <InstrumentState>
* <HardwareData DeviceType='SBE19plus' SerialNumber='01907809'>
*
*    <Manufacturer>Sea-Bird Electronics, Inc.</Manufacturer>
*
*    <FirmwareVersion>3.1.8</FirmwareVersion>
*
*    <FirmwareDate>Mar  9 2016 16:22:29</FirmwareDate>
*
*    <CommandSetVersion>1.4</CommandSetVersion>
*
*    <PCBAssembly PCBSerialNum='120721' AssemblyNum='41054J'/>
*
*    <PCBAssembly PCBSerialNum='120715' AssemblyNum='41967A'/>
*
*    <PCBAssembly PCBSerialNum='116699' AssemblyNum='41606'/>
*
*    <PCBAssembly PCBSerialNum='120719' AssemblyNum='41059D'/>
*
*    <MfgDate>28-Apr-2017</MfgDate>
*
*    <InternalSensors>
*
*       <Sensor id='Main Temperature'>
*
*          <type>temperature0</type>
*
*          <SerialNumber>01907809</SerialNumber>
*
*       </Sensor>
*
*       <Sensor id='Main Conductivity'>
*
*          <type>conductivity-0</type>
*
*          <SerialNumber>01907809</SerialNumber>
*
*       </Sensor>
*
*       <Sensor id='Main Pressure'>
*
*          <type>strain-0</type>
*
*          <SerialNumber>10586018</SerialNumber>
*
*       </Sensor>
*
*    </InternalSensors>
*
*    <ExternalSensors>
*
*       <Sensor id='volt 0'>
*
*          <type>pH</type>
*
*          <SerialNumber>27-0363</SerialNumber>
*
*       </Sensor>
*
*       <Sensor id='volt 1'>
*
*          <type>ORP</type>
*
*          <SerialNumber>27-0363</SerialNumber>
*
*       </Sensor>
*
*       <Sensor id='volt 2'>
*
*          <type>OXY</type>
*
*          <SerialNumber>43-0434</SerialNumber>
*
*       </Sensor>
*
*       <Sensor id='volt 3'>
*
*          <type>PAR</type>
*
*          <SerialNumber>1122</SerialNumber>
*
*       </Sensor>
*
*       <Sensor id='volt 4'>
*
*          <type>ECO AFL/FL</type>
*
*          <SerialNumber>FLNTURT-2496</SerialNumber>
*
*       </Sensor>
*
*       <Sensor id='volt 5'>
*
*          <type>ECO-NTU</type>
*
*          <SerialNumber>FLNTURT-2496</SerialNumber>
*
*       </Sensor>
*
*       <Sensor id='serial'>
*
*          <type>not assigned</type>
*
*          <SerialNumber>not assigned</SerialNumber>
*
*       </Sensor>
*
*    </ExternalSensors>
*
* </HardwareData>
* <StatusData DeviceType='SBE19plus' SerialNumber='01907809'>
*
*    <DateTime>2024-10-29T18:04:33</DateTime>
*
*    <LoggingState>not logging</LoggingState>
*
*    <EventSummary numEvents='0'/>
*
*    <Power>
*
*       <vMain>13.6</vMain>
*
*       <vLith>8.3</vLith>
*
*       <iMain>63.1</iMain>
*
*       <iPump>41.1</iPump>
*
*       <iExt01>18.9</iExt01>
*
*       <iExt2345>34.8</iExt2345>
*
*    </Power>
*
*    <MemorySummary>
*
*       <Bytes>227861</Bytes>
*
*       <Samples>9907</Samples>
*
*       <SamplesFree>2850881</SamplesFree>
*
*       <SampleLength>23</SampleLength>
*
*       <Profiles>14</Profiles>
*
*    </MemorySummary>
*
* </StatusData>
* <ConfigurationData DeviceType='SBE19plus' SerialNumber='01907809'>
*
*    <ProfileMode>
*
*       <ScansToAverage>1</ScansToAverage>
*
*       <MinimumCondFreq>0</MinimumCondFreq>
*
*       <PumpDelay>45</PumpDelay>
*
*       <AutoRun>no</AutoRun>
*
*       <IgnoreSwitch>no</IgnoreSwitch>
*
*    </ProfileMode>
*
*    <Battery>
*
*       <Type>alkaline</Type>
*
*       <CutOff>7.5</CutOff>
*
*    </Battery>
*
*    <DataChannels>
*
*       <ExtVolt0>yes</ExtVolt0>
*
*       <ExtVolt1>yes</ExtVolt1>
*
*       <ExtVolt2>yes</ExtVolt2>
*
*       <ExtVolt3>yes</ExtVolt3>
*
*       <ExtVolt4>yes</ExtVolt4>
*
*       <ExtVolt5>yes</ExtVolt5>
*
*       <SBE38>no</SBE38>
*
*       <WETLABS>no</WETLABS>
*
*       <OPTODE>no</OPTODE>
*
*       <SBE63>no</SBE63>
*
*       <SeaFET>no</SeaFET>
*
*       <GTD>no</GTD>
*
*    </DataChannels>
*
*    <EchoCharacters>yes</EchoCharacters>
*
*    <OutputExecutedTag>yes</OutputExecutedTag>
*
*    <OutputFormat>raw HEX</OutputFormat>
*
* </ConfigurationData>
* <CalibrationCoefficients DeviceType='SBE19plus' SerialNumber='01907809'>
*
*    <Calibration format='TEMP1' id='Main Temperature'>
*
*       <SerialNum>01907809</SerialNum>
*
*       <CalDate>31-Jan-23</CalDate>
*
*       <TA0>1.218232e-03</TA0>
*
*       <TA1>2.815090e-04</TA1>
*
*       <TA2>-1.578887e-06</TA2>
*
*       <TA3>1.972343e-07</TA3>
*
*       <TOFFSET>0.000000e+00</TOFFSET>
*
*    </Calibration>
*
*    <Calibration format='WBCOND0' id='Main Conductivity'>
*
*       <SerialNum>01907809</SerialNum>
*
*       <CalDate>31-Jan-23</CalDate>
*
*       <G>-1.005652e+00</G>
*
*       <H>1.267963e-01</H>
*
*       <I>-1.561708e-04</I>
*
*       <J>2.645944e-05</J>
*
*       <CPCOR>-9.570000e-08</CPCOR>
*
*       <CTCOR>3.250000e-06</CTCOR>
*
*       <CSLOPE>1.000000e+00</CSLOPE>
*
*    </Calibration>
*
*    <Calibration format='STRAIN0' id='Main Pressure'>
*
*       <SerialNum>10586018</SerialNum>
*
*       <CalDate>20-Jan-23</CalDate>
*
*       <PA0>4.416439e-02</PA0>
*
*       <PA1>4.850502e-04</PA1>
*
*       <PA2>-3.090426e-12</PA2>
*
*       <PTCA0>5.254757e+05</PTCA0>
*
*       <PTCA1>1.050255e+01</PTCA1>
*
*       <PTCA2>-2.922435e-01</PTCA2>
*
*       <PTCB0>2.516687e+01</PTCB0>
*
*       <PTCB1>3.750000e-04</PTCB1>
*
*       <PTCB2>0.000000e+00</PTCB2>
*
*       <PTEMPA0>-5.470820e+01</PTEMPA0>
*
*       <PTEMPA1>5.485421e+01</PTEMPA1>
*
*       <PTEMPA2>-3.446578e-01</PTEMPA2>
*
*       <POFFSET>8.500000e-01</POFFSET>
*
*       <PRANGE>1.600000e+02</PRANGE>
*
*    </Calibration>
*
*    <Calibration format='VOLT0' id='Volt 0'>
*
*       <OFFSET>-4.920000e-02</OFFSET>
*
*       <SLOPE>1.248122e+00</SLOPE>
*
*    </Calibration>
*
*    <Calibration format='VOLT0' id='Volt 1'>
*
*       <OFFSET>-4.784000e-02</OFFSET>
*
*       <SLOPE>1.248871e+00</SLOPE>
*
*    </Calibration>
*
*    <Calibration format='VOLT0' id='Volt 2'>
*
*       <OFFSET>-4.864632e-02</OFFSET>
*
*       <SLOPE>1.248714e+00</SLOPE>
*
*    </Calibration>
*
*    <Calibration format='VOLT0' id='Volt 3'>
*
*       <OFFSET>-4.743790e-02</OFFSET>
*
*       <SLOPE>1.248571e+00</SLOPE>
*
*    </Calibration>
*
*    <Calibration format='VOLT0' id='Volt 4'>
*
*       <OFFSET>-4.671263e-02</OFFSET>
*
*       <SLOPE>1.248951e+00</SLOPE>
*
*    </Calibration>
*
*    <Calibration format='VOLT0' id='Volt 5'>
*
*       <OFFSET>-4.871053e-02</OFFSET>
*
*       <SLOPE>1.249136e+00</SLOPE>
*
*    </Calibration>
*
*    <Calibration format='FREQ0' id='external frequency channel'>
*
*       <EXTFREQSF>1.000014e+00</EXTFREQSF>
*
*    </Calibration>
*
* </CalibrationCoefficients>
* <EventCounters DeviceType='SBE19plus' SerialNumber='01907809'>
*
*    <EventSummary numEvents='0'/>
*
* </EventCounters></InstrumentState>
* <Headers>
*
* cast  11 29 Oct 2024 11:42:18 samples 5487 to 6294, avg = 1, stop = mag switch
*
# nquan = 15
# nvalues = 808                         
# units = specified
# name 0 = depFM: Depth [fresh water, m]
# name 1 = dz/dtM: Descent Rate [m/s]
# name 2 = sbeox0Mg/L: Oxygen, SBE 43 [mg/l]
# name 3 = sbeox0PS: Oxygen, SBE 43 [% saturation]
# name 4 = specc: Specific Conductance [uS/cm]
# name 5 = c0uS/cm: Conductivity [uS/cm]
# name 6 = flECO-AFL: Fluorescence, WET Labs ECO-AFL/FL [mg/m^3]
# name 7 = ph: pH
# name 8 = orp: Oxidation Reduction Potential [mV]
# name 9 = par/sat/log: PAR/Logarithmic, Satlantic
# name 10 = turbWETntu0: Turbidity, WET Labs ECO [NTU]
# name 11 = prdM: Pressure, Strain Gauge [db]
# name 12 = prdE: Pressure, Strain Gauge [psi]
# name 13 = tv290C: Temperature [ITS-90, deg C]
# name 14 = flag:  0.000e+00
# span 0 =     -0.528,      2.645       
# span 1 =     -0.284,      0.196       
# span 2 =     6.7770,    12.0219       
# span 3 =     67.871,    117.591       
# span 4 =      1.072,     52.286       
# span 5 =   0.930393,  40.835615       
# span 6 =    -0.3438,   227.5532       
# span 7 =      6.208,     11.569       
# span 8 =  -782.6333,  1181.9966       
# span 9 = 3.9699e+00, 1.3764e+03       
# span 10 =    -8.0875,   198.8658      
# span 11 =     -0.519,      2.594      
# span 12 =     -0.753,      3.763      
# span 13 =    14.0341,    18.3985      
# span 14 = 0.0000e+00, 0.0000e+00      
# interval = seconds: 0.25
# start_time = Oct 29 2024 11:42:18 [Instrument's time stamp, header]
# bad_flag = -9.990e-29
# <Sensors count="9" >
#   <sensor Channel="1" >
#     <!-- Count, Temperature -->
#     <TemperatureSensor SensorID="58" >
#       <SerialNumber>7809</SerialNumber>
#       <CalibrationDate>31-Jan-23</CalibrationDate>
#       <A0>1.21823180e-003</A0>
#       <A1>2.81508993e-004</A1>
#       <A2>-1.57888696e-006</A2>
#       <A3>1.97234302e-007</A3>
#       <Slope>1.00000000</Slope>
#       <Offset>0.0000</Offset>
#     </TemperatureSensor>
#   </sensor>
#   <sensor Channel="2" >
#     <!-- Frequency 0, Conductivity -->
#     <ConductivitySensor SensorID="3" >
#       <SerialNumber>7809</SerialNumber>
#       <CalibrationDate>31-Jan-23</CalibrationDate>
#       <UseG_J>1</UseG_J>
#       <!-- Cell const and series R are applicable only for wide range sensors. -->
#       <SeriesR>0.0000</SeriesR>
#       <CellConst>2000.0000</CellConst>
#       <ConductivityType>0</ConductivityType>
#       <Coefficients equation="0" >
#         <A>0.00000000e+000</A>
#         <B>0.00000000e+000</B>
#         <C>0.00000000e+000</C>
#         <D>0.00000000e+000</D>
#         <M>0.0</M>
#         <CPcor>-9.57000000e-008</CPcor>
#       </Coefficients>
#       <Coefficients equation="1" >
#         <G>-1.00565232e+000</G>
#         <H>1.26796307e-001</H>
#         <I>-1.56170788e-004</I>
#         <J>2.64594368e-005</J>
#         <CPcor>-9.57000000e-008</CPcor>
#         <CTcor>3.2500e-006</CTcor>
#         <!-- WBOTC not applicable unless ConductivityType = 1. -->
#         <WBOTC>0.00000000e+000</WBOTC>
#       </Coefficients>
#       <Slope>1.00000000</Slope>
#       <Offset>0.00000</Offset>
#     </ConductivitySensor>
#   </sensor>
#   <sensor Channel="3" >
#     <!-- Count, Pressure, Strain Gauge -->
#     <PressureSensor SensorID="46" >
#       <SerialNumber>7809</SerialNumber>
#       <CalibrationDate>20-Jan-23</CalibrationDate>
#       <PA0>4.41643944e-002</PA0>
#       <PA1>4.85050239e-004</PA1>
#       <PA2>-3.09042623e-012</PA2>
#       <PTEMPA0>-5.47081996e+001</PTEMPA0>
#       <PTEMPA1>5.48542136e+001</PTEMPA1>
#       <PTEMPA2>-3.44657813e-001</PTEMPA2>
#       <PTCA0>5.25475731e+005</PTCA0>
#       <PTCA1>1.05025484e+001</PTCA1>
#       <PTCA2>-2.92243463e-001</PTCA2>
#       <PTCB0>2.51668750e+001</PTCB0>
#       <PTCB1>3.75000000e-004</PTCB1>
#       <PTCB2>0.00000000e+000</PTCB2>
#       <Offset>0.000000</Offset>
#     </PressureSensor>
#   </sensor>
#   <sensor Channel="4" >
#     <!-- A/D voltage 0, Oxygen, SBE 43 -->
#     <OxygenSensor SensorID="38" >
#       <SerialNumber>0434</SerialNumber>
#       <CalibrationDate>18-Feb-23</CalibrationDate>
#       <Use2007Equation>1</Use2007Equation>
#       <CalibrationCoefficients equation="0" >
#         <!-- Coefficients for Owens-Millard equation. -->
#         <Boc>0.0000</Boc>
#         <Soc>0.0000e+000</Soc>
#         <offset>0.0000</offset>
#         <Pcor>0.00e+000</Pcor>
#         <Tcor>0.0000</Tcor>
#         <Tau>0.0</Tau>
#       </CalibrationCoefficients>
#       <CalibrationCoefficients equation="1" >
#         <!-- Coefficients for Sea-Bird equation - SBE calibration in 2007 and later. -->
#         <Soc>5.1878e-001</Soc>
#         <offset>-0.5046</offset>
#         <A>-4.2788e-003</A>
#         <B> 1.5372e-004</B>
#         <C>-2.1853e-006</C>
#         <D0> 2.5826e+000</D0>
#         <D1> 1.92634e-004</D1>
#         <D2>-4.64803e-002</D2>
#         <E> 3.6000e-002</E>
#         <Tau20> 0.9900</Tau20>
#         <H1>-3.3000e-002</H1>
#         <H2> 5.0000e+003</H2>
#         <H3> 1.4500e+003</H3>
#       </CalibrationCoefficients>
#     </OxygenSensor>
#   </sensor>
#   <sensor Channel="5" >
#     <!-- A/D voltage 1, PAR/Logarithmic, Satlantic -->
#     <PARLog_SatlanticSensor SensorID="76" >
#       <SerialNumber>1122</SerialNumber>
#       <CalibrationDate>08-Sep-2021</CalibrationDate>
#       <a0>9.6751e-001</a0>
#       <a1>8.0992e-001</a1>
#       <Im>1.3589e+000</Im>
#       <Multiplier>1.0000e+000</Multiplier>
#     </PARLog_SatlanticSensor>
#   </sensor>
#   <sensor Channel="6" >
#     <!-- A/D voltage 2, pH -->
#     <pH_Sensor SensorID="43" >
#       <SerialNumber>0363</SerialNumber>
#       <CalibrationDate>28-Feb-23</CalibrationDate>
#       <Slope>4.7364</Slope>
#       <Offset>2.5433</Offset>
#     </pH_Sensor>
#   </sensor>
#   <sensor Channel="7" >
#     <!-- A/D voltage 3, Oxidation Reduction Potential -->
#     <OxidationReductionPotentialSensor SensorID="41" >
#       <SerialNumber>0363</SerialNumber>
#       <CalibrationDate>28-Feb-23</CalibrationDate>
#       <B>2.499480</B>
#       <M>-0.496195</M>
#       <Offset>0.0</Offset>
#     </OxidationReductionPotentialSensor>
#   </sensor>
#   <sensor Channel="8" >
#     <!-- A/D voltage 4, Fluorometer, WET Labs ECO-AFL/FL -->
#     <FluoroWetlabECO_AFL_FL_Sensor SensorID="20" >
#       <SerialNumber>FLNTURT-2496</SerialNumber>
#       <CalibrationDate>02-Sep-2021</CalibrationDate>
#       <ScaleFactor>4.80000000e+001</ScaleFactor>
#       <!-- Dark output -->
#       <Vblank>0.0550</Vblank>
#     </FluoroWetlabECO_AFL_FL_Sensor>
#   </sensor>
#   <sensor Channel="9" >
#     <!-- A/D voltage 5, Turbidity Meter, WET Labs, ECO-NTU -->
#     <TurbidityMeter SensorID="67" >
#       <SerialNumber>FLNTURT--2496</SerialNumber>
#       <CalibrationDate>02-Sep-2021</CalibrationDate>
#       <ScaleFactor>197.000000</ScaleFactor>
#       <!-- Dark output -->
#       <DarkVoltage>0.070000</DarkVoltage>
#     </TurbidityMeter>
#   </sensor>
# </Sensors>
# datcnv_date = Oct 29 2024 18:11:28, 7.26.7.129 [datcnv_vars = 14]
# datcnv_in = C:\R\Reservoirs\Data\DataNotYetUploadedToEDI\Raw_CTD\RawDownloads\102924_fcr10_S7809011.hex C:\R\Reservoirs\Data\DataNotYetUploadedToEDI\Raw_CTD\RawDownloads\SBE19plusV2_7809_start20230701.xmlcon
# datcnv_skipover = 0
# datcnv_ox_hysteresis_correction = yes
# datcnv_ox_tau_correction = yes
# filter_date = Oct 29 2024 18:11:59, 7.26.7.129
# filter_in = C:\R\Reservoirs\Data\DataNotYetUploadedToEDI\Raw_CTD\RawDownloads\102924_fcr10_S7809011.cnv
# filter_low_pass_tc_A = 0.030
# filter_low_pass_tc_B = 0.150
# filter_low_pass_A_vars = sbeox0Mg/L prdM prdE tv290C
# filter_low_pass_B_vars = depFM dz/dtM sbeox0PS specc c0uS/cm flECO-AFL ph orp par/sat/log turbWETntu0
# alignctd_date = Oct 29 2024 18:12:20, 7.26.7.129
# alignctd_in = C:\R\Reservoirs\Data\DataNotYetUploadedToEDI\Raw_CTD\RawDownloads\102924_fcr10_S7809011.cnv
# alignctd_adv = dz/dtM 1.000, sbeox0PS 1.000, specc 1.000, c0uS/cm 1.000, flECO-AFL 1.000, ph 1.000, orp 1.000, turbWETntu0 1.000                                                                                                   
# file_type = ascii
*END*
     -0.527 1.5957e-13     8.7830     93.626      1.181   1.025358    -0.0517      9.792  -782.6333 1.9023e+02     1.0973     -0.517     -0.750    18.3942 0.0000e+00
     -0.527 1.7553e-12     8.7861     93.606      1.165   1.011537    -0.0618     10.842  -618.7014 1.9792e+02     1.0760     -0.518     -0.751    18.3938 0.0000e+00
     -0.527 1.9308e-11     8.7899     93.604      1.164   1.010270    -0.0638     11.363  -291.0171 2.0331e+02     1.1003     -0.517     -0.750    18.3935 0.0000e+00
     -0.527 2.1239e-10     8.7934     93.609      1.164   1.010041    -0.0664     11.569    -2.2758 1.9728e+02     1.0493     -0.517     -0.750    18.3933 0.0000e+00
     -0.527 2.3363e-09     8.7935     93.611      1.162   1.008765    -0.0772     11.376   407.2482 1.9348e+02     1.0051     -0.517     -0.750    18.3936 0.0000e+00
     -0.527 2.5699e-08     8.7883     93.618      1.146   0.994841    -0.0784     10.494   946.5314 1.9713e+02     1.0442     -0.518     -0.751    18.3939 0.0000e+00
     -0.527 2.8269e-07     8.7903     93.617      1.116   0.968371    -0.0637      9.287  1181.9966 2.0035e+02     1.1121     -0.517     -0.750    18.3938 0.0000e+00
     -0.527      0.000     8.7907     93.610      1.086   0.942086    -0.0573      8.677  1064.1083 2.0384e+02     1.1084     -0.517     -0.750    18.3938 0.0000e+00
     -0.527      0.000     8.7898     93.603      1.072   0.930393    -0.0601      8.659   909.6551 2.1011e+02     1.0685     -0.518     -0.751    18.3941 0.0000e+00
     -0.527      0.000     8.7922     93.598      1.099   0.953670    -0.0474      8.347   853.9307 2.3174e+02     1.1075     -0.517     -0.750    18.3938 0.0000e+00
     -0.527      0.004     8.7912     93.648      1.267   1.096844    -0.0204      7.547   874.7501 2.8163e+02     1.2040     -0.517     -0.750    18.3946 0.0000e+00
     -0.528      0.016     8.7901     93.761      2.367   2.028095     0.2419      6.880   815.8477 3.6047e+02     2.0650     -0.518     -0.752    18.3944 0.0000e+00
     -0.528      0.036     8.7905     93.869      9.669   8.159401     0.7521      6.555   507.1557 4.8035e+02     3.7293     -0.517     -0.750    18.3962 0.0000e+00
     -0.526      0.064     8.7869     93.979     24.776  20.727766     1.0551      6.384   270.4238 6.2969e+02     4.6918     -0.519     -0.753    18.3946 0.0000e+00
     -0.512      0.098     8.7900     94.174     37.156  30.828255     1.1421      6.289   243.9943 7.4227e+02     4.8205     -0.511     -0.740    18.3985 0.0000e+00
     -0.480      0.134     8.8066     94.458     41.217  33.908984     1.5791      6.242   238.5339 8.2557e+02     4.7740     -0.473     -0.685    18.3897 0.0000e+00
     -0.435      0.164     8.8973     94.802     41.781  34.126993     2.3593      6.226   236.3239 9.5889e+02     4.6416     -0.429     -0.623    17.9473 0.0000e+00
     -0.381      0.184     9.0577     95.087     41.983  34.098340     2.7858      6.223   234.3945 1.1265e+03     4.5519     -0.378     -0.548    17.1036 0.0000e+00
     -0.320      0.194     9.1957     95.214     42.138  34.069872     2.8483      6.219   232.3278 1.2547e+03     4.5431     -0.311     -0.453    16.4920 0.0000e+00
     -0.265      0.196     9.2978     95.337     42.320  34.099828     3.0578      6.214   231.0384 1.3285e+03     4.5694     -0.256     -0.371    16.1105 0.0000e+00
     -0.219      0.194     9.3936     95.563     42.553  34.206615     3.4038      6.210   229.9034 1.3677e+03     4.5288     -0.212     -0.308    15.8117 0.0000e+00
     -0.178      0.190     9.4775     95.856     42.713  34.282355     3.5776      6.208   228.6713 1.3764e+03     4.4957     -0.174     -0.254    15.5927 0.0000e+00
     -0.134      0.186     9.5139     96.228     42.808  34.317619     3.6031      6.211   227.6702 1.3460e+03     4.5453     -0.136     -0.198    15.4075 0.0000e+00
     -0.083      0.182     9.5516     96.689     42.919  34.379156     3.6294      6.219   226.5757 1.3050e+03     4.5474     -0.083     -0.120    15.2690 0.0000e+00
     -0.031      0.173     9.5982     97.186     42.946  34.391898     3.7614      6.232   225.5908 1.3063e+03     4.4866     -0.029     -0.041    15.1760 0.0000e+00
      0.017      0.158     9.6353     97.699     42.897  34.344783     4.0011      6.249   225.2254 1.1378e+03     4.4600      0.017      0.024    15.1272 0.0000e+00
      0.062      0.136     9.6825     98.204     42.881  34.317047     4.1216      6.266   225.4275 8.0284e+02     4.4645      0.066      0.096    15.0741 0.0000e+00
      0.095      0.108     9.7409     98.626     42.893  34.310317     4.1289      6.281   225.6253 6.8923e+02     4.5072      0.101      0.147    15.0355 0.0000e+00
      0.114      0.078     9.7902     98.946     42.855  34.263384     4.1637      6.296   225.4656 6.8098e+02     4.5659      0.113      0.164    15.0394 0.0000e+00
      0.125      0.050     9.8424     99.167     42.788  34.193691     4.2181      6.311   225.2182 6.6010e+02     4.5597      0.123      0.179    15.0321 0.0000e+00
      0.134      0.025     9.9040     99.257     42.774  34.165560     4.2460      6.327   225.1283 8.0385e+02     4.5343      0.133      0.193    15.0104 0.0000e+00
      0.137      0.009     9.9493     99.204     42.809  34.177011     4.2428      6.345   225.1527 9.1349e+02     4.5324      0.137      0.198    14.9913 0.0000e+00
      0.133      0.001     9.9853     99.041     42.860  34.205226     4.2457      6.361   225.0828 8.0750e+02     4.5373      0.132      0.191    14.9715 0.0000e+00
      0.127     -0.003    10.0134     98.808     42.852  34.189475     4.2648      6.372   224.8005 6.6805e+02     4.5250      0.123      0.179    14.9545 0.0000e+00
      0.124     -0.004    10.0276     98.542     42.765  34.113448     4.2650      6.383   224.4069 6.9508e+02     4.4858      0.119      0.173    14.9339 0.0000e+00
      0.125     -0.003    10.0250     98.262     42.685  34.047328     4.2484      6.394   224.1947 8.7143e+02     4.4723      0.121      0.177    14.9127 0.0000e+00
      0.128     -0.002    10.0108     97.965     42.646  34.024481     4.2391      6.401   224.3001 9.7411e+02     4.5334      0.126      0.183    14.8973 0.0000e+00
      0.129      0.000     9.9872     97.538     42.630  34.027550     4.2275      6.406   224.5625 9.1881e+02     4.6097      0.128      0.185    14.8893 0.0000e+00
      0.127      0.000     9.9618     96.755     42.603  34.021006     4.1999      6.408   224.8716 7.7464e+02     4.6091      0.125      0.181    14.8792 0.0000e+00
      0.125     -0.001     9.9357     95.786     42.583  34.008823     4.1717      6.412   225.0263 6.4094e+02     4.5604      0.122      0.177    14.8724 0.0000e+00
      0.124     -0.001     9.9031     95.173     42.587  34.007139     4.1196      6.417   225.0572 6.2497e+02     4.5336      0.122      0.177    14.8834 0.0000e+00
      0.125     -0.000     9.8707     95.024     42.588  34.000642     4.0276      6.422   225.1594 7.4132e+02     4.5579      0.122      0.178    14.9083 0.0000e+00
      0.125      0.001     9.7844     95.072     42.589  33.993704     3.9835      6.430   225.3150 9.2698e+02     4.6153      0.123      0.178    14.9297 0.0000e+00
      0.125      0.002     9.6509     95.113     42.587  33.986690     3.9854      6.440   225.5615 9.8037e+02     4.6126      0.123      0.178    14.9329 0.0000e+00
      0.126      0.002     9.5918     94.968     42.582  33.979279     3.9674      6.450   225.8175 8.9180e+02     4.5246      0.123      0.179    14.9245 0.0000e+00
      0.127      0.002     9.5949     94.543     42.570  33.967539     3.9816      6.461   225.9150 8.0890e+02     4.5080      0.125      0.181    14.9148 0.0000e+00
      0.128      0.002     9.6041     93.836     42.575  33.971624     4.0499      6.472   225.9659 7.4226e+02     4.5829      0.125      0.181    14.9053 0.0000e+00
      0.128      0.001     9.6183     92.720     42.644  34.028679     4.0941      6.480   226.0881 7.1752e+02     4.6109      0.125      0.181    14.8980 0.0000e+00
      0.128      0.000     9.6098     91.186     42.711  34.086364     4.1000      6.488   226.1884 6.8733e+02     4.5733      0.126      0.182    14.8946 0.0000e+00
      0.128      0.000     9.5611     89.626     42.717  34.098093     4.2038      6.496   226.3180 6.5376e+02     4.5378      0.126      0.182    14.8926 0.0000e+00
      0.128     -0.001     9.4979     88.446     42.723  34.107056     4.4248      6.503   226.5370 6.4986e+02     4.5913      0.125      0.181    14.8919 0.0000e+00
      0.127     -0.001     9.3916     87.801     42.752  34.131300     4.5666      6.510   226.7718 6.7646e+02     4.6742      0.124      0.180    14.8936 0.0000e+00
      0.127      0.000     9.2133     87.688     42.761  34.137439     4.6033      6.519   226.9191 7.5679e+02     4.6859      0.124      0.180    14.8991 0.0000e+00
      0.127      0.000     9.0384     87.985     42.737  34.117834     4.6189      6.529   227.0271 7.3249e+02     4.6304      0.124      0.180    14.9090 0.0000e+00
      0.127      0.001     8.9149     88.504     42.696  34.084599     4.6220      6.539   227.1320 6.5891e+02     4.5490      0.124      0.180    14.9149 0.0000e+00
      0.127      0.002     8.8490     89.068     42.657  34.052820     4.6327      6.549   227.1553 6.6310e+02     4.5560      0.125      0.181    14.9140 0.0000e+00
      0.128      0.002     8.8433     89.508     42.661  34.050825     4.6567      6.558   227.2220 6.7993e+02     4.6130      0.125      0.182    14.9126 0.0000e+00
      0.128      0.002     8.8805     89.657     42.682  34.060467     4.7038      6.566   227.3370 7.4651e+02     4.5890      0.125      0.182    14.9122 0.0000e+00
      0.129      0.002     8.9393     89.487     42.668  34.042511     4.7613      6.573   227.4265 7.8279e+02     4.5049      0.126      0.183    14.9123 0.0000e+00
      0.130      0.002     9.0009     89.139     42.653  34.024044     4.7866      6.578   227.6161 6.8874e+02     4.4497      0.127      0.185    14.9128 0.0000e+00
      0.130      0.002     9.0548     88.834     42.668  34.027514     4.8014      6.583   227.8231 6.3716e+02     4.5023      0.128      0.185    14.9070 0.0000e+00
      0.130      0.002     9.0732     88.763     42.672  34.021010     4.8405      6.585   227.9494 7.5079e+02     4.5608      0.127      0.185    14.8960 0.0000e+00
      0.131      0.002     9.0512     89.023     42.669  34.008832     4.8841      6.584   228.0246 8.6349e+02     4.5076      0.128      0.186    14.8881 0.0000e+00
      0.132      0.001     9.0092     89.610     42.675  34.007149     4.9044      6.583   228.1306 8.6989e+02     4.4736      0.129      0.188    14.8814 0.0000e+00
      0.132      0.001     8.9724     90.432     42.669  34.000662     4.9032      6.583   228.3708 7.9272e+02     4.4919      0.130      0.189    14.8720 0.0000e+00
      0.132      0.001     8.9648     91.362     42.663  33.993836     4.9024      6.587   228.5194 6.8270e+02     4.4559      0.130      0.188    14.8596 0.0000e+00
      0.132      0.000     8.9931     92.258     42.662  33.988058     4.8940      6.593   228.5506 7.0120e+02     4.4474      0.130      0.188    14.8466 0.0000e+00
      0.132 1.8642e-08     9.0584     92.998     42.678  33.994241     4.8519      6.601   228.6625 7.7314e+02     4.4924      0.129      0.188    14.8390 0.0000e+00
      0.132 2.0506e-07     9.1459     93.500     42.696  34.005142     4.8019      6.609   228.8399 7.2307e+02     4.4874      0.130      0.189    14.8385 0.0000e+00
      0.132 2.0509e-07     9.2453     93.736     42.683  33.992972     4.7884      6.616   228.9744 6.8283e+02     4.5232      0.129      0.188    14.8382 0.0000e+00
      0.132 1.8964e-08     9.3421     93.777     42.665  33.973977     4.7718      6.623   229.0839 6.9517e+02     4.6866      0.129      0.188    14.8309 0.0000e+00
      0.132 5.2379e-09     9.4214     93.722     42.665  33.965807     4.7090      6.630   229.2179 6.9637e+02     4.8232      0.130      0.188    14.8211 0.0000e+00
      0.132 4.0670e-08     9.4750     93.599     42.665  33.957630     4.6454      6.638   229.3046 7.4802e+02     4.8085      0.129      0.188    14.8183 0.0000e+00
      0.132 4.4737e-07     9.4956     93.407     42.649  33.938540     4.6198      6.645   229.4431 7.7934e+02     4.7473      0.129      0.188    14.8185 0.0000e+00
      0.131      0.000     9.4956     93.153     42.638  33.925321     4.6739      6.652   229.6886 7.2590e+02     4.7672      0.129      0.187    14.8124 0.0000e+00
      0.131      0.000     9.4929     92.872     42.643  33.924687     4.7753      6.658   229.8636 7.5864e+02     4.8101      0.129      0.187    14.8016 0.0000e+00
      0.131      0.001     9.4827     92.622     42.655  33.930870     4.8218      6.665   230.0099 8.3953e+02     4.7874      0.129      0.187    14.7912 0.0000e+00
      0.132      0.002     9.4641     92.413     42.667  33.936628     4.8115      6.673   230.2538 8.0520e+02     4.7315      0.129      0.188    14.7832 0.0000e+00
      0.132      0.002     9.4396     92.275     42.666  33.930856     4.6930      6.679   230.4891 7.6512e+02     4.6813      0.129      0.187    14.7783 0.0000e+00
      0.133      0.003     9.4072     92.223     42.664  33.924522     4.4952      6.684   230.6179 7.6643e+02     4.6582      0.131      0.189    14.7738 0.0000e+00
      0.134      0.003     9.3851     92.200     42.668  33.923483     4.3922      6.690   230.6923 7.3273e+02     4.6236      0.131      0.191    14.7692 0.0000e+00
      0.135      0.003     9.3624     92.134     42.666  33.918284     4.3805      6.697   230.7858 6.7297e+02     4.5707      0.132      0.192    14.7655 0.0000e+00
      0.135      0.003     9.3481     92.021     42.676  33.925108     4.4110      6.704   230.9744 6.4855e+02     4.5989      0.133      0.193    14.7603 0.0000e+00
      0.136      0.003     9.3474     91.910     42.700  33.942537     4.4704      6.710   231.1656 6.5303e+02     4.7253      0.133      0.193    14.7542 0.0000e+00
      0.137      0.004     9.3483     91.773     42.696  33.938680     4.5076      6.717   231.2912 6.8968e+02     4.8696      0.134      0.195    14.7490 0.0000e+00
      0.138      0.006     9.3451     91.609     42.699  33.941925     4.5194      6.722   231.4607 7.4771e+02     4.8744      0.136      0.197    14.7450 0.0000e+00
      0.139      0.008     9.3264     91.407     42.741  33.981780     4.5223      6.726   231.5798 7.3576e+02     4.7498      0.136      0.198    14.7434 0.0000e+00
      0.141      0.009     9.3221     91.122     42.796  34.039891     4.5752      6.729   231.6987 7.5712e+02     4.6947      0.138      0.200    14.7423 0.0000e+00
      0.144      0.009     9.3053     90.763     42.812  34.073544     4.6848      6.733   231.9523 8.1066e+02     4.7550      0.142      0.205    14.7409 0.0000e+00
      0.148      0.008     9.2889     90.326     42.786  34.071480     4.7493      6.736   232.1513 7.4143e+02     4.8291      0.147      0.212    14.7403 0.0000e+00
      0.151      0.006     9.2722     89.805     42.778  34.078400     4.7641      6.739   232.1256 6.4976e+02     4.8056      0.149      0.216    14.7450 0.0000e+00
      0.152      0.004     9.2356     89.189     42.789  34.093788     4.7635      6.741   232.1578 6.1740e+02     4.7097      0.150      0.217    14.7636 0.0000e+00
      0.152      0.002     9.1966     88.501     42.830  34.130652     4.7495      6.744   232.3680 6.4021e+02     4.6944      0.150      0.217    14.7919 0.0000e+00
      0.151      0.000     9.1453     87.769     42.921  34.206897     4.7455      6.749   232.4304 7.4190e+02     4.7918      0.148      0.215    14.8158 0.0000e+00
      0.151      0.000     9.0927     87.034     42.974  34.254306     4.7482      6.754   232.3109 8.1077e+02     4.8627      0.148      0.214    14.8300 0.0000e+00
      0.151      0.001     9.0264     86.345     42.972  34.259760     4.7232      6.759   232.2991 7.5128e+02     4.8342      0.149      0.215    14.8373 0.0000e+00
      0.151      0.001     8.9555     85.697     42.979  34.272850     4.6683      6.763   232.4591 6.5873e+02     4.7540      0.149      0.215    14.8405 0.0000e+00
      0.152      0.002     8.8806     85.092     42.987  34.285689     4.6427      6.767   232.6108 6.5310e+02     4.7470      0.150      0.217    14.8438 0.0000e+00
      0.153      0.002     8.8005     84.519     42.983  34.288104     4.6464      6.772   232.7571 6.8829e+02     4.8529      0.150      0.217    14.8503 0.0000e+00
      0.154      0.002     8.7319     83.949     42.994  34.302051     4.6139      6.777   232.9373 6.8228e+02     4.9059      0.151      0.218    14.8590 0.0000e+00
      0.154      0.002     8.6636     83.418     43.020  34.327439     4.5490      6.781   233.1551 6.7862e+02     4.8419      0.151      0.219    14.8675 0.0000e+00
      0.155      0.001     8.6005     82.932     43.031  34.341293     4.5107      6.785   233.3256 7.1520e+02     4.7624      0.152      0.220    14.8756 0.0000e+00
      0.155      0.000     8.5451     82.449     43.026  34.342675     4.5084      6.789   233.3637 7.2156e+02     4.7979      0.152      0.220    14.8827 0.0000e+00
      0.155      0.000     8.4826     81.974     43.021  34.344152     4.4961      6.793   233.4444 6.4326e+02     4.8957      0.152      0.220    14.8885 0.0000e+00
      0.155      0.000     8.4275     81.521     43.032  34.359157     4.4618      6.797   233.6127 6.0660e+02     4.8522      0.152      0.220    14.8939 0.0000e+00
      0.154      0.001     8.3811     81.071     43.071  34.397215     4.4355      6.801   233.7628 7.2648e+02     4.7500      0.151      0.219    14.8991 0.0000e+00
      0.154      0.001     8.3296     80.621     43.096  34.423635     4.4199      6.806   233.9695 8.6525e+02     4.7192      0.150      0.218    14.9049 0.0000e+00
      0.154      0.001     8.2795     80.174     43.090  34.424817     4.4141      6.811   234.2189 8.5502e+02     4.6845      0.151      0.218    14.9121 0.0000e+00
      0.155      0.000     8.2340     79.694     43.066  34.411517     4.4649      6.815   234.3691 8.0840e+02     4.6380      0.153      0.222    14.9198 0.0000e+00
      0.156 1.8922e-08     8.1876     79.214     43.031  34.389723     4.5522      6.820   234.4953 8.0627e+02     4.5670      0.154      0.224    14.9272 0.0000e+00
      0.156 2.0814e-07     8.1383     78.754     43.056  34.415112     4.5782      6.826   234.6256 7.7518e+02     4.4740      0.154      0.223    14.9344 0.0000e+00
      0.155 2.4201e-07     8.0974     78.298     43.113  34.464705     4.5630      6.831   234.7404 7.8801e+02     4.4364      0.152      0.220    14.9414 0.0000e+00
      0.155 4.2842e-07     8.0432     77.856     43.129  34.481781     4.5597      6.835   234.9379 8.2796e+02     4.5228      0.151      0.219    14.9487 0.0000e+00
      0.155      0.000     7.9930     77.422     43.139  34.494690     4.5467      6.839   235.1196 7.6708e+02     4.6981      0.152      0.220    14.9565 0.0000e+00
      0.156      0.000     7.9483     77.032     43.130  34.493896     4.5232      6.844   235.2170 7.3187e+02     4.7457      0.153      0.222    14.9624 0.0000e+00
      0.156      0.001     7.8979     76.668     43.095  34.472189     4.5078      6.849   235.3406 7.7856e+02     4.6542      0.153      0.222    14.9664 0.0000e+00
      0.156      0.001     7.8566     76.292     43.103  34.486023     4.5276      6.854   235.4961 7.6506e+02     4.6172      0.153      0.221    14.9714 0.0000e+00
      0.156      0.001     7.8068     75.916     43.154  34.534283     4.5871      6.859   235.6346 7.3178e+02     4.6732      0.152      0.220    14.9775 0.0000e+00
      0.156      0.001     7.7687     75.560     43.163  34.548127     4.6361      6.864   235.7243 7.1690e+02     4.7509      0.153      0.222    14.9841 0.0000e+00
      0.157      0.001     7.7329     75.220     43.128  34.526512     4.6376      6.870   235.7195 6.9224e+02     4.7371      0.154      0.223    14.9921 0.0000e+00
      0.158      0.001     7.6917     74.880     43.121  34.526739     4.6053      6.875   235.7488 6.9145e+02     4.6431      0.155      0.224    15.0009 0.0000e+00
      0.158      0.001     7.6523     74.550     43.143  34.550879     4.5871      6.881   235.9063 7.1970e+02     4.6048      0.155      0.224    15.0087 0.0000e+00
      0.158      0.001     7.6146     74.220     43.152  34.564608     4.6007      6.886   236.1611 7.3075e+02     4.6163      0.155      0.224    15.0161 0.0000e+00
      0.158      0.000     7.5812     73.881     43.146  34.565856     4.6113      6.891   236.4203 7.1067e+02     4.6108      0.155      0.225    15.0237 0.0000e+00
      0.158      0.000     7.5438     73.555     43.138  34.565970     4.5990      6.895   236.5456 7.0874e+02     4.6071      0.155      0.225    15.0312 0.0000e+00
      0.158      0.001     7.5101     73.252     43.131  34.565995     4.5764      6.900   236.5586 7.1143e+02     4.6742      0.155      0.225    15.0389 0.0000e+00
      0.158      0.001     7.4769     72.974     43.123  34.566161     4.5713      6.905   236.5775 7.0422e+02     4.7725      0.155      0.225    15.0462 0.0000e+00
      0.158      0.002     7.4397     72.723     43.118  34.567990     4.5871      6.910   236.6876 7.2191e+02     4.7710      0.155      0.225    15.0535 0.0000e+00
      0.158      0.004     7.4056     72.467     43.136  34.588115     4.5926      6.915   236.7712 7.2704e+02     4.6902      0.155      0.225    15.0607 0.0000e+00
      0.159      0.006     7.3745     72.194     43.168  34.619147     4.5961      6.919   236.9002 6.7987e+02     4.6498      0.156      0.227    15.0675 0.0000e+00
      0.161      0.007     7.3440     71.934     43.171  34.625968     4.6211      6.923   237.1289 6.5262e+02     4.7264      0.158      0.229    15.0745 0.0000e+00
      0.164      0.007     7.3202     71.714     43.141  34.607154     4.6447      6.926   237.2129 7.4482e+02     4.8305      0.161      0.233    15.0814 0.0000e+00
      0.167      0.007     7.2938     71.525     43.104  34.582019     4.6572      6.929   237.2277 8.1566e+02     4.8154      0.164      0.238    15.0882 0.0000e+00
      0.169      0.007     7.2635     71.332     43.090  34.575854     4.6822      6.932   237.3080 7.4029e+02     4.7147      0.166      0.241    15.0947 0.0000e+00
      0.169      0.008     7.2358     71.128     43.110  34.596066     4.7135      6.937   237.4090 6.5316e+02     4.6027      0.166      0.241    15.1004 0.0000e+00
      0.169      0.009     7.2123     70.922     43.155  34.636066     4.7266      6.941   237.5885 6.0620e+02     4.5544      0.165      0.239    15.1053 0.0000e+00
      0.172      0.010     7.1955     70.745     43.206  34.678804     4.7407      6.944   237.7572 6.7973e+02     4.5757      0.168      0.243    15.1115 0.0000e+00
      0.177      0.011     7.1738     70.616     43.194  34.668689     4.7684      6.947   237.8148 8.0115e+02     4.5872      0.173      0.251    15.1179 0.0000e+00
      0.181      0.011     7.1532     70.494     43.156  34.640655     4.7863      6.952   237.9407 7.6796e+02     4.6251      0.177      0.257    15.1220 0.0000e+00
      0.184      0.011     7.1307     70.376     43.169  34.657087     4.7828      6.956   238.1609 6.8781e+02     4.7262      0.180      0.262    15.1274 0.0000e+00
      0.186      0.010     7.1094     70.273     43.184  34.677027     4.7756      6.961   238.3265 6.5239e+02     4.8188      0.182      0.264    15.1302 0.0000e+00
      0.187      0.008     7.1018     70.158     43.193  34.691423     4.7906      6.965   238.3937 6.3991e+02     4.7883      0.183      0.266    15.1271 0.0000e+00
      0.189      0.007     7.0879     70.028     43.200  34.704258     4.8060      6.968   238.4577 6.2326e+02     4.6306      0.186      0.269    15.1278 0.0000e+00
      0.191      0.006     7.0737     69.906     43.194  34.705319     4.8033      6.971   238.6697 6.1980e+02     4.5177      0.188      0.272    15.1368 0.0000e+00
      0.193      0.006     7.0639     69.794     43.185  34.704266     4.8080      6.974   238.9785 6.3556e+02     4.5504      0.189      0.275    15.1471 0.0000e+00
      0.195      0.005     7.0506     69.671     43.162  34.691536     4.8463      6.976   239.1791 6.0996e+02     4.6158      0.191      0.277    15.1559 0.0000e+00
      0.196      0.004     7.0355     69.541     43.137  34.678293     4.9090      6.978   239.2889 6.3850e+02     4.6250      0.192      0.278    15.1641 0.0000e+00
      0.196      0.003     7.0213     69.424     43.119  34.671056     4.9333      6.981   239.3603 7.3728e+02     4.5935      0.192      0.279    15.1712 0.0000e+00
      0.197      0.003     7.0114     69.331     43.107  34.667488     4.9161      6.986   239.3534 7.4649e+02     4.5091      0.193      0.280    15.1773 0.0000e+00
      0.197      0.003     6.9969     69.262     43.138  34.698608     4.9090      6.990   239.3779 6.5919e+02     4.4241      0.193      0.280    15.1836 0.0000e+00
      0.197      0.003     6.9824     69.183     43.172  34.730096     4.8967      6.994   239.4837 5.7765e+02     4.4533      0.194      0.281    15.1916 0.0000e+00
      0.198      0.003     6.9688     69.058     43.168  34.730974     4.8589      6.999   239.6006 5.6305e+02     4.5551      0.194      0.282    15.2002 0.0000e+00
      0.199      0.003     6.9580     68.923     43.135  34.709230     4.8186      7.004   239.6724 5.9197e+02     4.5615      0.196      0.284    15.2078 0.0000e+00
      0.200      0.004     6.9513     68.830     43.065  34.657533     4.7928      7.009   239.6629 6.2786e+02     4.4973      0.197      0.286    15.2142 0.0000e+00
      0.200      0.008     6.9450     68.757     43.005  34.613498     4.7964      7.012   239.6587 6.8487e+02     4.5648      0.196      0.285    15.2201 0.0000e+00
      0.200      0.014     6.9305     68.680     43.014  34.620943     4.8202      7.013   239.7939 7.7717e+02     4.7278      0.195      0.283    15.2242 0.0000e+00
      0.203      0.021     6.9118     68.581     43.095  34.684103     4.8315      7.013   240.0064 8.0431e+02     4.7938      0.198      0.287    15.2285 0.0000e+00
      0.209      0.027     6.9050     68.455     43.172  34.742691     4.8245      7.013   240.1635 6.8444e+02     4.7489      0.203      0.294    15.2350 0.0000e+00
      0.219      0.031     6.8964     68.358     43.200  34.758291     4.7938      7.014   240.2306 5.7739e+02     4.6284      0.213      0.309    15.2410 0.0000e+00
      0.232      0.031     6.8895     68.360     43.187  34.745815     4.7595      7.015   240.3017 5.3562e+02     4.5328      0.229      0.332    15.2411 0.0000e+00
      0.244      0.028     6.8814     68.467     43.132  34.718738     4.7598      7.017   240.4217 4.8802e+02     4.5484      0.241      0.350    15.2368 0.0000e+00
      0.251      0.021     6.8664     68.632     43.046  34.684710     4.7638      7.017   240.5622 5.2115e+02     4.5447      0.248      0.358    15.2354 0.0000e+00
      0.253      0.013     6.8546     68.810     42.962  34.651674     4.7167      7.018   240.7958 5.4956e+02     4.4874      0.249      0.360    15.2264 0.0000e+00
      0.253      0.005     6.8566     68.982     42.917  34.636576     4.6475      7.021   241.0093 4.4554e+02     4.4706      0.248      0.360    15.2136 0.0000e+00
      0.253      0.000     6.8668     69.131     42.898  34.629081     4.6261      7.024   241.0779 3.6843e+02     4.5128      0.248      0.360    15.2342 0.0000e+00
      0.252     -0.001     6.8771     69.201     42.893  34.624515     4.6417      7.028   241.1099 3.8255e+02     4.5882      0.247      0.358    15.2863 0.0000e+00
      0.250      0.001     6.8894     69.151     42.920  34.644805     4.6358      7.033   241.2245 4.0204e+02     4.5966      0.245      0.354    15.3305 0.0000e+00
      0.249      0.004     6.9019     68.981     42.969  34.684067     4.6049      7.037   241.4306 4.2787e+02     4.5461      0.243      0.352    15.3550 0.0000e+00
      0.249      0.009     6.9199     68.741     43.006  34.718539     4.5840      7.040   241.6223 4.5398e+02     4.5236      0.243      0.353    15.3625 0.0000e+00
      0.253      0.013     6.9276     68.505     43.021  34.744374     4.5837      7.044   241.7353 4.5139e+02     4.5295      0.246      0.358    15.3578 0.0000e+00
      0.259      0.015     6.9242     68.303     42.994  34.742656     4.5924      7.047   241.8515 4.6356e+02     4.5491      0.253      0.367    15.3545 0.0000e+00
      0.266      0.015     6.9051     68.159     42.917  34.697798     4.6223      7.051   241.9947 4.7222e+02     4.5895      0.262      0.379    15.3545 0.0000e+00
      0.271      0.014     6.8765     68.064     42.843  34.646157     4.6796      7.056   242.0040 4.2838e+02     4.7106      0.266      0.386    15.3569 0.0000e+00
      0.274      0.012     6.8518     68.012     42.819  34.625850     4.7360      7.060   241.9639 3.9313e+02     4.8178      0.269      0.390    15.3735 0.0000e+00
      0.274      0.012     6.8242     67.988     42.849  34.642611     4.7712      7.064   242.1120 4.1567e+02     4.8618      0.268      0.389    15.4020 0.0000e+00
      0.275      0.012     6.8087     67.938     42.877  34.658467     4.7471      7.067   242.4176 4.4464e+02     4.7982      0.269      0.390    15.4245 0.0000e+00
      0.277      0.013     6.7972     67.871     42.607  34.436867     4.6781      7.069   242.6486 4.3446e+02     4.5606      0.271      0.393    15.4350 0.0000e+00
      0.281      0.015     6.7925     67.890     42.015  33.930091     4.6363      7.072   242.6668 4.2177e+02     4.4488      0.274      0.398    15.4319 0.0000e+00
      0.287      0.015     6.7939     68.160     41.669  33.543256     4.6413      7.076   242.6374 4.1379e+02     4.5392      0.282      0.408    15.4205 0.0000e+00
      0.293      0.015     6.7933     69.526     41.762  33.439371     4.7301      7.080   242.7236 3.9159e+02     4.6637      0.289      0.419    15.4098 0.0000e+00
      0.297      0.014     6.7770     73.342     41.967  33.435133     4.8696      7.083   242.9347 3.7664e+02     4.7919      0.293      0.424    15.4103 0.0000e+00
      0.299      0.012     6.7819     79.790     42.096  33.428364     4.9201      7.086   243.1256 3.8877e+02     4.8258      0.293      0.425    15.4147 0.0000e+00
      0.301      0.009     6.8045     87.745     42.165  33.420848     4.8921      7.089   243.2250 4.0586e+02     4.8348      0.295      0.428    15.2899 0.0000e+00
      0.303      0.008     6.9042     95.968     42.191  33.407637     4.8636      7.093   243.3624 4.0679e+02     4.8327      0.297      0.431    15.0192 0.0000e+00
      0.305      0.009     7.3208    103.554     42.200  33.395469     4.8331      7.098   243.4962 3.9313e+02     4.6631      0.300      0.434    14.8003 0.0000e+00
      0.307      0.011     8.0512    109.902     42.221  33.400593     4.8150      7.102   243.6377 3.6499e+02     4.4920      0.302      0.437    14.6824 0.0000e+00
      0.309      0.014     8.9136    114.549     42.236  33.406141     4.8111      7.103   243.7827 3.4533e+02     4.4718      0.302      0.438    14.6172 0.0000e+00
      0.311      0.019     9.7892    117.080     42.234  33.399097     4.8356      7.104   243.8723 3.5220e+02     4.5900      0.305      0.442    14.5828 0.0000e+00
      0.316      0.025    10.5867    117.591     42.216  33.378864     4.9033      7.105   244.0333 3.7754e+02     4.7936      0.309      0.449    14.5605 0.0000e+00
      0.324      0.030    11.2468    116.790     42.193  33.351823     4.9305      7.106   244.3519 3.9236e+02     4.8499      0.316      0.459    14.5497 0.0000e+00
      0.335      0.036    11.7442    115.425     42.176  33.325909     4.8985      7.108   244.7990 3.9936e+02     4.7239      0.329      0.476    14.5441 0.0000e+00
      0.345      0.041    12.0027    113.970     42.184  33.319301     4.8821      7.108   245.2243 4.0645e+02     4.6370      0.339      0.492    14.5382 0.0000e+00
      0.355      0.044    12.0219    112.599     42.216  33.335346     4.8741      7.109   245.6222 3.7783e+02     4.6877      0.348      0.505    14.5302 0.0000e+00
      0.367      0.045    11.9162    111.363     42.211  33.329568     4.8519      7.109   245.9963 3.6705e+02     4.7905      0.360      0.520    14.5211 0.0000e+00
      0.380      0.044    11.7631    110.352     42.189  33.312888     4.8380      7.110   246.3063 3.9087e+02     4.7860      0.373      0.541    14.5061 0.0000e+00
      0.393      0.041    11.6157    109.589     42.202  33.323997     4.8224      7.113   246.6161 3.8236e+02     4.7022      0.385      0.559    14.4868 0.0000e+00
      0.405      0.037    11.4798    109.004     42.217  33.337007     4.8302      7.118   246.9035 3.6586e+02     4.6656      0.399      0.578    14.4760 0.0000e+00
      0.414      0.034    11.3479    108.553     42.224  33.343295     4.8911      7.122   247.2000 3.5167e+02     4.6509      0.407      0.591    14.4741 0.0000e+00
      0.419      0.034    11.2434    108.214     42.215  33.336582     4.9342      7.123   247.6199 3.3571e+02     4.6266      0.410      0.594    14.4765 0.0000e+00
      0.424      0.039    11.1696    107.962     42.194  33.319289     4.9265      7.119   248.1084 3.2096e+02     4.5768      0.415      0.601    14.4792 0.0000e+00
      0.430      0.049    11.1106    107.758     42.203  33.324538     4.9230      7.112   248.4608 3.0050e+02     4.5610      0.422      0.613    14.4797 0.0000e+00
      0.440      0.058    11.0653    107.562     42.222  33.336603     4.9501      7.105   248.6969 2.8195e+02     4.6755      0.427      0.620    14.4801 0.0000e+00
      0.459      0.063    11.0312    107.357     42.227  33.338267     4.9792      7.103   248.9843 2.5891e+02     4.7990      0.445      0.645    14.4809 0.0000e+00
      0.487      0.064    11.0070    107.177     42.237  33.344658     4.9920      7.104   249.3545 2.4571e+02     4.8248      0.481      0.698    14.4811 0.0000e+00
      0.511      0.060    10.9881    107.047     42.246  33.350436     4.9885      7.106   249.6450 2.4645e+02     4.7485      0.505      0.734    14.4776 0.0000e+00
      0.524      0.053    10.9710    106.960     42.240  33.344680     4.9704      7.109   249.8298 2.4710e+02     4.5936      0.516      0.749    14.4739 0.0000e+00
      0.531      0.044    10.9478    106.902     42.234  33.338496     4.9642      7.113   250.0408 2.4102e+02     4.5227      0.521      0.756    14.4717 0.0000e+00
      0.536      0.039    10.9287    106.840     42.236  33.339119     4.9804      7.118   250.2165 2.3092e+02     4.5739      0.525      0.761    14.4697 0.0000e+00
      0.543      0.040    10.9177    106.763     42.252  33.352214     4.9917      7.123   250.4056 2.2722e+02     4.6319      0.533      0.772    14.4680 0.0000e+00
      0.553      0.047    10.9081    106.683     42.272  33.369933     4.9842      7.127   250.6920 2.2476e+02     4.6780      0.541      0.785    14.4665 0.0000e+00
      0.563      0.053    10.9051    106.595     42.257  33.363031     4.9726      7.131   251.0121 2.1642e+02     4.7211      0.550      0.797    14.4647 0.0000e+00
      0.579      0.055    10.8993    106.505     42.212  33.332210     4.9766      7.135   251.2650 2.0577e+02     4.7779      0.565      0.818    14.4633 0.0000e+00
      0.602      0.052    10.8903    106.442     42.187  33.314501     4.9903      7.139   251.4270 1.9894e+02     4.7835      0.593      0.859    14.4634 0.0000e+00
      0.621      0.047    10.8822    106.416     42.217  33.339244     5.0388      7.143   251.5945 1.9489e+02     4.6526      0.614      0.892    14.4664 0.0000e+00
      0.631      0.039    10.8717    106.427     42.264  33.377601     5.1224      7.147   251.7406 1.9029e+02     4.5616      0.620      0.899    14.4727 0.0000e+00
      0.635      0.029    10.8591    106.491     42.288  33.397616     5.1694      7.152   251.8175 1.8735e+02     4.5711      0.623      0.904    14.4788 0.0000e+00
      0.638      0.020    10.8522    106.588     42.277  33.390912     5.1904      7.156   252.0081 1.8627e+02     4.5622      0.625      0.907    14.4814 0.0000e+00
      0.640      0.015    10.8500    106.683     42.235  33.359996     5.2018      7.161   252.3242 1.8643e+02     4.5230      0.627      0.910    14.4824 0.0000e+00
      0.643      0.014    10.8491    106.770     42.208  33.341022     5.1814      7.166   252.5416 1.8663e+02     4.4728      0.630      0.914    14.4832 0.0000e+00
      0.648      0.015    10.8563    106.837     42.219  33.351838     5.1525      7.171   252.7441 1.8515e+02     4.5023      0.635      0.921    14.4846 0.0000e+00
      0.652      0.016    10.8679    106.867     42.233  33.363884     5.1437      7.175   252.8804 1.8185e+02     4.5719      0.639      0.927    14.4867 0.0000e+00
      0.656      0.017    10.8763    106.877     42.227  33.359779     5.1737      7.178   252.8981 1.7935e+02     4.5966      0.643      0.932    14.4891 0.0000e+00
      0.661      0.017    10.8847    106.862     42.235  33.365650     5.2161      7.183   253.0448 1.7900e+02     4.5956      0.648      0.940    14.4921 0.0000e+00
      0.665      0.017    10.8929    106.814     42.242  33.371427     5.2241      7.187   253.2775 1.7741e+02     4.5596      0.653      0.948    14.4952 0.0000e+00
      0.669      0.016    10.8934    106.783     42.235  33.366188     5.2037      7.191   253.4735 1.7571e+02     4.5377      0.656      0.951    14.4971 0.0000e+00
      0.673      0.014    10.8948    106.807     42.234  33.365754     5.1693      7.195   253.6090 1.7471e+02     4.5701      0.660      0.956    14.4972 0.0000e+00
      0.677      0.013    10.8951    106.846     42.235  33.366179     5.1247      7.199   253.7113 1.7288e+02     4.5756      0.665      0.965    14.4960 0.0000e+00
      0.681      0.013    10.8873    106.853     42.242  33.371323     5.1046      7.204   253.8501 1.7283e+02     4.5359      0.668      0.969    14.4957 0.0000e+00
      0.683      0.014    10.8816    106.845     42.232  33.364505     5.1097      7.209   253.9958 1.7404e+02     4.5001      0.670      0.971    14.4971 0.0000e+00
      0.684      0.017    10.8864    106.845     42.209  33.347188     5.1362      7.213   254.0966 1.7325e+02     4.4841      0.671      0.973    14.4975 0.0000e+00
      0.687      0.020    10.8935    106.853     42.214  33.352276     5.1918      7.215   254.2078 1.7008e+02     4.5132      0.672      0.974    14.4964 0.0000e+00
      0.693      0.022    10.8921    106.851     42.225  33.362571     5.2162      7.218   254.3938 1.6614e+02     4.5106      0.678      0.984    14.4967 0.0000e+00
      0.703      0.023    10.8900    106.829     42.200  33.344786     5.2066      7.222   254.5393 1.6303e+02     4.4521      0.691      1.002    14.4985 0.0000e+00
      0.712      0.023    10.8899    106.803     42.178  33.327573     5.2011      7.226   254.5907 1.6142e+02     4.4208      0.700      1.015    14.4995 0.0000e+00
      0.718      0.022    10.8912    106.785     42.201  33.344781     5.1497      7.230   254.7572 1.6107e+02     4.4733      0.704      1.022    14.5006 0.0000e+00
      0.722      0.019    10.8913    106.788     42.225  33.362520     5.0589      7.233   255.0037 1.5959e+02     4.5754      0.709      1.028    14.5026 0.0000e+00
      0.724      0.017    10.8877    106.817     42.215  33.351712     5.0020      7.236   255.0765 1.5830e+02     4.5619      0.710      1.030    14.5042 0.0000e+00
      0.727      0.015    10.8847    106.850     42.203  33.340989     4.9780      7.239   255.1208 1.5775e+02     4.4808      0.712      1.032    14.5041 0.0000e+00
      0.731      0.015    10.8828    106.880     42.228  33.359756     4.9678      7.243   255.2810 1.5596e+02     4.5172      0.716      1.038    14.5034 0.0000e+00
      0.736      0.016    10.8825    106.904     42.265  33.388291     4.9713      7.246   255.3787 1.5398e+02     4.6602      0.722      1.047    14.5020 0.0000e+00
      0.740      0.016    10.8885    106.901     42.242  33.368786     4.9779      7.248   255.4413 1.5331e+02     4.8100      0.727      1.054    14.4982 0.0000e+00
      0.744      0.014    10.8915    106.871     42.176  33.314251     4.9727      7.250   255.6078 1.5285e+02     4.8249      0.729      1.058    14.4960 0.0000e+00
      0.749      0.010    10.8942    106.818     42.162  33.299899     4.9754      7.253   255.7575 1.5129e+02     4.6697      0.734      1.065    14.4967 0.0000e+00
      0.753      0.005    10.8990    106.747     42.192  33.322147     5.0117      7.257   255.7884 1.5125e+02     4.5390      0.739      1.071    14.4956 0.0000e+00
      0.754     -0.001    10.8979    106.667     42.201  33.329474     5.0535      7.260   255.7233 1.5258e+02     4.5425      0.739      1.072    14.4943 0.0000e+00
      0.753     -0.006    10.8961    106.606     42.193  33.325048     5.0644      7.263   255.6592 1.5400e+02     4.5765      0.739      1.071    14.4914 0.0000e+00
      0.749     -0.009    10.8914    106.585     42.198  33.332072     5.0269      7.266   255.7875 1.5564e+02     4.5400      0.736      1.068    14.4865 0.0000e+00
      0.744     -0.009    10.8846    106.608     42.215  33.350962     4.9738      7.269   255.9838 1.5780e+02     4.4763      0.730      1.059    14.4844 0.0000e+00
      0.738     -0.005    10.8747    106.667     42.223  33.363121     4.9643      7.271   256.0530 1.5914e+02     4.4889      0.722      1.048    14.4855 0.0000e+00
      0.734      0.000    10.8671    106.748     42.207  33.352211     4.9865      7.274   256.1949 1.5967e+02     4.5567      0.717      1.041    14.4887 0.0000e+00
      0.737      0.005    10.8642    106.826     42.205  33.345934     5.0096      7.276   256.4087 1.5862e+02     4.6470      0.721      1.045    14.4909 0.0000e+00
      0.744      0.010    10.8658    106.872     42.222  33.350663     5.0263      7.278   256.4867 1.5498e+02     4.7270      0.730      1.057    14.4962 0.0000e+00
      0.750      0.014    10.8697    106.884     42.222  33.345937     5.0218      7.280   256.5355 1.5387e+02     4.7371      0.737      1.068    14.5059 0.0000e+00
      0.753      0.016    10.8778    106.866     42.229  33.352224     5.0228      7.283   256.6554 1.5401e+02     4.7696      0.740      1.073    14.5099 0.0000e+00
      0.755      0.016    10.8896    106.843     42.242  33.363238     5.0378      7.285   256.7320 1.5322e+02     4.7783      0.740      1.073    14.5030 0.0000e+00
      0.757      0.017    10.8960    106.821     42.230  33.352223     5.0620      7.287   256.7730 1.5255e+02     4.7060      0.742      1.077    14.4894 0.0000e+00
      0.761      0.018    10.9005    106.788     42.225  33.345926     5.1075      7.290   256.9794 1.5066e+02     4.6807      0.745      1.081    14.4828 0.0000e+00
      0.767      0.021    10.8950    106.750     42.230  33.350549     5.1375      7.292   257.2480 1.4799e+02     4.6771      0.751      1.090    14.4871 0.0000e+00
      0.775      0.023    10.8924    106.721     42.220  33.344677     5.1510      7.294   257.2674 1.4620e+02     4.6966      0.760      1.102    14.4896 0.0000e+00
      0.782      0.023    10.8922    106.717     42.210  33.338372     5.1373      7.296   257.1280 1.4568e+02     4.7458      0.767      1.113    14.4852 0.0000e+00
      0.787      0.023    10.8885    106.712     42.209  33.337758     5.0724      7.298   257.1119 1.4454e+02     4.7256      0.771      1.119    14.4817 0.0000e+00
      0.793      0.023    10.8850    106.698     42.209  33.337248     5.0234      7.301   257.2447 1.4284e+02     4.7259      0.778      1.128    14.4832 0.0000e+00
      0.798      0.022    10.8786    106.690     42.202  33.332208     5.0192      7.303   257.3563 1.4144e+02     4.7836      0.784      1.136    14.4862 0.0000e+00
      0.803      0.021    10.8809    106.677     42.211  33.340272     5.0298      7.305   257.4291 1.3956e+02     4.8085      0.786      1.141    14.4881 0.0000e+00
      0.808      0.020    10.8803    106.669     42.249  33.371302     5.0438      7.308   257.5226 1.3722e+02     4.8218      0.792      1.148    14.4880 0.0000e+00
      0.815      0.019    10.8773    106.676     42.272  33.390173     5.0373      7.310   257.6262 1.3617e+02     4.7728      0.801      1.161    14.4870 0.0000e+00
      0.821      0.017    10.8786    106.701     42.257  33.378109     5.0190      7.312   257.7351 1.3550e+02     4.6948      0.806      1.169    14.4870 0.0000e+00
      0.824      0.015    10.8754    106.752     42.226  33.352326     5.0394      7.315   257.8070 1.3449e+02     4.6643      0.808      1.172    14.4887 0.0000e+00
      0.827      0.014    10.8739    106.803     42.202  33.332208     5.0915      7.318   257.8078 1.3398e+02     4.6428      0.811      1.177    14.4904 0.0000e+00
      0.829      0.013    10.8751    106.831     42.194  33.325184     5.1161      7.321   257.7449 1.3349e+02     4.6060      0.814      1.180    14.4908 0.0000e+00
      0.832      0.014    10.8764    106.865     42.202  33.330847     5.1040      7.323   257.8204 1.3313e+02     4.5274      0.815      1.182    14.4902 0.0000e+00
      0.836      0.017    10.8830    106.916     42.210  33.337229     5.1119      7.325   258.0320 1.3207e+02     4.5116      0.818      1.187    14.4895 0.0000e+00
      0.840      0.019    10.8907    106.955     42.213  33.338902     5.1528      7.327   258.0664 1.3107e+02     4.5860      0.824      1.195    14.4882 0.0000e+00
      0.845      0.021    10.8915    106.960     42.228  33.351069     5.1666      7.329   258.0646 1.2975e+02     4.6075      0.828      1.200    14.4863 0.0000e+00
      0.852      0.021    10.8944    106.932     42.238  33.357461     5.1614      7.331   258.1824 1.2729e+02     4.5667      0.834      1.209    14.4855 0.0000e+00
      0.860      0.021    10.9017    106.911     42.233  33.352742     5.1647      7.333   258.3723 1.2609e+02     4.5368      0.844      1.225    14.4859 0.0000e+00
      0.865      0.020    10.9057    106.901     42.240  33.357457     5.1483      7.336   258.5535 1.2537e+02     4.5530      0.850      1.232    14.4859 0.0000e+00
      0.869      0.019    10.9075    106.865     42.235  33.351018     5.1304      7.340   258.5670 1.2408e+02     4.5925      0.852      1.236    14.4857 0.0000e+00
      0.873      0.018    10.9018    106.818     42.223  33.338330     5.1154      7.343   258.6210 1.2364e+02     4.5697      0.857      1.243    14.4850 0.0000e+00
      0.877      0.016    10.8996    106.774     42.216  33.330937     5.0999      7.346   258.7757 1.2319e+02     4.5166      0.859      1.246    14.4835 0.0000e+00
      0.880      0.016    10.9026    106.714     42.211  33.325069     5.1171      7.348   258.8037 1.2199e+02     4.5648      0.863      1.252    14.4815 0.0000e+00
      0.885      0.016    10.8974    106.635     42.221  33.330828     5.1400      7.349   258.7872 1.2065e+02     4.7084      0.868      1.259    14.4791 0.0000e+00
      0.890      0.016    10.8923    106.567     42.234  33.337114     5.1432      7.351   258.8347 1.1974e+02     4.8180      0.872      1.266    14.4755 0.0000e+00
      0.895      0.016    10.8909    106.536     42.242  33.337624     5.1400      7.354   258.9473 1.1923e+02     4.7975      0.878      1.274    14.4722 0.0000e+00
      0.898      0.016    10.8845    106.531     42.245  33.336991     5.1173      7.356   259.0302 1.1884e+02     4.6994      0.881      1.277    14.4707 0.0000e+00
      0.901      0.015    10.8759    106.523     42.237  33.329446     5.0848      7.357   259.0625 1.1794e+02     4.6565      0.882      1.280    14.4698 0.0000e+00
      0.906      0.014    10.8684    106.512     42.214  33.309846     5.0799      7.360   259.1662 1.1689e+02     4.7233      0.888      1.289    14.4648 0.0000e+00
      0.911      0.014    10.8678    106.522     42.190  33.290341     5.0923      7.363   259.2517 1.1634e+02     4.8234      0.894      1.297    14.4556 0.0000e+00
      0.914      0.015    10.8704    106.568     42.183  33.283939     5.0760      7.365   259.3217 1.1568e+02     4.8425      0.897      1.301    14.4515 0.0000e+00
      0.916      0.017    10.8689    106.619     42.199  33.295889     5.0327      7.366   259.4099 1.1500e+02     4.7834      0.898      1.303    14.4518 0.0000e+00
      0.920      0.018    10.8678    106.645     42.218  33.307934     5.0183      7.368   259.4576 1.1414e+02     4.7570      0.900      1.305    14.4502 0.0000e+00
      0.925      0.020    10.8670    106.641     42.222  33.302686     5.0352      7.370   259.4682 1.1302e+02     4.7974      0.906      1.313    14.4488 0.0000e+00
      0.931      0.021    10.8745    106.623     42.226  33.295871     5.0454      7.372   259.5378 1.1176e+02     4.8280      0.913      1.324    14.4484 0.0000e+00
      0.938      0.021    10.8806    106.610     42.225  33.288970     5.0429      7.373   259.6983 1.1010e+02     4.7851      0.920      1.334    14.4479 0.0000e+00
      0.944      0.020    10.8834    106.610     42.221  33.282674     5.0291      7.374   259.7733 1.0880e+02     4.6883      0.927      1.345    14.4478 0.0000e+00
      0.949      0.017    10.8854    106.620     42.226  33.283193     5.0288      7.376   259.8419 1.0834e+02     4.6831      0.932      1.351    14.4355 0.0000e+00
      0.952      0.015    10.8865    106.600     42.244  33.295243     5.0393      7.378   260.0115 1.0788e+02     4.7564      0.933      1.354    14.4188 0.0000e+00
      0.955      0.013    10.8863    106.535     42.253  33.301469     5.0469      7.379   260.1037 1.0732e+02     4.7200      0.936      1.358    14.4148 0.0000e+00
      0.957      0.011    10.8861    106.474     42.245  33.295034     5.0546      7.382   260.0965 1.0683e+02     4.6180      0.938      1.361    14.4114 0.0000e+00
      0.960      0.011    10.8911    106.470     42.228  33.280877     5.0496      7.385   260.0955 1.0607e+02     4.5484      0.941      1.364    14.4069 0.0000e+00
      0.964      0.011    10.8901    106.494     42.201  33.257181     5.0446      7.387   260.0928 1.0525e+02     4.5274      0.945      1.371    14.4042 0.0000e+00
      0.967      0.012    10.8821    106.533     42.210  33.262301     5.0360      7.389   260.0630 1.0505e+02     4.6033      0.948      1.376    14.4030 0.0000e+00
      0.968      0.016    10.8713    106.598     42.230  33.279331     5.0032      7.390   260.0794 1.0483e+02     4.6807      0.949      1.375    14.4044 0.0000e+00
      0.971      0.021    10.8745    106.663     42.222  33.272767     4.9722      7.391   260.2045 1.0379e+02     4.6778      0.950      1.378    14.4028 0.0000e+00
      0.976      0.025    10.8790    106.721     42.197  33.246386     4.9707      7.393   260.3715 1.0240e+02     4.6705      0.956      1.387    14.3989 0.0000e+00
      0.983      0.028    10.8804    106.752     42.171  33.214119     5.0093      7.394   260.4641 1.0021e+02     4.6604      0.963      1.397    14.3963 0.0000e+00
      0.993      0.029    10.8907    106.722     42.164  33.199826     5.0804      7.395   260.4645 9.7562e+01     4.6242      0.973      1.411    14.3982 0.0000e+00
      1.005      0.027    10.8944    106.643     42.168  33.200449     5.1147      7.398   260.5471 9.5497e+01     4.5742      0.988      1.433    14.4026 0.0000e+00
      1.014      0.024    10.9032    106.545     42.190  33.221648     5.0994      7.401   260.6895 9.4602e+01     4.5350      0.997      1.446    14.3938 0.0000e+00
      1.017      0.020    10.9139    106.436     42.238  33.265823     5.0698      7.403   260.7230 9.4721e+01     4.5255      0.998      1.448    14.3741 0.0000e+00
      1.018      0.017    10.9117    106.332     42.263  33.290465     5.0394      7.403   260.7798 9.4528e+01     4.5279      0.998      1.448    14.3630 0.0000e+00
      1.020      0.019    10.9029    106.259     42.229  33.265822     5.0402      7.404   260.8603 9.3730e+01     4.5297      1.000      1.450    14.3616 0.0000e+00
      1.024      0.025    10.8915    106.215     42.176  33.221647     5.0463      7.405   260.9228 9.2631e+01     4.4797      1.004      1.455    14.3668 0.0000e+00
      1.029      0.034    10.8782    106.204     42.161  33.200447     5.0389      7.406   261.0183 9.1465e+01     4.4349      1.010      1.464    14.3765 0.0000e+00
      1.038      0.040    10.8636    106.205     42.176  33.199810     5.0501      7.407   261.1548 8.9190e+01     4.5004      1.014      1.471    14.3824 0.0000e+00
      1.053      0.041    10.8571    106.157     42.205  33.213935     5.0661      7.406   261.2827 8.5331e+01     4.5889      1.030      1.493    14.3859 0.0000e+00
      1.073      0.038    10.8518    106.052     42.246  33.244331     5.0655      7.406   261.2737 8.2362e+01     4.6167      1.057      1.532    14.3853 0.0000e+00
      1.086      0.032    10.8539    105.908     42.249  33.250112     5.0513      7.408   261.3046 8.1257e+01     4.5969      1.069      1.550    14.3710 0.0000e+00
      1.090      0.024    10.8630    105.738     42.204  33.220391     5.0691      7.410   261.3977 8.1119e+01     4.5884      1.071      1.552    14.3522 0.0000e+00
      1.090      0.015    10.8596    105.587     42.175  33.202206     5.1315      7.410   261.4532 8.1381e+01     4.6178      1.070      1.551    14.3413 0.0000e+00
      1.089      0.010    10.8484    105.493     42.194  33.220563     5.1562      7.411   261.5452 8.1656e+01     4.5761      1.067      1.548    14.3398 0.0000e+00
      1.089      0.010    10.8323    105.454     42.232  33.252014     5.1506      7.412   261.6499 8.1432e+01     4.4932      1.067      1.547    14.3462 0.0000e+00
      1.092      0.013    10.8113    105.471     42.251  33.265264     5.1808      7.413   261.7728 8.0679e+01     4.5382      1.071      1.552    14.3540 0.0000e+00
      1.097      0.017    10.7918    105.543     42.241  33.253887     5.2297      7.414   261.8273 7.9665e+01     4.6760      1.076      1.560    14.3599 0.0000e+00
      1.103      0.020    10.7829    105.642     42.228  33.241336     5.2677      7.416   261.7913 7.8427e+01     4.7926      1.082      1.569    14.3635 0.0000e+00
      1.111      0.020    10.7780    105.721     42.227  33.240388     5.2903      7.418   261.8540 7.7238e+01     4.8216      1.089      1.579    14.3657 0.0000e+00
      1.117      0.020    10.7796    105.751     42.228  33.242429     5.2954      7.420   261.8980 7.6426e+01     4.6847      1.097      1.590    14.3643 0.0000e+00
      1.121      0.019    10.7901    105.756     42.258  33.266012     5.2956      7.421   261.8924 7.6046e+01     4.5038      1.100      1.595    14.3580 0.0000e+00
      1.124      0.018    10.8022    105.741     42.265  33.271766     5.3099      7.423   262.0449 7.5670e+01     4.4796      1.101      1.597    14.3543 0.0000e+00
      1.128      0.017    10.8127    105.698     42.235  33.248553     5.3357      7.424   262.1921 7.4941e+01     4.5627      1.105      1.603    14.3553 0.0000e+00
      1.133      0.017    10.8126    105.675     42.223  33.239124     5.3655      7.426   262.2100 7.4186e+01     4.5858      1.112      1.612    14.3567 0.0000e+00
      1.138      0.018    10.8132    105.675     42.201  33.221197     5.3954      7.428   262.2619 7.3858e+01     4.5203      1.117      1.620    14.3576 0.0000e+00
      1.141      0.019    10.8133    105.664     42.204  33.222119     5.4215      7.429   262.3887 7.3333e+01     4.5220      1.119      1.623    14.3582 0.0000e+00
      1.145      0.018    10.8050    105.659     42.241  33.250269     5.4488      7.429   262.4527 7.2206e+01     4.6059      1.122      1.627    14.3585 0.0000e+00
      1.152      0.018    10.8027    105.679     42.235  33.244344     5.4840      7.431   262.5201 7.1050e+01     4.6800      1.129      1.638    14.3583 0.0000e+00
      1.158      0.018    10.8058    105.694     42.196  33.213930     5.5141      7.435   262.6014 7.0377e+01     4.7360      1.137      1.650    14.3582 0.0000e+00
      1.162      0.018    10.8035    105.686     42.177  33.199749     5.5222      7.437   262.5751 7.0200e+01     4.7359      1.140      1.654    14.3564 0.0000e+00
      1.164      0.017    10.8018    105.654     42.176  33.199764     5.5320      7.438   262.5463 6.9965e+01     4.7477      1.141      1.655    14.3541 0.0000e+00
      1.168      0.017    10.8068    105.580     42.194  33.214116     5.5239      7.439   262.5978 6.9290e+01     4.7755      1.145      1.659    14.3532 0.0000e+00
      1.173      0.018    10.8087    105.490     42.236  33.246389     5.4832      7.440   262.7664 6.8455e+01     4.7302      1.151      1.670    14.3525 0.0000e+00
      1.178      0.019    10.8068    105.424     42.272  33.272761     5.4554      7.441   262.9499 6.7893e+01     4.6447      1.156      1.676    14.3534 0.0000e+00
      1.183      0.021    10.8053    105.374     42.283  33.279210     5.4377      7.443   263.0103 6.7128e+01     4.5607      1.160      1.681    14.3556 0.0000e+00
      1.189      0.021    10.7959    105.314     42.264  33.260907     5.4357      7.445   263.0664 6.6126e+01     4.5356      1.166      1.691    14.3558 0.0000e+00
      1.194      0.020    10.7846    105.255     42.244  33.241785     5.4646      7.447   263.1120 6.5450e+01     4.6144      1.171      1.698    14.3542 0.0000e+00
      1.199      0.020    10.7793    105.207     42.242  33.238330     5.4952      7.448   263.1315 6.4730e+01     4.7278      1.176      1.705    14.3530 0.0000e+00
      1.204      0.020    10.7762    105.163     42.220  33.219130     5.4987      7.449   263.2158 6.4010e+01     4.7451      1.182      1.714    14.3506 0.0000e+00
      1.209      0.020    10.7703    105.141     42.199  33.199980     5.4817      7.452   263.2706 6.3591e+01     4.6869      1.186      1.721    14.3462 0.0000e+00
      1.214      0.019    10.7645    105.132     42.198  33.197115     5.4885      7.454   263.2778 6.3103e+01     4.7064      1.189      1.724    14.3403 0.0000e+00
      1.219      0.017    10.7622    105.126     42.183  33.184478     5.5310      7.455   263.2169 6.2341e+01     4.7773      1.195      1.731    14.3379 0.0000e+00
      1.224      0.017    10.7552    105.147     42.168  33.174072     5.5553      7.456   263.2224 6.1718e+01     4.7579      1.202      1.742    14.3378 0.0000e+00
      1.229      0.017    10.7546    105.177     42.199  33.198179     5.5401      7.457   263.3449 6.1441e+01     4.7103      1.206      1.749    14.3341 0.0000e+00
      1.231      0.017    10.7566    105.202     42.229  33.222184     5.5229      7.458   263.4074 6.1151e+01     4.6807      1.207      1.750    14.3298 0.0000e+00
      1.234      0.018    10.7526    105.233     42.213  33.210544     5.5299      7.459   263.5483 6.0588e+01     4.6046      1.210      1.754    14.3299 0.0000e+00
      1.239      0.018    10.7567    105.250     42.179  33.184337     5.5501      7.461   263.6709 5.9868e+01     4.5419      1.216      1.762    14.3323 0.0000e+00
      1.244      0.019    10.7602    105.229     42.146  33.159084     5.5584      7.462   263.6858 5.9223e+01     4.5033      1.220      1.770    14.3327 0.0000e+00
      1.250      0.019    10.7611    105.177     42.146  33.158979     5.5728      7.463   263.7282 5.8551e+01     4.5138      1.225      1.777    14.3318 0.0000e+00
      1.255      0.019    10.7658    105.119     42.176  33.183079     5.5997      7.465   263.7534 5.7901e+01     4.5654      1.232      1.787    14.3332 0.0000e+00
      1.260      0.019    10.7677    105.066     42.191  33.196703     5.6176      7.467   263.8193 5.7414e+01     4.5809      1.237      1.794    14.3354 0.0000e+00
      1.264      0.020    10.7656    105.024     42.189  33.196822     5.6308      7.468   264.0081 5.7065e+01     4.5659      1.240      1.798    14.3352 0.0000e+00
      1.269      0.020    10.7588    104.988     42.171  33.184517     5.6341      7.470   264.1433 5.6595e+01     4.5195      1.243      1.803    14.3345 0.0000e+00
      1.274      0.020    10.7528    104.952     42.156  33.174812     5.6491      7.472   264.0770 5.5822e+01     4.5323      1.248      1.810    14.3354 0.0000e+00
      1.281      0.021    10.7465    104.954     42.195  33.206367     5.7032      7.472   264.0671 5.5033e+01     4.5845      1.256      1.822    14.3374 0.0000e+00
      1.287      0.022    10.7416    105.004     42.249  33.248827     5.7474      7.473   264.2818 5.4395e+01     4.5696      1.263      1.832    14.3391 0.0000e+00
      1.291      0.022    10.7391    105.035     42.244  33.244099     5.7504      7.475   264.4365 5.3961e+01     4.5576      1.267      1.838    14.3413 0.0000e+00
      1.296      0.021    10.7319    105.020     42.204  33.212640     5.7489      7.476   264.3886 5.3454e+01     4.5417      1.270      1.842    14.3445 0.0000e+00
      1.302      0.020    10.7306    104.980     42.169  33.185672     5.7622      7.477   264.3905 5.2668e+01     4.5137      1.276      1.850    14.3450 0.0000e+00
      1.309      0.019    10.7405    104.931     42.151  33.171799     5.7786      7.478   264.5461 5.1860e+01     4.5265      1.284      1.862    14.3448 0.0000e+00
      1.315      0.019    10.7444    104.903     42.154  33.171790     5.7806      7.480   264.6350 5.1365e+01     4.4922      1.289      1.871    14.3448 0.0000e+00
      1.318      0.019    10.7406    104.891     42.174  33.185567     5.7689      7.480   264.6053 5.1141e+01     4.4400      1.292      1.874    14.3442 0.0000e+00
      1.320      0.018    10.7374    104.877     42.209  33.211487     5.7622      7.481   264.6175 5.0742e+01     4.4757      1.294      1.876    14.3460 0.0000e+00
      1.325      0.018    10.7295    104.903     42.237  33.231413     5.7671      7.482   264.6962 5.0084e+01     4.5477      1.298      1.882    14.3461 0.0000e+00
      1.331      0.019    10.7280    104.989     42.245  33.236151     5.7781      7.484   264.7818 4.9439e+01     4.5939      1.306      1.894    14.3433 0.0000e+00
      1.337      0.020    10.7295    105.084     42.206  33.205329     5.7526      7.485   264.8783 4.9026e+01     4.5559      1.312      1.903    14.3406 0.0000e+00
      1.341      0.021    10.7256    105.151     42.167  33.175968     5.6845      7.486   265.0023 4.8655e+01     4.4638      1.315      1.908    14.3380 0.0000e+00
      1.346      0.021    10.7275    105.190     42.196  33.198362     5.6449      7.487   265.0765 4.8129e+01     4.4373      1.318      1.913    14.3355 0.0000e+00
      1.351      0.021    10.7400    105.195     42.227  33.222313     5.6487      7.488   265.0880 4.7552e+01     4.5085      1.324      1.920    14.3338 0.0000e+00
      1.357      0.022    10.7515    105.176     42.214  33.211794     5.6722      7.489   265.1405 4.6891e+01     4.6073      1.331      1.930    14.3336 0.0000e+00
      1.364      0.023    10.7564    105.160     42.196  33.198064     5.7042      7.491   265.1959 4.6239e+01     4.6075      1.338      1.941    14.3356 0.0000e+00
      1.369      0.025    10.7617    105.154     42.177  33.183194     5.7189      7.493   265.1553 4.5789e+01     4.5115      1.344      1.949    14.3362 0.0000e+00
      1.374      0.026    10.7619    105.153     42.147  33.158881     5.7258      7.493   265.1650 4.5314e+01     4.5046      1.346      1.952    14.3338 0.0000e+00
      1.379      0.026    10.7588    105.167     42.147  33.157874     5.7382      7.494   265.3137 4.4577e+01     4.6614      1.351      1.960    14.3328 0.0000e+00
      1.388      0.027    10.7568    105.179     42.166  33.171021     5.7435      7.495   265.4049 4.3765e+01     4.8016      1.361      1.974    14.3342 0.0000e+00
      1.397      0.027    10.7567    105.151     42.194  33.190946     5.7311      7.496   265.4937 4.3100e+01     4.7988      1.371      1.988    14.3351 0.0000e+00
      1.404      0.027    10.7561    105.098     42.219  33.208448     5.7047      7.496   265.6119 4.2502e+01     4.7307      1.377      1.996    14.3340 0.0000e+00
      1.410      0.026    10.7576    105.043     42.200  33.192307     5.6985      7.497   265.6294 4.1917e+01     4.7294      1.383      2.006    14.3322 0.0000e+00
      1.417      0.024    10.7629    104.988     42.192  33.186120     5.6815      7.498   265.7050 4.1396e+01     4.7830      1.390      2.017    14.3304 0.0000e+00
      1.423      0.023    10.7586    104.928     42.205  33.197083     5.6240      7.499   265.8386 4.0968e+01     4.7976      1.396      2.025    14.3275 0.0000e+00
      1.427      0.023    10.7528    104.863     42.205  33.197977     5.5695      7.501   265.8683 4.0612e+01     4.7697      1.401      2.032    14.3252 0.0000e+00
      1.432      0.022    10.7479    104.814     42.203  33.196924     5.5387      7.502   265.8048 4.0100e+01     4.7188      1.405      2.037    14.3242 0.0000e+00
      1.439      0.021    10.7419    104.764     42.187  33.184358     5.5599      7.504   265.8461 3.9449e+01     4.7284      1.411      2.047    14.3240 0.0000e+00
      1.446      0.020    10.7372    104.738     42.172  33.172928     5.6088      7.504   266.0232 3.8940e+01     4.7837      1.419      2.058    14.3244 0.0000e+00
      1.452      0.020    10.7269    104.773     42.187  33.185607     5.6134      7.505   266.0540 3.8622e+01     4.7722      1.424      2.066    14.3253 0.0000e+00
      1.455      0.021    10.7246    104.839     42.220  33.210774     5.5910      7.506   265.9595 3.8326e+01     4.7270      1.426      2.069    14.3269 0.0000e+00
      1.459      0.021    10.7183    104.920     42.237  33.223453     5.5628      7.508   265.9133 3.7911e+01     4.7155      1.430      2.074    14.3275 0.0000e+00
      1.465      0.022    10.7115    104.995     42.224  33.212023     5.5220      7.510   265.9261 3.7397e+01     4.7686      1.436      2.082    14.3274 0.0000e+00
      1.471      0.023    10.7196    105.032     42.209  33.199449     5.5055      7.511   266.0284 3.6877e+01     4.7885      1.443      2.092    14.3279 0.0000e+00
      1.478      0.025    10.7247    105.025     42.207  33.198306     5.5053      7.511   266.2037 3.6419e+01     4.7167      1.450      2.102    14.3278 0.0000e+00
      1.484      0.026    10.7348    104.985     42.207  33.198202     5.4868      7.511   266.3251 3.5931e+01     4.7204      1.455      2.110    14.3259 0.0000e+00
      1.491      0.025    10.7447    104.928     42.207  33.198192     5.4565      7.511   266.3766 3.5324e+01     4.7659      1.461      2.119    14.3234 0.0000e+00
      1.499      0.024    10.7483    104.859     42.208  33.198190     5.4380      7.512   266.4824 3.4708e+01     4.7537      1.470      2.132    14.3236 0.0000e+00
      1.506      0.024    10.7473    104.778     42.210  33.198181     5.4463      7.514   266.5725 3.4266e+01     4.7444      1.478      2.144    14.3249 0.0000e+00
      1.512      0.023    10.7418    104.674     42.212  33.198077     5.4486      7.514   266.6056 3.4037e+01     4.7210      1.484      2.152    14.3244 0.0000e+00
      1.515      0.022    10.7369    104.573     42.211  33.196934     5.4067      7.515   266.7106 3.3803e+01     4.7095      1.486      2.155    14.3239 0.0000e+00
      1.520      0.021    10.7285    104.495     42.195  33.184350     5.3483      7.517   266.8094 3.3368e+01     4.7421      1.489      2.159    14.3244 0.0000e+00
      1.527      0.021    10.7225    104.425     42.180  33.172816     5.3252      7.518   266.8531 3.2838e+01     4.7740      1.497      2.171    14.3229 0.0000e+00
      1.534      0.022    10.7108    104.345     42.196  33.184366     5.3270      7.519   266.8950 3.2426e+01     4.7877      1.505      2.182    14.3192 0.0000e+00
      1.539      0.022    10.6995    104.240     42.216  33.197115     5.2699      7.520   266.8861 3.2082e+01     4.7037      1.509      2.189    14.3185 0.0000e+00
      1.544      0.021    10.6928    104.128     42.227  33.200072     5.1595      7.520   266.9175 3.1708e+01     4.5778      1.513      2.195    14.3194 0.0000e+00
      1.550      0.019    10.6856    104.019     42.260  33.220106     5.1072      7.520   267.0164 3.1340e+01     4.5628      1.520      2.204    14.3190 0.0000e+00
      1.555      0.017    10.6790    103.919     42.301  33.249015     5.1127      7.522   267.0498 3.1008e+01     4.5567      1.525      2.213    14.3197 0.0000e+00
      1.559      0.017    10.6670    103.798     42.283  33.232381     5.1257      7.524   267.0624 3.0802e+01     4.5041      1.529      2.218    14.3171 0.0000e+00
      1.561      0.018    10.6577    103.609     42.257  33.209312     5.1394      7.525   267.0832 3.0700e+01     4.4731      1.531      2.220    14.3086 0.0000e+00
      1.564      0.019    10.6481    103.383     42.274  33.223859     5.1452      7.526   267.1287 3.0490e+01     4.4897      1.533      2.224    14.3005 0.0000e+00
      1.569      0.019    10.6388    103.134     42.262  33.217942     5.1539      7.527   267.2696 3.0041e+01     4.5334      1.538      2.230    14.2964 0.0000e+00
      1.576      0.019    10.6319    102.869     42.237  33.201227     5.1789      7.528   267.4097 2.9513e+01     4.5576      1.545      2.241    14.2940 0.0000e+00
      1.583      0.020    10.6092    102.624     42.254  33.212086     5.2056      7.529   267.4460 2.9136e+01     4.5776      1.554      2.254    14.2896 0.0000e+00
      1.589      0.021    10.5864    102.403     42.276  33.222346     5.2109      7.531   267.4505 2.8959e+01     4.6037      1.559      2.262    14.2900 0.0000e+00
      1.592      0.021    10.5600    102.191     42.259  33.198387     5.2005      7.531   267.4641 2.8825e+01     4.6690      1.561      2.264    14.2982 0.0000e+00
      1.595      0.021    10.5288    101.984     42.243  33.176149     5.1127      7.531   267.4378 2.8508e+01     4.7860      1.562      2.266    14.3017 0.0000e+00
      1.600      0.022    10.5053    101.797     42.289  33.207238     4.9324      7.532   267.4764 2.8031e+01     4.8233      1.569      2.275    14.2993 0.0000e+00
      1.608      0.024    10.4843    101.625     42.358  33.257056     4.8177      7.534   267.5868 2.7574e+01     4.7443      1.577      2.288    14.2918 0.0000e+00
      1.615      0.027    10.4679    101.433     42.382  33.270947     4.8000      7.535   267.6538 2.7207e+01     4.6850      1.585      2.299    14.2741 0.0000e+00
      1.622      0.028    10.4479    101.197     42.355  33.248303     4.7848      7.535   267.6841 2.6876e+01     4.7214      1.591      2.307    14.2613 0.0000e+00
      1.628      0.028    10.4295    100.927     42.338  33.237038     4.7510      7.536   267.6958 2.6488e+01     4.8082      1.596      2.314    14.2594 0.0000e+00
      1.636      0.028    10.4148    100.669     42.367  33.261631     4.7158      7.538   267.7097 2.6037e+01     4.8471      1.605      2.327    14.2541 0.0000e+00
      1.645      0.028    10.3977    100.458     42.410  33.291896     4.6918      7.539   267.6800 2.5599e+01     4.8155      1.613      2.340    14.2462 0.0000e+00
      1.651      0.028    10.3743    100.289     42.420  33.285738     4.6939      7.539   267.6809 2.5241e+01     4.8011      1.620      2.350    14.2439 0.0000e+00
      1.657      0.028    10.3430    100.134     42.401  33.250601     4.7079      7.539   267.8924 2.4889e+01     4.8442      1.624      2.356    14.2475 0.0000e+00
      1.664      0.027    10.3145     99.966     42.416  33.247695     4.7035      7.540   268.0858 2.4456e+01     4.8587      1.631      2.366    14.2524 0.0000e+00
      1.673      0.024    10.2928     99.741     42.425  33.250590     4.6903      7.540   268.1268 2.4016e+01     4.8058      1.641      2.381    14.2517 0.0000e+00
      1.681      0.022    10.2815     99.416     42.384  33.222155     4.6820      7.541   268.2161 2.3692e+01     4.7505      1.649      2.392    14.2338 0.0000e+00
      1.686      0.020    10.2724     99.005     42.374  33.221103     4.7035      7.543   268.3056 2.3547e+01     4.7709      1.654      2.399    14.2044 0.0000e+00
      1.688      0.018    10.2615     98.589     42.389  33.237883     4.7494      7.543   268.3478 2.3446e+01     4.8133      1.655      2.401    14.1847 0.0000e+00
      1.691      0.016    10.2416     98.205     42.379  33.234715     4.7709      7.544   268.3827 2.3270e+01     4.8183      1.657      2.404    14.1795 0.0000e+00
      1.695      0.016    10.2062     97.832     42.389  33.246250     4.7636      7.545   268.4683 2.3031e+01     4.7979      1.662      2.410    14.1873 0.0000e+00
      1.700      0.017    10.1581     97.567     42.389  33.250470     4.7193      7.545   268.6085 2.2770e+01     4.7715      1.667      2.417    14.1989 0.0000e+00
      1.704      0.020    10.1100     97.456     42.346  33.222299     4.6602      7.545   268.7025 2.2576e+01     4.8070      1.672      2.425    14.2038 0.0000e+00
      1.709      0.022    10.0770     97.444     42.341  33.222858     4.6485      7.545   268.7441 2.2376e+01     4.8171      1.675      2.430    14.2077 0.0000e+00
      1.714      0.022    10.0290     97.529     42.388  33.257229     4.6524      7.546   268.6816 2.2035e+01     4.7566      1.679      2.435    14.2124 0.0000e+00
      1.721      0.022     9.9991     97.697     42.395  33.257220     4.6240      7.549   268.6346 2.1658e+01     4.7255      1.687      2.447    14.2164 0.0000e+00
      1.728      0.023     9.9919     97.902     42.360  33.222744     4.5878      7.550   268.7784 2.1375e+01     4.7476      1.696      2.459    14.2243 0.0000e+00
      1.734      0.024     9.9854     98.086     42.374  33.221030     4.5813      7.550   268.9573 2.1208e+01     4.7853      1.701      2.467    14.2320 0.0000e+00
      1.737      0.026     9.9973     98.201     42.417  33.236482     4.5958      7.550   269.0773 2.1083e+01     4.8056      1.704      2.471    14.2281 0.0000e+00
      1.742      0.026    10.0174     98.230     42.412  33.219220     4.5963      7.550   269.1959 2.0788e+01     4.7883      1.707      2.475    14.2189 0.0000e+00
      1.750      0.026    10.0425     98.155     42.398  33.202634     4.6043      7.551   269.2739 2.0344e+01     4.7466      1.716      2.488    14.2142 0.0000e+00
      1.760      0.025    10.0658     97.942     42.427  33.226255     4.6335      7.552   269.3318 1.9966e+01     4.7453      1.727      2.504    14.1994 0.0000e+00
      1.768      0.024    10.0844     97.607     42.453  33.251056     4.6501      7.553   269.4654 1.9657e+01     4.8067      1.734      2.515    14.1724 0.0000e+00
      1.774      0.021    10.0911     97.233     42.443  33.248734     4.6555      7.554   269.5981 1.9454e+01     4.8397      1.742      2.525    14.1546 0.0000e+00
      1.779      0.019    10.0863     96.874     42.455  33.261625     4.6653      7.554   269.6456 1.9391e+01     4.7691      1.746      2.532    14.1505 0.0000e+00
      1.780      0.018    10.0647     96.557     42.475  33.280033     4.6849      7.555   269.6963 1.9329e+01     4.7383      1.746      2.532    14.1525 0.0000e+00
      1.781      0.018    10.0236     96.341     42.471  33.280983     4.7095      7.557   269.7803 1.9174e+01     4.8096      1.745      2.531    14.1588 0.0000e+00
      1.786      0.020     9.9820     96.277     42.458  33.273113     4.7220      7.558   269.8016 1.8894e+01     4.8790      1.750      2.539    14.1668 0.0000e+00
      1.794      0.023     9.9445     96.337     42.428  33.248328     4.7272      7.557   269.7811 1.8579e+01     4.8603      1.760      2.552    14.1697 0.0000e+00
      1.802      0.027     9.9093     96.465     42.418  33.235074     4.7389      7.555   269.7908 1.8364e+01     4.7548      1.769      2.564    14.1715 0.0000e+00
      1.808      0.029     9.8819     96.615     42.433  33.239742     4.7561      7.555   269.8332 1.8150e+01     4.7643      1.772      2.571    14.1794 0.0000e+00
      1.814      0.029     9.8765     96.726     42.444  33.241314     4.7770      7.556   269.9501 1.7790e+01     4.8721      1.777      2.577    14.1833 0.0000e+00
      1.824      0.028     9.8863     96.742     42.469  33.254078     4.7999      7.557   270.0846 1.7371e+01     4.9314      1.789      2.595    14.1798 0.0000e+00
      1.834      0.027     9.9011     96.661     42.491  33.267176     4.8165      7.557   270.1686 1.7060e+01     4.9690      1.800      2.611    14.1739 0.0000e+00
      1.841      0.024     9.9215     96.516     42.500  33.272787     4.8115      7.558   270.1923 1.6889e+01     4.9513      1.806      2.619    14.1641 0.0000e+00
      1.845      0.021     9.9376     96.342     42.480  33.258473     4.8051      7.558   270.1983 1.6735e+01     4.9561      1.809      2.623    14.1541 0.0000e+00
      1.850      0.019     9.9408     96.164     42.428  33.221008     4.8319      7.558   270.2416 1.6570e+01     5.0613      1.813      2.630    14.1458 0.0000e+00
      1.854      0.020     9.9318     95.994     42.399  33.200455     4.8607      7.559   270.2858 1.6485e+01     5.0960      1.818      2.638    14.1417 0.0000e+00
      1.856      0.024     9.9160     95.877     42.401  33.200303     4.8612      7.559   270.3886 1.6426e+01     5.0004      1.820      2.639    14.1409 0.0000e+00
      1.859      0.027     9.8962     95.825     42.434  33.219166     4.8632      7.559   270.5376 1.6217e+01     4.9289      1.821      2.641    14.1423 0.0000e+00
      1.868      0.028     9.8780     95.780     42.469  33.238185     4.9593      7.560   270.5391 1.5802e+01     4.9150      1.830      2.653    14.1470 0.0000e+00
      1.881      0.027     9.8572     95.735     42.475  33.239924     5.1331      7.561   270.4931 1.5361e+01     4.8670      1.845      2.675    14.1507 0.0000e+00
      1.893      0.025     9.8432     95.699     42.473  33.240186     5.2084      7.560   270.5835 1.5141e+01     4.7928      1.859      2.697    14.1503 0.0000e+00
      1.898      0.021     9.8454     95.630     42.468  33.241357     5.1874      7.559   270.6856 1.5135e+01     4.7345      1.864      2.703    14.1401 0.0000e+00
      1.899      0.016     9.8424     95.527     42.477  33.254083     5.1874      7.559   270.7813 1.5156e+01     4.7093      1.862      2.701    14.1268 0.0000e+00
      1.900      0.011     9.8369     95.424     42.489  33.267177     5.2241      7.560   270.8800 1.5125e+01     4.7616      1.862      2.701    14.1230 0.0000e+00
      1.901      0.008     9.8363     95.371     42.494  33.272802     5.2733      7.560   270.9330 1.5044e+01     4.8545      1.864      2.704    14.1261 0.0000e+00
      1.904      0.008     9.8273     95.441     42.474  33.258655     5.2918      7.561   270.9920 1.4937e+01     4.8417      1.868      2.708    14.1331 0.0000e+00
      1.908      0.010     9.8126     95.578     42.429  33.223010     5.2644      7.562   271.0768 1.4862e+01     4.7432      1.871      2.714    14.1414 0.0000e+00
      1.910      0.013     9.8016     95.681     42.429  33.222476     5.1667      7.563   271.1843 1.4826e+01     4.7564      1.873      2.717    14.1451 0.0000e+00
      1.911      0.018     9.7892     95.776     42.470  33.252197     5.0178      7.563   271.2592 1.4778e+01     4.8655      1.874      2.718    14.1477 0.0000e+00
      1.914      0.023     9.7991     95.887     42.491  33.265149     4.9375      7.562   271.2934 1.4617e+01     4.9007      1.875      2.720    14.1493 0.0000e+00
      1.921      0.027     9.8215     95.990     42.480  33.252183     4.9283      7.562   271.3405 1.4331e+01     4.8405      1.881      2.729    14.1486 0.0000e+00
      1.931      0.028     9.8264     96.037     42.447  33.222305     4.8818      7.563   271.3120 1.4038e+01     4.7523      1.894      2.747    14.1475 0.0000e+00
      1.942      0.027     9.8378     95.993     42.450  33.221109     4.7996      7.563   271.2921 1.3780e+01     4.7221      1.904      2.763    14.1444 0.0000e+00
      1.952      0.022     9.8501     95.868     42.474  33.237722     4.7656      7.563   271.3589 1.3592e+01     4.7490      1.915      2.778    14.1405 0.0000e+00
      1.958      0.017     9.8642     95.720     42.467  33.232836     4.7715      7.564   271.4310 1.3569e+01     4.7700      1.922      2.787    14.1356 0.0000e+00
      1.958      0.013     9.8719     95.596     42.453  33.225481     4.7212      7.565   271.5612 1.3676e+01     4.7705      1.921      2.786    14.1303 0.0000e+00
      1.955      0.013     9.8675     95.469     42.433  33.212245     4.6236      7.565   271.7288 1.3780e+01     4.7556      1.917      2.781    14.1259 0.0000e+00
      1.954      0.018     9.8540     95.359     42.421  33.199682     4.5901      7.565   271.8237 1.3763e+01     4.7947      1.915      2.778    14.1216 0.0000e+00
      1.958      0.024     9.8339     95.291     42.431  33.200464     4.6072      7.565   271.7618 1.3543e+01     4.8677      1.918      2.781    14.1223 0.0000e+00
      1.968      0.030     9.8250     95.245     42.466  33.221693     4.6059      7.565   271.7540 1.3191e+01     4.8519      1.929      2.798    14.1295 0.0000e+00
      1.983      0.035     9.8077     95.198     42.526  33.266026     4.6163      7.565   271.9023 1.2851e+01     4.7750      1.944      2.820    14.1346 0.0000e+00
      1.996      0.037     9.7963     95.102     42.561  33.292385     4.6573      7.565   272.0053 1.2614e+01     4.7231      1.958      2.841    14.1285 0.0000e+00
      2.005      0.035     9.7944     94.968     42.553  33.286618     4.6946      7.565   272.0538 1.2487e+01     4.7371      1.968      2.855    14.1176 0.0000e+00
      2.012      0.032     9.7893     94.831     42.518  33.259744     4.7168      7.565   272.0588 1.2380e+01     4.8071      1.972      2.860    14.1116 0.0000e+00
      2.018      0.029     9.7899     94.677     42.471  33.221227     4.7017      7.565   272.0648 1.2260e+01     4.8871      1.979      2.870    14.1088 0.0000e+00
      2.023      0.029     9.7781     94.523     42.451  33.201573     4.6537      7.565   272.1266 1.2139e+01     4.9875      1.985      2.878    14.1078 0.0000e+00
      2.029      0.029     9.7617     94.400     42.469  33.212437     4.6348      7.566   272.1180 1.1967e+01     5.0638      1.989      2.884    14.1089 0.0000e+00
      2.038      0.029     9.7499     94.309     42.488  33.225688     4.6480      7.568   272.1329 1.1736e+01     5.0585      1.998      2.898    14.1094 0.0000e+00
      2.048      0.030     9.7330     94.247     42.500  33.234900     4.6805      7.569   272.3069 1.1541e+01     4.9910      2.009      2.914    14.1075 0.0000e+00
      2.057      0.033     9.7167     94.200     42.532  33.260376     4.7279      7.568   272.4146 1.1424e+01     4.9315      2.019      2.928    14.1025 0.0000e+00
      2.063      0.036     9.7057     94.129     42.561  33.279944     4.7550      7.568   272.4028 1.1309e+01     4.9875      2.023      2.935    14.0976 0.0000e+00
      2.069      0.038     9.6967     94.036     42.568  33.281157     4.7756      7.568   272.4220 1.1117e+01     5.0874      2.027      2.939    14.0963 0.0000e+00
      2.079      0.039     9.6898     93.953     42.565  33.275027     4.9026      7.569   272.4749 1.0833e+01     5.1149      2.038      2.954    14.0970 0.0000e+00
      2.094      0.039     9.6878     93.864     42.560  33.269273     5.1077      7.569   272.5263 1.0549e+01     5.0801      2.054      2.979    14.0974 0.0000e+00
      2.106      0.038     9.6811     93.753     42.570  33.275029     5.1998      7.569   272.5274 1.0344e+01     5.0094      2.067      2.998    14.0946 0.0000e+00
      2.116      0.035     9.6694     93.613     42.579  33.281170     5.1843      7.570   272.5737 1.0183e+01     5.0113      2.076      3.012    14.0885 0.0000e+00
      2.124      0.030     9.6644     93.444     42.578  33.280076     5.0778      7.570   272.7427 1.0048e+01     5.0345      2.084      3.023    14.0841 0.0000e+00
      2.129      0.026     9.6560     93.299     42.554  33.261810     4.8781      7.570   272.8489 9.9454e+00     4.9142      2.088      3.028    14.0815 0.0000e+00
      2.133      0.025     9.6447     93.215     42.542  33.250648     4.7511      7.571   272.9117 9.8770e+00     4.7530      2.092      3.034    14.0795 0.0000e+00
      2.138      0.025     9.6322     93.163     42.572  33.272003     4.7316      7.572   272.9859 9.7769e+00     4.6909      2.096      3.040    14.0783 0.0000e+00
      2.145      0.025     9.6112     93.111     42.567  33.266236     4.7751      7.572   273.0583 9.6100e+00     4.7775      2.102      3.049    14.0784 0.0000e+00
      2.153      0.026     9.5945     93.064     42.541  33.244363     4.8521      7.572   273.1839 9.4490e+00     4.9804      2.112      3.063    14.0791 0.0000e+00
      2.162      0.028     9.5881     93.024     42.563  33.261301     4.8812      7.572   273.2145 9.3083e+00     5.0607      2.120      3.075    14.0768 0.0000e+00
      2.169      0.030     9.5854     92.979     42.590  33.280711     4.8687      7.573   273.1705 9.1976e+00     4.9972      2.128      3.086    14.0732 0.0000e+00
      2.174      0.032     9.5794     92.913     42.604  33.288716     4.8600      7.574   273.1676 9.1048e+00     4.9981      2.132      3.092    14.0706 0.0000e+00
      2.181      0.032     9.5747     92.820     42.615  33.294639     4.8251      7.575   273.1790 8.9607e+00     5.0371      2.137      3.100    14.0699 0.0000e+00
      2.190      0.032     9.5709     92.694     42.610  33.288881     4.7553      7.575   273.2228 8.7712e+00     5.0590      2.147      3.114    14.0705 0.0000e+00
      2.201      0.031     9.5679     92.540     42.603  33.282538     4.7062      7.575   273.2672 8.5705e+00     5.0233      2.158      3.129    14.0684 0.0000e+00
      2.212      0.031     9.5616     92.394     42.602  33.281393     4.6972      7.575   273.2851 8.4079e+00     4.9133      2.170      3.148    14.0642 0.0000e+00
      2.220      0.031     9.5532     92.238     42.593  33.275035     4.7801      7.576   273.3540 8.3379e+00     4.8221      2.180      3.162    14.0602 0.0000e+00
      2.223      0.031     9.5418     92.056     42.583  33.269107     4.9516      7.576   273.4977 8.3104e+00     4.7739      2.181      3.162    14.0575 0.0000e+00
      2.226      0.031     9.5227     91.915     42.585  33.273158     5.0562      7.576   273.5592 8.2239e+00     4.7747      2.180      3.163    14.0568 0.0000e+00
      2.235      0.029     9.5089     91.813     42.566  33.260570     5.0537      7.576   273.5824 8.0314e+00     4.7986      2.189      3.174    14.0572 0.0000e+00
      2.248      0.027     9.4955     91.705     42.544  33.243796     5.0050      7.577   273.7779 7.8220e+00     4.8231      2.206      3.199    14.0580 0.0000e+00
      2.260      0.025     9.4713     91.739     42.567  33.260683     4.9582      7.577   273.9434 7.7233e+00     4.9009      2.220      3.219    14.0598 0.0000e+00
      2.265      0.023     9.4543     91.931     42.585  33.274416     4.9458      7.577   273.8633 7.7255e+00     5.0216      2.224      3.225    14.0638 0.0000e+00
      2.265      0.022     9.4527     92.090     42.595  33.282948     4.9388      7.577   273.8411 7.7337e+00     5.0862      2.221      3.221    14.0663 0.0000e+00
      2.265      0.022     9.4291     92.227     42.614  33.300407     4.8648      7.577   274.0193 7.6781e+00     5.0332      2.219      3.218    14.0665 0.0000e+00
      2.270      0.022     9.4289     92.352     42.604  33.295183     4.7256      7.576   274.1250 7.5372e+00     4.9616      2.224      3.225    14.0655 0.0000e+00
      2.281      0.024     9.4676     92.379     42.587  33.283224     4.6454      7.576   274.0875 7.3539e+00     5.0056      2.236      3.243    14.0641 0.0000e+00
      2.292      0.027     9.4746     92.353     42.588  33.282704     4.6440      7.577   274.0817 7.2223e+00     5.0875      2.249      3.262    14.0652 0.0000e+00
      2.298      0.029     9.4875     92.339     42.601  33.288896     4.6010      7.578   274.2271 7.1715e+00     5.0985      2.255      3.271    14.0686 0.0000e+00
      2.302      0.029     9.5085     92.296     42.614  33.294641     4.4995      7.578   274.3822 7.1217e+00     5.0693      2.257      3.273    14.0719 0.0000e+00
      2.307      0.026     9.5049     92.191     42.611  33.288718     4.4329      7.578   274.4089 6.9993e+00     5.0428      2.261      3.278    14.0741 0.0000e+00
      2.317      0.021     9.5001     92.110     42.601  33.280714     4.4198      7.577   274.4629 6.8360e+00     5.0505      2.271      3.293    14.0734 0.0000e+00
      2.327      0.017     9.5013     92.062     42.573  33.261317     4.4333      7.577   274.5198 6.7268e+00     5.0944      2.283      3.311    14.0669 0.0000e+00
      2.332      0.017     9.5034     91.974     42.545  33.244521     4.4454      7.577   274.4939 6.7258e+00     5.0958      2.289      3.322    14.0605 0.0000e+00
      2.331      0.018     9.4852     91.874     42.571  33.267964     4.4327      7.577   274.5807 6.7957e+00     5.0326      2.287      3.317    14.0574 0.0000e+00
      2.327      0.020     9.4770     91.792     42.600  33.290994     4.4214      7.577   274.7082 6.8112e+00     5.0145      2.279      3.306    14.0559 0.0000e+00
      2.330      0.021     9.4788     91.764     42.575  33.269211     4.4342      7.577   274.6601 6.6755e+00     5.0816      2.280      3.308    14.0596 0.0000e+00
      2.341      0.021     9.4622     91.801     42.561  33.258351     4.5041      7.578   274.6003 6.4749e+00     5.1605      2.296      3.330    14.0672 0.0000e+00
      2.356      0.021     9.4529     91.853     42.593  33.286580     4.5996      7.578   274.6737 6.3649e+00     5.1815      2.313      3.354    14.0715 0.0000e+00
      2.365      0.022     9.4418     91.916     42.598  33.293307     4.6410      7.578   274.7734 6.3709e+00     5.2339      2.322      3.367    14.0704 0.0000e+00
      2.365      0.024     9.4384     92.002     42.574  33.276247     4.6462      7.578   274.8595 6.4301e+00     5.3158      2.320      3.365    14.0675 0.0000e+00
      2.361      0.027     9.4465     92.097     42.565  33.270645     4.6043      7.579   274.8540 6.4656e+00     5.2833      2.314      3.356    14.0674 0.0000e+00
      2.361      0.032     9.4500     92.221     42.591  33.289010     4.5262      7.579   274.7926 6.3787e+00     5.2172      2.312      3.352    14.0714 0.0000e+00
      2.373      0.036     9.4544     92.348     42.621  33.307978     4.4760      7.578   274.8926 6.1353e+00     5.1992      2.322      3.368    14.0751 0.0000e+00
      2.393      0.039     9.4649     92.399     42.627  33.309652     4.4383      7.578   275.0300 5.8728e+00     5.2371      2.348      3.405    14.0771 0.0000e+00
      2.413      0.039     9.4728     92.409     42.624  33.309239     4.3031      7.578   275.0765 5.7458e+00     5.3677      2.372      3.440    14.0802 0.0000e+00
      2.423      0.038     9.4837     92.353     42.611  33.302980     4.0729      7.578   275.1112 5.7516e+00     5.5147      2.381      3.452    14.0793 0.0000e+00
      2.423      0.037     9.5080     92.207     42.606  33.297423     3.9443      7.578   275.1053 5.7773e+00     5.5457      2.376      3.446    14.0713 0.0000e+00
      2.422      0.036     9.5067     92.077     42.623  33.305499     3.9212      7.578   275.0917 5.7200e+00     5.5037      2.372      3.440    14.0654 0.0000e+00
      2.431      0.039     9.5093     91.940     42.672  33.337174     3.9268      7.578   275.0325 5.5571e+00     5.6562      2.380      3.453    14.0696 0.0000e+00
      2.448      0.044     9.5083     91.751     42.712  33.363177     3.9712      7.578   274.9058 5.3575e+00     6.0231      2.401      3.482    14.0763 0.0000e+00
      2.465      0.048     9.4811     91.551     42.721  33.366117     3.9919      7.577   274.8500 5.2095e+00     6.2154      2.419      3.508    14.0753 0.0000e+00
      2.480      0.048     9.4753     91.350     42.733  33.372720     3.9768      7.576   274.7889 5.1035e+00     6.1704      2.432      3.529    14.0669 0.0000e+00
      2.492      0.046     9.4653     91.125     42.742  33.379556     3.9714      7.576   274.6829 5.0070e+00     6.2311      2.444      3.547    14.0585 0.0000e+00
      2.500      0.042     9.4432     90.886     42.749  33.385335     4.0435      7.576   274.6870 4.9396e+00     7.1550      2.452      3.557    14.0522 0.0000e+00
      2.506      0.038     9.4240     90.644     42.742  33.379143     4.1915      7.575   274.7529 4.8670e+00     8.8007      2.457      3.564    14.0467 0.0000e+00
      2.516      0.036     9.4057     90.384     42.731  33.368138     4.2700      7.575   274.7911 4.7555e+00     9.6987      2.466      3.577    14.0436 0.0000e+00
      2.528      0.033     9.3816     90.150     42.747  33.379153     4.3108      7.576   274.8048 4.6620e+00    10.2246      2.480      3.596    14.0441 0.0000e+00
      2.539      0.031     9.3551     89.976     42.755  33.385440     4.8923      7.577   274.8318 4.6060e+00    15.6370      2.492      3.614    14.0452 0.0000e+00
      2.546      0.029     9.3339     89.833     42.748  33.380713     5.9833      7.577   274.8595 4.5484e+00    25.5398      2.497      3.622    14.0438 0.0000e+00
      2.551      0.026     9.3042     89.720     42.752  33.385441     6.6063      7.577   274.8820 4.4959e+00    31.2726      2.501      3.628    14.0408 0.0000e+00
      2.556      0.022     9.2779     89.644     42.741  33.379163     6.8313      7.576   274.9315 4.4549e+00    35.6253      2.506      3.634    14.0390 0.0000e+00
      2.561      0.020     9.2639     89.594     42.723  33.368253     8.6960      7.575   274.8562 4.4120e+00    77.8944      2.511      3.641    14.0391 0.0000e+00
      2.566      0.019     9.2475     89.569     42.735  33.380421    12.1309      7.576   274.7448 4.3856e+00   155.3525      2.518      3.651    14.0396 0.0000e+00
      2.571      0.019     9.2352     89.570     42.757  33.399406    13.9966      7.577   274.7901 4.3761e+00   197.4634      2.523      3.659    14.0418 0.0000e+00
      2.574      0.019     9.2275     89.586     42.768  33.407461    13.8999      7.578   274.8875 4.3524e+00   198.8658      2.525      3.662    14.0449 0.0000e+00
      2.578      0.019     9.2220     89.626     42.779  33.414378    10.7623      7.578   274.9757 4.3083e+00   171.6947      2.528      3.666    14.0472 0.0000e+00
      2.584      0.020     9.2182     89.717     42.790  33.419589     4.9671      7.579   274.9958 4.2569e+00   121.2754      2.533      3.674    14.0514 0.0000e+00
      2.590      0.020     9.2181     89.823     42.780  33.407016     1.8094      7.579   274.9591 4.2083e+00    93.6481      2.540      3.683    14.0550 0.0000e+00
      2.596      0.019     9.2207     89.917     42.760  33.389242     1.4968      7.579   274.9619 4.1816e+00    89.1706      2.545      3.692    14.0545 0.0000e+00
      2.602      0.018     9.2217     89.990     42.769  33.395015     1.0963      7.578   274.9439 4.1774e+00    66.3872      2.551      3.700    14.0522 0.0000e+00
      2.607      0.017     9.2351     89.980     42.794  33.413367     0.3878      7.578   274.9131 4.1820e+00    24.9091      2.556      3.709    14.0477 0.0000e+00
      2.610      0.015     9.2489     89.881     42.805  33.420808    -0.0202      7.579   274.9342 4.1850e+00     2.2556      2.559      3.712    14.0415 0.0000e+00
      2.611      0.014     9.2571     89.773     42.807  33.421541    -0.0667      7.580   274.9408 4.1669e+00     0.2426      2.560      3.713    14.0382 0.0000e+00
      2.614      0.012     9.2692     89.676     42.807  33.422229    -0.0582      7.581   274.9071 4.1459e+00     0.1601      2.564      3.718    14.0379 0.0000e+00
      2.619      0.011     9.2693     89.559     42.814  33.429123    -0.0413      7.581   274.9562 4.1488e+00     0.1306      2.568      3.725    14.0369 0.0000e+00
      2.623      0.011     9.2539     89.442     42.829  33.441457    -0.0376      7.581   275.0189 4.1531e+00    -0.0449      2.571      3.731    14.0351 0.0000e+00
      2.625      0.011     9.2429     89.339     42.915  33.507911    -0.0552      7.581   274.9768 4.1503e+00    -0.2202      2.574      3.734    14.0341 0.0000e+00
      2.626      0.011     9.2357     89.243     43.276  33.788506    -0.0626      7.582   274.9625 4.1498e+00    -0.2464      2.575      3.735    14.0347 0.0000e+00
      2.628      0.010     9.2212     89.184     44.331  34.613540    -0.0519      7.582   275.0193 4.1478e+00    -0.2249      2.576      3.737    14.0369 0.0000e+00
      2.631      0.010     9.2073     89.144     46.831  36.567582    -0.0511      7.582   275.0604 4.1467e+00    -0.2679      2.580      3.743    14.0382 0.0000e+00
      2.635      0.010     9.2001     89.042     50.934  39.774762    -0.0608      7.582   275.0296 4.1461e+00    -0.2542      2.585      3.750    14.0364 0.0000e+00
      2.638      0.010     9.1866     88.754     52.286  40.835615    -0.0613      7.583   274.9910 4.1429e+00    -0.1955      2.588      3.754    14.0343 0.0000e+00
      2.640      0.009     9.1820     88.142     48.447  37.842555    -0.0487      7.583   275.0239 4.1379e+00    -0.1738      2.589      3.755    14.0349 0.0000e+00
      2.642      0.007     9.1803     87.053     44.804  34.999537    -0.0414      7.583   275.0832 4.1354e+00    -0.1619      2.591      3.758    14.0377 0.0000e+00
      2.644      0.005     9.1727     85.208     43.609  34.066398    -0.0489      7.583   275.1052 4.1370e+00    -0.1887      2.593      3.761    14.0411 0.0000e+00
      2.645      0.003     9.1493     82.532     43.098  33.666186    -0.0557      7.584   275.1180 4.1386e+00    -0.1898      2.594      3.762    14.0470 0.0000e+00
      2.645      0.001     9.0850     79.567     42.915  33.523216    -0.0478      7.587   275.1524 4.1366e+00    -0.1075      2.594      3.763    14.0546 0.0000e+00
      2.645     -0.001     8.9878     77.262     42.858  33.479760    -0.0375      7.587   275.1770 4.1379e+00    -0.0805      2.594      3.763    14.0569 0.0000e+00
      2.644     -0.002     8.8064     76.314     42.828  33.457981    -0.0478      7.586   275.2426 4.1374e+00    -0.1378      2.593      3.761    14.0550 0.0000e+00
      2.644     -0.002     8.5092     76.813     42.815  33.450228    -0.0633      7.585   275.2580 4.1199e+00    -0.1851      2.592      3.760    14.0536 0.0000e+00
      2.643     -0.002     8.1633     78.458     42.812  33.449461    -0.0588      7.586   275.1911 4.0957e+00    -0.1743      2.591      3.759    14.0539 0.0000e+00
      2.642     -0.003     7.8964     80.887     42.810  33.448711    -0.0435      7.588   275.2084 4.0813e+00    -0.1094      2.590      3.757    14.0557 0.0000e+00
      2.642     -0.004     7.7997     83.764     42.800  33.441163    -0.0361      7.588   275.2956 4.0738e+00    -0.0835      2.590      3.757    14.0575 0.0000e+00
      2.642     -0.007     7.8637     86.629     42.775  33.421647    -0.0441      7.588   275.4701 4.0512e+00    -0.1351      2.591      3.758    14.0604 0.0000e+00
      2.641     -0.010     8.0470     88.969     42.749  33.403072    -0.0574      7.588   275.6841 4.0245e+00    -0.1865      2.591      3.758    14.0630 0.0000e+00
      2.638     -0.014     8.3058     90.525     42.752  33.406910    -0.0549      7.589   275.8173 4.0108e+00    -0.1584      2.588      3.755    14.0636 0.0000e+00
      2.632     -0.019     8.6182     91.338     42.747  33.404602    -0.0395      7.590   275.9622 3.9873e+00    -0.1020      2.581      3.744    14.0632 0.0000e+00
      2.627     -0.030     8.9367     91.638     42.709  33.375177    -0.0294      7.590   276.2322 3.9699e+00    -0.0176      2.575      3.734    14.0626 0.0000e+00
      2.622     -0.047     9.1852     91.674     42.698  33.368355    -0.0082      7.590   276.5853 3.9986e+00     1.1352      2.571      3.730    14.0645 0.0000e+00
      2.616     -0.070     9.3425     91.573     42.715  33.385565     0.2670      7.589   276.8765 4.0879e+00    14.5881      2.568      3.724    14.0680 0.0000e+00
      2.602     -0.095     9.4164     91.396     42.716  33.392932     0.7850      7.588   277.0002 4.2808e+00    39.3593      2.558      3.709    14.0696 0.0000e+00
      2.573     -0.113     9.4360     91.231     42.706  33.393993     1.0775      7.588   276.9631 4.6544e+00    52.8837      2.529      3.669    14.0691 0.0000e+00
      2.528     -0.119     9.4370     91.189     42.705  33.398408     1.1490      7.588   276.9432 5.1649e+00    53.7692      2.481      3.598    14.0692 0.0000e+00
      2.478     -0.112     9.4239     91.274     42.770  33.446326     1.6500      7.587   277.1047 5.6145e+00    50.0308      2.426      3.519    14.0743 0.0000e+00
      2.440     -0.093     9.4012     91.401     42.889  33.529248     2.5736      7.586   277.2803 5.8491e+00    43.0384      2.385      3.459    14.0832 0.0000e+00
      2.421     -0.067     9.3757     91.503     42.963  33.576220     3.0851      7.586   277.3462 5.8801e+00    39.2177      2.368      3.434    14.0956 0.0000e+00
      2.418     -0.042     9.3694     91.536     42.967  33.570142     3.1492      7.586   277.4711 5.8286e+00    38.3700      2.369      3.436    14.1043 0.0000e+00
      2.422     -0.027     9.3845     91.474     42.908  33.519201     3.1989      7.586   277.5863 5.7722e+00    32.2428      2.375      3.445    14.0993 0.0000e+00
      2.427     -0.027     9.4013     91.279     42.844  33.467844     3.2691      7.585   277.6201 5.7566e+00    21.0869      2.382      3.454    14.0850 0.0000e+00
      2.425     -0.039     9.4176     90.919     42.827  33.456735     3.3077      7.585   277.7079 5.8583e+00    15.0835      2.383      3.456    14.0707 0.0000e+00
      2.413     -0.054     9.4230     90.462     42.811  33.448326     3.3157      7.585   277.7874 6.1000e+00    14.9952      2.372      3.439    14.0606 0.0000e+00
      2.389     -0.065     9.4188     90.015     42.782  33.429631     3.3080      7.585   277.8060 6.4256e+00    19.9170      2.345      3.400    14.0556 0.0000e+00
      2.360     -0.068     9.4025     89.651     42.769  33.421025     3.2565      7.585   277.8476 6.7615e+00    28.9553      2.313      3.355    14.0536 0.0000e+00
      2.335     -0.063     9.3609     89.409     42.756  33.407710     3.2001      7.586   277.9462 7.0265e+00    33.8219      2.287      3.317    14.0556 0.0000e+00
      2.318     -0.053     9.3082     89.297     42.748  33.395532     3.1925      7.586   278.0519 7.1466e+00    34.2839      2.271      3.292    14.0620 0.0000e+00
      2.312     -0.044     9.2589     89.312     42.760  33.400664     3.2137      7.586   278.0927 7.1352e+00    34.3704      2.266      3.286    14.0677 0.0000e+00
      2.312     -0.042     9.2190     89.435     42.768  33.406316     3.3160      7.586   278.0090 7.0909e+00    34.1498      2.267      3.288    14.0707 0.0000e+00
      2.311     -0.047     9.1952     89.613     42.757  33.400425     3.4969      7.587   277.9006 7.1515e+00    33.7006      2.269      3.291    14.0662 0.0000e+00
      2.301     -0.056     9.1859     89.797     42.741  33.392877     3.5860      7.588   277.9001 7.4305e+00    33.4485      2.262      3.281    14.0566 0.0000e+00
      2.279     -0.066     9.1881     89.950     42.716  33.378515     3.6029      7.591   277.9173 7.8565e+00    33.3218      2.237      3.244    14.0514 0.0000e+00
      2.251     -0.071     9.2043     90.048     42.679  33.353667     3.6599      7.594   277.8506 8.2611e+00    31.8615      2.205      3.198    14.0505 0.0000e+00
      2.226     -0.071     9.2231     90.120     42.668  33.346216     3.7263      7.595   277.7820 8.6060e+00    29.1822      2.181      3.163    14.0541 0.0000e+00
      2.207     -0.066     9.2419     90.191     42.677  33.351869     3.7390      7.596   277.7763 8.8450e+00    27.7765      2.161      3.134    14.0605 0.0000e+00
      2.195     -0.061     9.2583     90.259     42.687  33.358571     3.7137      7.598   277.7810 8.9524e+00    27.7088      2.150      3.119    14.0673 0.0000e+00
      2.188     -0.056     9.2650     90.341     42.694  33.363808     3.6617      7.600   277.6680 9.0708e+00    28.7061      2.146      3.113    14.0724 0.0000e+00
      2.178     -0.056     9.2710     90.436     42.677  33.351752     3.5692      7.602   277.5284 9.3130e+00    30.6797      2.139      3.102    14.0734 0.0000e+00
      2.162     -0.058     9.2800     90.508     42.658  33.339688     3.5020      7.604   277.5555 9.6616e+00    31.7247      2.122      3.078    14.0716 0.0000e+00
      2.142     -0.062     9.2861     90.577     42.663  33.344830     3.4980      7.605   277.5659 1.0014e+01    31.4692      2.098      3.043    14.0692 0.0000e+00
      2.123     -0.065     9.2937     90.673     42.668  33.350483     3.6709      7.607   277.4815 1.0346e+01    28.0005      2.081      3.019    14.0693 0.0000e+00
      2.105     -0.065     9.3063     90.772     42.659  33.344592     4.0028      7.609   277.3945 1.0684e+01    21.7239      2.064      2.994    14.0716 0.0000e+00
      2.090     -0.065     9.3115     90.859     42.648  33.337056     4.1983      7.611   277.2886 1.0987e+01    18.3639      2.047      2.970    14.0741 0.0000e+00
      2.077     -0.064     9.3160     90.946     42.625  33.322808     4.2113      7.614   277.2344 1.1284e+01    18.1186      2.036      2.954    14.0770 0.0000e+00
      2.062     -0.063     9.3276     91.020     42.590  33.299208     4.1858      7.616   277.2546 1.1648e+01    18.7582      2.023      2.935    14.0788 0.0000e+00
      2.045     -0.060     9.3385     91.089     42.594  33.305496     4.1978      7.618   277.1895 1.2085e+01    20.0517      2.006      2.909    14.0787 0.0000e+00
      2.025     -0.054     9.3454     91.188     42.630  33.335392     4.2648      7.619   277.1347 1.2517e+01    20.8107      1.985      2.879    14.0797 0.0000e+00
      2.007     -0.046     9.3554     91.319     42.641  33.343457     4.3213      7.620   277.1083 1.2878e+01    20.9673      1.967      2.852    14.0839 0.0000e+00
      1.995     -0.040     9.3617     91.496     42.637  33.339562     4.3073      7.622   276.9573 1.3053e+01    21.1251      1.954      2.834    14.0901 0.0000e+00
      1.991     -0.035     9.3649     91.720     42.654  33.351750     4.1115      7.624   276.8566 1.2986e+01    22.5135      1.949      2.828    14.0946 0.0000e+00
      1.991     -0.034     9.3763     91.934     42.671  33.363928     3.7938      7.627   276.8376 1.2981e+01    25.1151      1.954      2.833    14.0955 0.0000e+00
      1.986     -0.035     9.3894     92.128     42.668  33.359928     3.6373      7.630   276.8134 1.3259e+01    26.5520      1.951      2.830    14.0943 0.0000e+00
      1.975     -0.035     9.4058     92.309     42.679  33.366831     3.6428      7.632   276.8221 1.3711e+01    26.3934      1.937      2.810    14.0932 0.0000e+00
      1.958     -0.035     9.4337     92.420     42.704  33.383939     3.7262      7.633   276.8574 1.4172e+01    22.6504      1.920      2.784    14.0928 0.0000e+00
      1.943     -0.035     9.4558     92.412     42.698  33.376441     3.8720      7.635   276.8100 1.4467e+01    15.7296      1.902      2.760    14.0910 0.0000e+00
      1.935     -0.037     9.4741     92.312     42.653  33.339625     3.9574      7.637   276.7655 1.4471e+01    11.9900      1.894      2.748    14.0886 0.0000e+00
      1.934     -0.042     9.4968     92.154     42.628  33.319457     3.9851      7.638   276.8357 1.4385e+01    11.6623      1.897      2.751    14.0871 0.0000e+00
      1.933     -0.050     9.5110     91.949     42.628  33.322922     4.1320      7.638   276.8845 1.4630e+01    11.1186      1.900      2.756    14.0844 0.0000e+00
      1.922     -0.062     9.5093     91.743     42.616  33.318079     4.3852      7.638   276.8390 1.5318e+01    10.0965      1.889      2.739    14.0804 0.0000e+00
      1.898     -0.074     9.4972     91.571     42.618  33.324346     4.5166      7.639   276.7159 1.6214e+01     9.5169      1.862      2.702    14.0776 0.0000e+00
      1.870     -0.082     9.4831     91.441     42.628  33.335263     4.5306      7.642   276.6862 1.7125e+01     9.5417      1.833      2.659    14.0775 0.0000e+00
      1.842     -0.082     9.4573     91.402     42.611  33.323198     4.5126      7.644   276.8245 1.7985e+01     9.8503      1.806      2.619    14.0817 0.0000e+00
      1.817     -0.076     9.4339     91.503     42.587  33.305358     4.4648      7.645   276.8384 1.8716e+01    10.2766      1.780      2.582    14.0878 0.0000e+00
      1.798     -0.069     9.4162     91.714     42.593  33.309886     4.4353      7.647   276.6822 1.9198e+01    10.4606      1.761      2.555    14.0929 0.0000e+00
      1.788     -0.063     9.3994     91.962     42.599  33.314501     4.4390      7.649   276.5710 1.9475e+01    10.3666      1.753      2.542    14.0973 0.0000e+00
      1.781     -0.058     9.3920     92.191     42.576  33.297719     4.5510      7.650   276.5269 1.9891e+01     9.9942      1.748      2.536    14.1000 0.0000e+00
      1.768     -0.052     9.4043     92.418     42.575  33.297302     4.7578      7.651   276.5799 2.0667e+01     9.4075      1.737      2.520    14.0994 0.0000e+00
      1.749     -0.047     9.4290     92.642     42.592  33.309460     4.8677      7.652   276.7811 2.1534e+01     9.0795      1.714      2.486    14.0983 0.0000e+00
      1.729     -0.043     9.4576     92.778     42.606  33.317837     4.8632      7.653   276.8937 2.2083e+01     9.0354      1.693      2.455    14.0986 0.0000e+00
      1.719     -0.045     9.4797     92.846     42.632  33.335141     4.8452      7.654   276.7364 2.2228e+01     9.0105      1.682      2.440    14.0993 0.0000e+00
      1.717     -0.051     9.4996     92.890     42.623  33.328343     4.8083      7.655   276.6009 2.2210e+01     9.0173      1.683      2.442    14.1008 0.0000e+00
      1.716     -0.060     9.5314     92.871     42.582  33.299090     4.7414      7.656   276.5454 2.2465e+01     9.0494      1.686      2.445    14.1006 0.0000e+00
      1.705     -0.068     9.5425     92.817     42.576  33.298674     4.6937      7.657   276.4961 2.3540e+01     9.0581      1.679      2.435    14.0967 0.0000e+00
      1.677     -0.073     9.5468     92.775     42.602  33.323322     4.6651      7.659   276.5201 2.5464e+01     9.4633      1.651      2.393    14.0926 0.0000e+00
      1.640     -0.074     9.5572     92.744     42.627  33.343327     4.4785      7.661   276.4917 2.7282e+01    13.9146      1.604      2.327    14.0917 0.0000e+00
      1.611     -0.072     9.5509     92.746     42.638  33.350228     4.1520      7.661   276.4111 2.8172e+01    21.9560      1.573      2.281    14.0954 0.0000e+00
      1.599     -0.068     9.5416     92.820     42.632  33.343316     3.9964      7.662   276.3201 2.8304e+01    26.2790      1.565      2.269    14.1024 0.0000e+00
      1.597     -0.064     9.5378     92.942     42.602  33.323198     3.9871      7.663   276.2519 2.8349e+01    26.3542      1.567      2.273    14.1081 0.0000e+00
      1.592     -0.061     9.5333     93.075     42.557  33.297321     3.9808      7.665   276.2751 2.9069e+01    23.6172      1.566      2.272    14.1085 0.0000e+00
      1.576     -0.059     9.5318     93.211     42.527  33.284215     4.0124      7.665   276.2561 3.0707e+01    18.6683      1.550      2.248    14.1043 0.0000e+00
      1.548     -0.058     9.5417     93.345     42.526  33.291635     4.0452      7.666   276.1948 3.2627e+01    15.9798      1.518      2.201    14.1011 0.0000e+00
      1.522     -0.053     9.5558     93.511     42.566  33.323600     4.0527      7.668   276.1360 3.3902e+01    15.8425      1.487      2.157    14.1047 0.0000e+00
      1.507     -0.047     9.5658     93.766     42.608  33.353488     4.1612      7.668   276.0612 3.4259e+01    17.2130      1.473      2.136    14.1161 0.0000e+00
      1.504     -0.043     9.5782     94.104     42.590  33.335791     4.3836      7.669   275.8923 3.4134e+01    19.8099      1.473      2.136    14.1308 0.0000e+00
      1.505     -0.044     9.5883     94.448     42.545  33.299950     4.5104      7.671   275.5570 3.4012e+01    21.2795      1.477      2.142    14.1422 0.0000e+00
      1.503     -0.050     9.6015     94.721     42.540  33.300802     4.5207      7.671   275.3622 3.4477e+01    21.2844      1.478      2.144    14.1431 0.0000e+00
      1.491     -0.057     9.6298     94.915     42.593  33.346102     4.5084      7.672   275.3439 3.6240e+01    19.5615      1.469      2.131    14.1364 0.0000e+00
      1.464     -0.061     9.6690     95.055     42.668  33.403560     4.4863      7.673   275.4223 3.9014e+01    16.4689      1.440      2.087    14.1312 0.0000e+00
      1.432     -0.059     9.7081     95.150     42.703  33.424532     4.4704      7.674   275.5350 4.1197e+01    14.8408      1.399      2.028    14.1295 0.0000e+00
      1.410     -0.050     9.7350     95.207     42.693  33.409330     4.4736      7.674   275.5020 4.1862e+01    14.7700      1.377      1.997    14.1361 0.0000e+00
      1.405     -0.035     9.7504     95.207     42.698  33.410078     4.4841      7.675   275.4538 4.1589e+01    15.2027      1.375      1.995    14.1455 0.0000e+00
      1.407     -0.019     9.7664     95.099     42.728  33.433573     4.4140      7.676   275.4688 4.1224e+01    20.2083      1.380      2.002    14.1435 0.0000e+00
      1.410     -0.009     9.7777     94.894     42.734  33.439633     4.2663      7.676   275.5110 4.1127e+01    29.4503      1.384      2.007    14.1321 0.0000e+00
      1.411     -0.014     9.7853     94.664     42.705  33.419898     4.1882      7.677   275.5335 4.1173e+01    34.4783      1.385      2.008    14.1223 0.0000e+00
      1.411     -0.034     9.7903     94.452     42.653  33.385301     4.1937      7.678   275.4836 4.1238e+01    34.7150      1.384      2.007    14.1190 0.0000e+00
      1.408     -0.060     9.7777     94.294     42.581  33.338555     4.1669      7.679   275.4234 4.1924e+01    31.9364      1.383      2.006    14.1201 0.0000e+00
      1.394     -0.085     9.7526     94.222     42.515  33.298805     4.0974      7.680   275.4075 4.4424e+01    26.6729      1.375      1.995    14.1220 0.0000e+00
      1.363     -0.100     9.7275     94.249     42.485  33.285366     4.0691      7.680   275.4638 4.8894e+01    23.8161      1.342      1.946    14.1242 0.0000e+00
      1.318     -0.104     9.7036     94.413     42.502  33.302967     4.0818      7.679   275.5874 5.4174e+01    23.4254      1.291      1.873    14.1297 0.0000e+00
      1.274     -0.098     9.6826     94.751     42.527  33.321290     4.1930      7.679   275.6113 5.8199e+01    21.6078      1.243      1.803    14.1426 0.0000e+00
      1.247     -0.087     9.6724     95.232     42.523  33.316571     4.4072      7.679   275.4088 5.9572e+01    18.3380      1.215      1.763    14.1597 0.0000e+00
      1.237     -0.078     9.6705     95.766     42.514  33.309347     4.5243      7.679   275.1178 5.9402e+01    16.5133      1.210      1.755    14.1721 0.0000e+00
      1.236     -0.074     9.6844     96.268     42.495  33.297396     4.5188      7.680   275.0188 5.9484e+01    16.5227      1.215      1.761    14.1764 0.0000e+00
      1.231     -0.077     9.7208     96.691     42.490  33.298965     4.4405      7.681   275.1583 6.1662e+01    19.2370      1.214      1.761    14.1734 0.0000e+00
      1.210     -0.081     9.7753     97.012     42.521  33.328322     4.3092      7.683   275.2558 6.6958e+01    24.2590      1.194      1.732    14.1693 0.0000e+00
      1.171     -0.083     9.8331     97.256     42.524  33.335137     4.2300      7.684   275.1652 7.3533e+01    27.0620      1.148      1.666    14.1702 0.0000e+00
      1.132     -0.079     9.8849     97.452     42.494  33.317932     4.1990      7.684   275.0947 7.8061e+01    28.2263      1.102      1.599    14.1742 0.0000e+00
      1.108     -0.069     9.9285     97.597     42.475  33.310642     4.0760      7.686   275.1778 7.9365e+01    39.2246      1.081      1.568    14.1812 0.0000e+00
      1.102     -0.054     9.9583     97.697     42.471  33.310442     3.7235      7.688   275.2236 7.9107e+01    59.5437      1.079      1.564    14.1876 0.0000e+00
      1.103     -0.042     9.9811     97.797     42.478  33.315522     3.3083      7.690   275.1322 7.9391e+01    70.6888      1.082      1.570    14.1899 0.0000e+00
      1.101     -0.039    10.0004     97.932     42.468  33.308617     3.1265      7.692   275.0189 8.1011e+01    71.7062      1.083      1.570    14.1992 0.0000e+00
      1.092     -0.047    10.0123     98.090     42.443  33.290390     3.1060      7.693   274.9720 8.3291e+01    71.5712      1.073      1.556    14.2128 0.0000e+00
      1.079     -0.059    10.0203     98.235     42.434  33.285476     3.1105      7.696   274.9097 8.6322e+01    69.7061      1.060      1.537    14.2133 0.0000e+00
      1.060     -0.068    10.0298     98.370     42.464  33.312659     3.1396      7.699   274.8684 9.1200e+01    66.4405      1.044      1.515    14.2101 0.0000e+00
      1.034     -0.069    10.0432     98.507     42.523  33.365284     3.1673      7.701   274.9887 9.7046e+01    64.6070      1.014      1.472    14.2126 0.0000e+00
      1.007     -0.062    10.0618     98.641     42.578  33.414219     3.2120      7.701   275.0733 1.0137e+02    63.3872      0.983      1.427    14.2139 0.0000e+00
      0.988     -0.051    10.0756     98.801     42.633  33.460224     3.5471      7.702   275.1174 1.0318e+02    52.0674      0.965      1.400    14.2158 0.0000e+00
      0.981     -0.040    10.0871     99.002     42.653  33.477432     4.1559      7.702   275.2635 1.0310e+02    31.4474      0.959      1.390    14.2204 0.0000e+00
      0.981     -0.032    10.1013     99.208     42.593  33.431944     4.5049      7.702   275.2917 1.0236e+02    20.2252      0.962      1.394    14.2274 0.0000e+00
      0.982     -0.032    10.1110     99.378     42.492  33.354345     4.5547      7.702   275.1137 1.0272e+02    18.9621      0.965      1.399    14.2365 0.0000e+00
      0.977     -0.042    10.1251     99.508     42.422  33.300514     4.6160      7.703   274.8330 1.0504e+02    16.1411      0.962      1.394    14.2407 0.0000e+00
      0.967     -0.059    10.1481     99.623     42.405  33.288622     4.7222      7.706   274.7367 1.0877e+02    11.1889      0.950      1.378    14.2404 0.0000e+00
      0.949     -0.074    10.1702     99.719     42.388  33.274016     4.7812      7.709   274.8950 1.1508e+02     8.5484      0.935      1.356    14.2432 0.0000e+00
      0.924     -0.082    10.1878     99.785     42.358  33.250796     4.7974      7.709   274.9404 1.2417e+02     8.5372      0.909      1.318    14.2441 0.0000e+00
      0.891     -0.081    10.1987     99.831     42.367  33.261644     4.7847      7.709   274.9412 1.3378e+02    10.5752      0.872      1.265    14.2455 0.0000e+00
      0.861     -0.071    10.2108     99.878     42.379  33.278292     4.7263      7.710   274.9911 1.4104e+02    14.2987      0.839      1.217    14.2487 0.0000e+00
      0.843     -0.055    10.2215     99.952     42.350  33.261765     4.6918      7.711   274.9414 1.4277e+02    16.3582      0.823      1.192    14.2464 0.0000e+00
      0.837     -0.036    10.2285    100.111     42.335  33.252153     4.6837      7.712   274.9421 1.4210e+02    16.7227      0.820      1.189    14.2440 0.0000e+00
      0.836     -0.020    10.2311    100.381     42.379  33.288964     4.6194      7.713   275.0860 1.4248e+02    18.6035      0.819      1.188    14.2485 0.0000e+00
      0.837     -0.014    10.2330    100.687     42.424  33.326193     4.5057      7.713   275.1324 1.4237e+02    22.0190      0.821      1.190    14.2605 0.0000e+00
      0.837     -0.022    10.2366    101.016     42.419  33.321623     4.4332      7.714   274.9010 1.4210e+02    23.8265      0.822      1.193    14.2694 0.0000e+00
      0.837     -0.041    10.2492    101.385     42.390  33.297160     4.4170      7.716   274.6109 1.4307e+02    23.9588      0.823      1.194    14.2685 0.0000e+00
      0.832     -0.064    10.2832    101.730     42.374  33.284185     4.4260      7.717   274.4642 1.4768e+02    23.8236      0.820      1.189    14.2706 0.0000e+00
      0.814     -0.081    10.3128    101.985     42.383  33.291628     4.4915      7.718   274.4180 1.5708e+02    21.4059      0.805      1.168    14.2750 0.0000e+00
      0.778     -0.088    10.3441    102.126     42.420  33.323717     4.5944      7.719   274.4821 1.7427e+02    16.8277      0.768      1.114    14.2733 0.0000e+00
      0.735     -0.086    10.3868    102.138     42.454  33.354945     4.6375      7.719   274.6381 1.9178e+02    14.2432      0.716      1.038    14.2711 0.0000e+00
      0.705     -0.076    10.4249    102.042     42.440  33.351993     4.6373      7.718   274.7556 1.9669e+02    13.8623      0.683      0.991    14.2702 0.0000e+00
      0.693     -0.065    10.4507    101.922     42.426  33.351470     4.7426      7.717   274.6977 1.9522e+02    12.9401      0.677      0.981    14.2708 0.0000e+00
      0.693     -0.058    10.4654    101.847     42.413  33.348636     4.9367      7.717   274.5404 1.9324e+02    11.2579      0.680      0.985    14.2744 0.0000e+00
      0.694     -0.058    10.4658    101.862     42.373  33.317745     5.0357      7.718   274.4876 1.9636e+02    10.2611      0.685      0.993    14.2784 0.0000e+00
      0.685     -0.063    10.4491    102.026     42.349  33.295193     5.0335      7.720   274.4906 2.0694e+02    10.3153      0.679      0.984    14.2882 0.0000e+00
      0.659     -0.068    10.4310    102.335     42.318  33.266284     4.9512      7.721   274.4901 2.2363e+02    12.4940      0.651      0.944    14.3038 0.0000e+00
      0.623     -0.068    10.4206    102.677     42.265  33.221978     4.8144      7.721   274.5677 2.4324e+02    16.4829      0.607      0.881    14.3135 0.0000e+00
      0.594     -0.063    10.4189    102.960     42.243  33.203589     4.7368      7.721   274.5684 2.5204e+02    18.6468      0.575      0.835    14.3137 0.0000e+00
      0.583     -0.058    10.4358    103.151     42.280  33.234277     4.6952      7.721   274.3262 2.5364e+02    18.9826      0.568      0.824    14.3076 0.0000e+00
      0.583     -0.054    10.4755    103.217     42.328  33.275808     4.5450      7.722   274.0482 2.4976e+02    20.8163      0.571      0.829    14.3009 0.0000e+00
      0.584     -0.053    10.5147    103.171     42.307  33.261633     4.3106      7.724   273.9603 2.4562e+02    24.1823      0.576      0.835    14.2978 0.0000e+00
      0.575     -0.055    10.5436    103.068     42.295  33.253233     4.2084      7.725   274.0383 2.6399e+02    26.0677      0.571      0.829    14.2964 0.0000e+00
      0.550     -0.058    10.5651    102.946     42.352  33.301122     4.2246      7.724   274.1307 2.8523e+02    26.2254      0.543      0.786    14.2984 0.0000e+00
      0.517     -0.059    10.5703    102.837     42.382  33.333116     4.2314      7.722   274.1316 2.9231e+02    26.1570      0.501      0.728    14.3041 0.0000e+00
      0.496     -0.058    10.5614    102.795     42.353  33.322863     4.2905      7.718   273.9621 2.9508e+02    26.3673      0.479      0.696    14.3065 0.0000e+00
      0.490     -0.056    10.5503    102.844     42.316  33.304052     4.4151      7.716   273.7171 2.9344e+02    26.8563      0.479      0.694    14.3075 0.0000e+00
      0.490     -0.051    10.5364    102.975     42.302  33.296012     4.4886      7.716   273.6644 2.9491e+02    27.1496      0.482      0.700    14.3096 0.0000e+00
      0.485     -0.046    10.5203    103.194     42.297  33.289102     4.4887      7.717   273.7548 3.0757e+02    27.2833      0.481      0.699    14.3191 0.0000e+00
      0.467     -0.043    10.5108    103.447     42.297  33.283950     4.3830      7.718   273.7774 3.3274e+02    28.1999      0.461      0.668    14.3376 0.0000e+00
      0.442     -0.041    10.5144    103.661     42.319  33.297157     4.1931      7.718   273.5942 3.6916e+02    29.8976      0.430      0.623    14.3513 0.0000e+00
      0.427     -0.042    10.5253    103.831     42.353  33.321902     4.0983      7.719   273.0884 3.9712e+02    30.8661      0.414      0.602    14.3543 0.0000e+00
      0.423     -0.052    10.5507    103.953     42.361  33.329355     4.1029      7.720   272.3939 3.9734e+02    30.7893      0.412      0.598    14.3497 0.0000e+00
      0.425     -0.071    10.5835    104.021     42.348  33.323836     4.1327      7.720   271.9081 3.9035e+02    28.4223      0.418      0.606    14.3421 0.0000e+00
      0.423     -0.091    10.6045    104.052     42.333  33.318626     4.1664      7.720   271.7747 3.8928e+02    24.0414      0.422      0.611    14.3363 0.0000e+00
      0.400     -0.106    10.6233    104.046     42.341  33.329804     4.1696      7.720   271.7271 4.1043e+02    21.7493      0.406      0.589    14.3334 0.0000e+00
      0.347     -0.113    10.6364    104.026     42.420  33.395557     4.1631      7.719   271.5911 4.7262e+02    22.5365      0.345      0.501    14.3346 0.0000e+00
      0.284     -0.112    10.6397    104.023     42.521  33.479198     4.0034      7.717   271.4203 5.6225e+02    33.0473      0.266      0.386    14.3411 0.0000e+00
      0.247     -0.103    10.6422    104.028     42.562  33.516348     3.6710      7.716   271.2114 6.0871e+02    52.2653      0.230      0.335    14.3500 0.0000e+00
      0.241     -0.087    10.6393    104.044     42.570  33.527510     3.4735      7.716   271.0440 6.0447e+02    62.6857      0.233      0.338    14.3560 0.0000e+00
      0.244     -0.064    10.6336    104.074     42.591  33.550717     3.4290      7.717   271.1169 6.7589e+02    63.5627      0.244      0.354    14.3594 0.0000e+00
      0.236     -0.043    10.6349    104.095     42.651  33.606617     3.3505      7.716   271.3179 7.2849e+02    62.8700      0.238      0.346    14.3646 0.0000e+00
      0.214     -0.027    10.6321    104.065     42.672  33.632412     3.2229      7.713   271.9264 6.6773e+02    61.2779      0.209      0.303    14.3705 0.0000e+00
      0.194     -0.015    10.6333    104.015     42.558  33.545388     3.1512      7.710   272.7092 6.2734e+02    60.2645      0.184      0.267    14.3757 0.0000e+00
      0.187     -0.001    10.6345    103.997     42.428  33.442638     3.1666      7.707   272.6091 6.1491e+02    59.5335      0.177      0.258    14.3819 0.0000e+00
      0.196      0.015    10.6373    103.959     42.372  33.405183     3.3249      7.703   272.0927 5.9218e+02    52.8498      0.190      0.274    14.3934 0.0000e+00
      0.216      0.028    10.6304    103.915     42.357  33.409742     3.6340      7.700   271.8859 5.4785e+02    40.6314      0.213      0.309    14.4080 0.0000e+00
      0.232      0.031    10.6178    103.929     42.361  33.434335     3.8504      7.697   271.7429 5.3343e+02    33.9569      0.232      0.337    14.4098 0.0000e+00
      0.241      0.021    10.6258    104.036     42.351  33.448784     3.9018      7.695   271.5680 5.6198e+02    33.2597      0.238      0.345    14.4029 0.0000e+00
      0.246     -0.004    10.6172    104.274     42.341  33.457583     3.8973      7.693   271.3210 5.3200e+02    32.9870      0.241      0.350    14.4105 0.0000e+00
      0.247     -0.044    10.6039    104.602     42.359  33.477305     3.8468      7.693   270.9932 5.2006e+02    31.7192      0.245      0.355    14.4328 0.0000e+00
      0.240     -0.093    10.6008    104.963     42.377  33.496925     3.7733      7.694   270.7014 5.5108e+02    29.4764      0.240      0.348    14.4583 0.0000e+00
      0.219     -0.141    10.5997    105.359     42.368  33.504480     3.7411      7.694   270.4599 5.6929e+02    28.2094      0.221      0.319    14.4902 0.0000e+00
      0.175     -0.178    10.6219    105.764     42.336  33.505225     3.7236      7.694   270.3115 6.8488e+02    27.9115      0.184      0.267    14.5132 0.0000e+00
      0.104     -0.197    10.6587    106.123     42.301  33.505960     3.5790      7.694   270.2832 8.4918e+02    26.7975      0.108      0.156    14.5128 0.0000e+00
      0.023     -0.192    10.6930    106.413     42.290  33.513410     3.3153      7.690   270.3755 7.4985e+02    24.9193      0.011      0.017    14.5138 0.0000e+00
     -0.042     -0.162    10.7307    106.615     42.313  33.531866     3.1654      7.685   270.5670 3.9987e+02    23.9556     -0.052     -0.074    14.5309 0.0000e+00
     -0.082     -0.114    10.7678    106.755     42.324  33.538776     3.1651      7.682   270.7067 2.0105e+02    23.9927     -0.087     -0.127    14.5631 0.0000e+00
     -0.098     -0.068    10.7932    106.881     42.310  33.533507     3.2117      7.681   270.6017 2.4709e+02    25.0948     -0.106     -0.154    14.6076 0.0000e+00
     -0.092     -0.051    10.8191    106.974     42.294  33.531614     3.2788      7.681   270.1577 3.3770e+02    27.2039     -0.096     -0.140    14.6298 0.0000e+00
     -0.072     -0.079    10.8418    106.999     42.101  33.389015     3.3279      7.682   268.8658 4.4029e+02    28.4862     -0.069     -0.101    14.6198 0.0000e+00
     -0.057     -0.142    10.8530    106.930     39.378  31.238377     3.3978      7.686   266.3388 6.6643e+02    29.1899     -0.044     -0.062    14.6127 0.0000e+00
     -0.079     -0.211    10.8669    106.785     28.354  22.498648     3.9563      7.692   263.9532 7.2992e+02    35.0292     -0.054     -0.078    14.6226 0.0000e+00
     -0.163     -0.262    10.8726    106.576     13.180  10.460626     4.9540      7.697   262.9945 4.4469e+02    45.6974     -0.136     -0.197    14.6384 0.0000e+00
     -0.302     -0.284    10.8745    106.318      6.850   5.436783     5.5235      7.702   262.7481 2.1875e+02    51.5326     -0.297     -0.431    14.6504 0.0000e+00
     -0.436     -0.271    10.8632    106.069     14.435  11.452081     6.0478      7.707   262.3513 1.7725e+02    51.9851     -0.458     -0.664    14.6620 0.0000e+00
     -0.506     -0.223    10.8437    105.764     27.602  21.894003    11.2099      7.712   261.9814 1.7076e+02    50.9644     -0.517     -0.748    14.6769 0.0000e+00
     -0.524     -0.152    10.8231    105.277     35.444  28.112034    67.7721      7.716   261.8032 1.6884e+02    39.5328     -0.515     -0.746    14.6905 0.0000e+00
     -0.526     -0.079    10.7895    104.508     39.451  31.289060   171.4479      7.721   261.7457 1.6594e+02    18.6694     -0.516     -0.748    14.6900 0.0000e+00
     -0.526     -0.028    10.7731    103.337     37.967  30.112732   227.5532      7.725   261.8029 1.6616e+02     7.3192     -0.516     -0.748    14.6735 0.0000e+00
     -0.526     -0.005    10.7509    101.640     27.427  21.752473   227.4239      7.729   262.1513 1.7160e+02     6.0060     -0.516     -0.749    14.6578 0.0000e+00
     -0.526     -0.000    10.7040     99.318     15.702  12.453355   169.8261      7.732   262.8601 1.7980e+02     2.2799     -0.516     -0.748    14.6515 0.0000e+00
     -0.526 -3.514e-08    10.6317     96.406      9.632   7.638896    63.4054      7.735   263.3176 1.8499e+02    -4.4282     -0.516     -0.748    14.6527 0.0000e+00
     -0.526 -3.865e-07    10.5156     93.158      7.892   6.258999     5.3434      7.738   263.2946 1.8545e+02    -8.0120     -0.517     -0.749    14.6533 0.0000e+00
     -0.526 -3.865e-07    10.3492     89.977      6.889   5.463578     0.0819      7.738   263.4421 1.8181e+02    -8.0875     -0.516     -0.748    14.6520 0.0000e+00
     -0.526 -3.514e-08    10.1134     87.186      6.454   5.117416    -0.3438      7.728   263.8108 1.7692e+02    -6.3314     -0.516     -0.749    14.6509 0.0000e+00
     -0.526 -3.194e-09     9.8088     84.946      7.330   5.811600    -0.2946      7.701   263.7949 1.6868e+02    -3.1066     -0.516     -0.748    14.6491 0.0000e+00
     -0.526 -2.904e-10     9.4622     83.354      8.128   6.444121    -0.2389      7.663   263.3363 1.5783e+02    -1.3096     -0.516     -0.748    14.6479 0.0000e+00
     -0.526 -2.640e-11     9.1266     82.395      8.590   6.809586    -0.2284      7.631   262.9976 1.5348e+02    -1.0350     -0.516     -0.749    14.6462 0.0000e+00
     -0.526 -2.400e-12     8.8411     81.922     10.188   8.075967    -0.1507      7.621   263.0551 1.5941e+02    -0.1617     -0.516     -0.749    14.6435 0.0000e+00
     -0.526 -2.182e-13     8.6085     81.740     11.059   8.766491     0.0099      7.623   263.1715 1.7918e+02     1.3592     -0.516     -0.748    14.6402 0.0000e+00
     -0.527 -1.972e-14     8.4478     81.702      9.532   7.555207     0.1073      7.591   263.0287 2.7000e+02     2.2204     -0.517     -0.749    14.6370 0.0000e+00
     -0.527 -5.882e-16     8.3571     81.722      7.381   5.849590     0.1277      7.496   262.3604 4.6171e+02     2.3947     -0.517     -0.749    14.6344 0.0000e+00
     -0.527 1.3199e-14     8.3170     81.751      5.827   4.617729     0.0899      7.431   261.6301 6.5035e+02     2.7491     -0.516     -0.749    14.6315 0.0000e+00
     -0.527 2.4483e-14     8.3046     81.774      4.890   3.874781     0.0081      7.486   261.3400 7.6916e+02     3.3970     -0.517     -0.749    14.6287 0.0000e+00
     -0.527 1.3361e-14     8.3034     81.803      4.361   3.455308    -0.0294      7.569   261.0904 8.4498e+02     3.8065     -0.516     -0.749    14.6261 0.0000e+00
     -0.527 1.2147e-15     8.3083     81.853      3.984   3.156869    -0.0382      7.578   260.7624 8.0758e+02     3.8403     -0.517     -0.749    14.6225 0.0000e+00
     -0.527 1.1042e-16     8.3123     81.940      3.694   2.927024    -0.0569      7.538   260.7299 6.7756e+02     3.7707     -0.517     -0.749    14.6191 0.0000e+00
     -0.527 1.0039e-17     8.3144     82.077      3.412   2.703412    -0.0636      7.508   260.9559 5.5586e+02     3.7854     -0.516     -0.748    14.6160 0.0000e+00
     -0.527 9.2014e-19     8.3173     82.229      3.131   2.480308    -0.0530      7.504   261.1718 5.9222e+02     3.9499     -0.517     -0.749    14.6133 0.0000e+00
     -0.527 1.6593e-19     8.3223     82.300      3.008   2.383269    -0.0452      7.506   261.2750 8.0810e+02     4.0510     -0.516     -0.749    14.6115 0.0000e+00
     -0.527 -9.990e-29     8.3305 -9.990e-29 -9.990e-29 -9.990e-29 -9.990e-29 -9.990e-29 -9.990e-29 9.0537e+02 -9.990e-29     -0.517     -0.749    14.6100 0.0000e+00
     -0.527 -9.990e-29     8.3455 -9.990e-29 -9.990e-29 -9.990e-29 -9.990e-29 -9.990e-29 -9.990e-29 9.0020e+02 -9.990e-29     -0.516     -0.748    14.6089 0.0000e+00
     -0.527 -9.990e-29     8.3653 -9.990e-29 -9.990e-29 -9.990e-29 -9.990e-29 -9.990e-29 -9.990e-29 9.5939e+02 -9.990e-29     -0.517     -0.749    14.6077 0.0000e+00
     -0.527 -9.990e-29     8.3766 -9.990e-29 -9.990e-29 -9.990e-29 -9.990e-29 -9.990e-29 -9.990e-29 1.0008e+03 -9.990e-29     -0.516     -0.748    14.6069 0.0000e+00
