* Sea-Bird SBE19plus  Data File:
* FileName = C:\DATA\101518_fcr_0014.hex
* Software version 2.6.3.104
* Temperature SN = 7809
* Conductivity SN = 7809
* System UpLoad Time = Oct 29 2018 16:40:47
* <ApplicationData>
* <Seaterm232>
* <SoftwareVersion>2.6.3.104</SoftwareVersion>
* <BuildDate>30-Jun-2017</BuildDate>
* </Seaterm232>
* </ApplicationData>
* <InstrumentState>
* <HardwareData DeviceType='SBE19plus' SerialNumber='01907809'>
*
*    <Manufacturer>Sea-Bird Electronics, Inc.</Manufacturer>
*
*    <FirmwareVersion>3.1.8</FirmwareVersion>
*
*    <FirmwareDate>Mar  9 2016 16:22:29</FirmwareDate>
*
*    <CommandSetVersion>1.4</CommandSetVersion>
*
*    <PCBAssembly PCBSerialNum='120721' AssemblyNum='41054J'/>
*
*    <PCBAssembly PCBSerialNum='120715' AssemblyNum='41967A'/>
*
*    <PCBAssembly PCBSerialNum='116699' AssemblyNum='41606'/>
*
*    <PCBAssembly PCBSerialNum='120719' AssemblyNum='41059D'/>
*
*    <MfgDate>28-Apr-2017</MfgDate>
*
*    <InternalSensors>
*
*       <Sensor id='Main Temperature'>
*
*          <type>temperature0</type>
*
*          <SerialNumber>01907809</SerialNumber>
*
*       </Sensor>
*
*       <Sensor id='Main Conductivity'>
*
*          <type>conductivity-0</type>
*
*          <SerialNumber>01907809</SerialNumber>
*
*       </Sensor>
*
*       <Sensor id='Main Pressure'>
*
*          <type>strain-0</type>
*
*          <SerialNumber>10586018</SerialNumber>
*
*       </Sensor>
*
*    </InternalSensors>
*
*    <ExternalSensors>
*
*       <Sensor id='volt 0'>
*
*          <type>pH</type>
*
*          <SerialNumber>27-0363</SerialNumber>
*
*       </Sensor>
*
*       <Sensor id='volt 1'>
*
*          <type>ORP</type>
*
*          <SerialNumber>27-0363</SerialNumber>
*
*       </Sensor>
*
*       <Sensor id='volt 2'>
*
*          <type>OXY</type>
*
*          <SerialNumber>43-0434</SerialNumber>
*
*       </Sensor>
*
*       <Sensor id='volt 3'>
*
*          <type>PAR</type>
*
*          <SerialNumber>1122</SerialNumber>
*
*       </Sensor>
*
*       <Sensor id='volt 4'>
*
*          <type>ECO AFL/FL</type>
*
*          <SerialNumber>FLNTURT-2496</SerialNumber>
*
*       </Sensor>
*
*       <Sensor id='volt 5'>
*
*          <type>ECO-NTU</type>
*
*          <SerialNumber>FLNTURT-2496</SerialNumber>
*
*       </Sensor>
*
*       <Sensor id='serial'>
*
*          <type>not assigned</type>
*
*          <SerialNumber>not assigned</SerialNumber>
*
*       </Sensor>
*
*    </ExternalSensors>
*
* </HardwareData>
* <StatusData DeviceType='SBE19plus' SerialNumber='01907809'>
*
*    <DateTime>2018-10-29T20:36:07</DateTime>
*
*    <LoggingState>not logging</LoggingState>
*
*    <EventSummary numEvents='0'/>
*
*    <Power>
*
*       <vMain>12.7</vMain>
*
*       <vLith>8.4</vLith>
*
*       <iMain>63.3</iMain>
*
*       <iPump>138.1</iPump>
*
*       <iExt01>14.7</iExt01>
*
*       <iExt2345>45.2</iExt2345>
*
*    </Power>
*
*    <MemorySummary>
*
*       <Bytes>262706</Bytes>
*
*       <Samples>11422</Samples>
*
*       <SamplesFree>2849366</SamplesFree>
*
*       <SampleLength>23</SampleLength>
*
*       <Profiles>17</Profiles>
*
*    </MemorySummary>
*
* </StatusData>
* <ConfigurationData DeviceType='SBE19plus' SerialNumber='01907809'>
*
*    <ProfileMode>
*
*       <ScansToAverage>1</ScansToAverage>
*
*       <MinimumCondFreq>5</MinimumCondFreq>
*
*       <PumpDelay>45</PumpDelay>
*
*       <AutoRun>no</AutoRun>
*
*       <IgnoreSwitch>no</IgnoreSwitch>
*
*    </ProfileMode>
*
*    <Battery>
*
*       <Type>alkaline</Type>
*
*       <CutOff>7.5</CutOff>
*
*    </Battery>
*
*    <DataChannels>
*
*       <ExtVolt0>yes</ExtVolt0>
*
*       <ExtVolt1>yes</ExtVolt1>
*
*       <ExtVolt2>yes</ExtVolt2>
*
*       <ExtVolt3>yes</ExtVolt3>
*
*       <ExtVolt4>yes</ExtVolt4>
*
*       <ExtVolt5>yes</ExtVolt5>
*
*       <SBE38>no</SBE38>
*
*       <WETLABS>no</WETLABS>
*
*       <OPTODE>no</OPTODE>
*
*       <SBE63>no</SBE63>
*
*       <SeaFET>no</SeaFET>
*
*       <GTD>no</GTD>
*
*    </DataChannels>
*
*    <EchoCharacters>yes</EchoCharacters>
*
*    <OutputExecutedTag>yes</OutputExecutedTag>
*
*    <OutputFormat>raw HEX</OutputFormat>
*
* </ConfigurationData>
* <CalibrationCoefficients DeviceType='SBE19plus' SerialNumber='01907809'>
*
*    <Calibration format='TEMP1' id='Main Temperature'>
*
*       <SerialNum>01907809</SerialNum>
*
*       <CalDate>09-Mar-18</CalDate>
*
*       <TA0>1.210932e-03</TA0>
*
*       <TA1>2.843566e-04</TA1>
*
*       <TA2>-1.945074e-06</TA2>
*
*       <TA3>2.128067e-07</TA3>
*
*       <TOFFSET>0.000000e+00</TOFFSET>
*
*    </Calibration>
*
*    <Calibration format='WBCOND0' id='Main Conductivity'>
*
*       <SerialNum>01907809</SerialNum>
*
*       <CalDate>09-Mar-18</CalDate>
*
*       <G>-1.006721e+00</G>
*
*       <H>1.269065e-01</H>
*
*       <I>-1.405844e-04</I>
*
*       <J>2.478371e-05</J>
*
*       <CPCOR>-9.570000e-08</CPCOR>
*
*       <CTCOR>3.250000e-06</CTCOR>
*
*       <CSLOPE>1.000000e+00</CSLOPE>
*
*    </Calibration>
*
*    <Calibration format='STRAIN0' id='Main Pressure'>
*
*       <SerialNum>10586018</SerialNum>
*
*       <CalDate>07-Mar-18</CalDate>
*
*       <PA0>-4.081764e-02</PA0>
*
*       <PA1>4.851884e-04</PA1>
*
*       <PA2>-3.511682e-12</PA2>
*
*       <PTCA0>5.252134e+05</PTCA0>
*
*       <PTCA1>1.795324e+00</PTCA1>
*
*       <PTCA2>-2.843535e-01</PTCA2>
*
*       <PTCB0>2.516687e+01</PTCB0>
*
*       <PTCB1>3.750000e-04</PTCB1>
*
*       <PTCB2>0.000000e+00</PTCB2>
*
*       <PTEMPA0>-5.378069e+01</PTEMPA0>
*
*       <PTEMPA1>5.366207e+01</PTEMPA1>
*
*       <PTEMPA2>4.872143e-02</PTEMPA2>
*
*       <POFFSET>5.000000e-01</POFFSET>
*
*       <PRANGE>1.600000e+02</PRANGE>
*
*    </Calibration>
*
*    <Calibration format='VOLT0' id='Volt 0'>
*
*       <OFFSET>-4.920000e-02</OFFSET>
*
*       <SLOPE>1.248122e+00</SLOPE>
*
*    </Calibration>
*
*    <Calibration format='VOLT0' id='Volt 1'>
*
*       <OFFSET>-4.784000e-02</OFFSET>
*
*       <SLOPE>1.248871e+00</SLOPE>
*
*    </Calibration>
*
*    <Calibration format='VOLT0' id='Volt 2'>
*
*       <OFFSET>-4.864632e-02</OFFSET>
*
*       <SLOPE>1.248714e+00</SLOPE>
*
*    </Calibration>
*
*    <Calibration format='VOLT0' id='Volt 3'>
*
*       <OFFSET>-4.743790e-02</OFFSET>
*
*       <SLOPE>1.248571e+00</SLOPE>
*
*    </Calibration>
*
*    <Calibration format='VOLT0' id='Volt 4'>
*
*       <OFFSET>-4.671263e-02</OFFSET>
*
*       <SLOPE>1.248951e+00</SLOPE>
*
*    </Calibration>
*
*    <Calibration format='VOLT0' id='Volt 5'>
*
*       <OFFSET>-4.871053e-02</OFFSET>
*
*       <SLOPE>1.249136e+00</SLOPE>
*
*    </Calibration>
*
*    <Calibration format='FREQ0' id='external frequency channel'>
*
*       <EXTFREQSF>1.000014e+00</EXTFREQSF>
*
*    </Calibration>
*
* </CalibrationCoefficients>
* <EventCounters DeviceType='SBE19plus' SerialNumber='01907809'>
*
*    <EventSummary numEvents='0'/>
*
* </EventCounters></InstrumentState>
* <Headers>
*
* cast  14 29 Oct 2018 14:33:59 samples 9042 to 9447, avg = 1, stop = mag switch
*
# nquan = 17
# nvalues = 359                         
# units = specified
# name 0 = depFM: Depth [fresh water, m]
# name 1 = tv290C: Temperature [ITS-90, deg C]
# name 2 = sbeox0Mg/L: Oxygen, SBE 43 [mg/l]
# name 3 = sbeox0PS: Oxygen, SBE 43 [% saturation]
# name 4 = c0uS/cm: Conductivity [uS/cm]
# name 5 = specc: Specific Conductance [uS/cm]
# name 6 = ph: pH
# name 7 = orp: Oxidation Reduction Potential [mV]
# name 8 = flECO-AFL: Fluorescence, WET Labs ECO-AFL/FL [mg/m^3]
# name 9 = turbWETntu0: Turbidity, WET Labs ECO [NTU]
# name 10 = sal00: Salinity, Practical [PSU]
# name 11 = dz/dtM: Descent Rate [m/s]
# name 12 = prdM: Pressure, Strain Gauge [db]
# name 13 = prdE: Pressure, Strain Gauge [psi]
# name 14 = scan: Scan Count
# name 15 = par/sat/log: PAR/Logarithmic, Satlantic
# name 16 = flag:  0.000e+00
# span 0 =     -0.631,      3.115       
# span 1 =    10.4355,    12.1365       
# span 2 =     5.5499,    10.7995       
# span 3 =     51.268,    100.003       
# span 4 =   0.930262,  28.128576       
# span 5 =      1.308,     38.136       
# span 6 =      5.878,      9.852       
# span 7 =  -366.8866,  1240.2295       
# span 8 =    -1.3991,     3.8213       
# span 9 =    -0.1169,   114.6920       
# span 10 =     0.0055,     0.0205      
# span 11 =     -0.287,      0.223      
# span 12 =     -0.619,      3.054      
# span 13 =     -0.898,      4.430      
# span 14 =          1,        359      
# span 15 = 9.8168e+00, 2.0349e+03      
# span 16 = 0.0000e+00, 0.0000e+00      
# interval = seconds: 0.25
# start_time = Oct 29 2018 14:33:59 [Instrument's time stamp, header]
# bad_flag = -9.990e-29
# <Sensors count="9" >
#   <sensor Channel="1" >
#     <!-- Count, Temperature -->
#     <TemperatureSensor SensorID="58" >
#       <SerialNumber>7809</SerialNumber>
#       <CalibrationDate>09-Mar-18</CalibrationDate>
#       <A0>1.21093245e-003</A0>
#       <A1>2.84356597e-004</A1>
#       <A2>-1.94507398e-006</A2>
#       <A3>2.12806664e-007</A3>
#       <Slope>1.00000000</Slope>
#       <Offset>0.0000</Offset>
#     </TemperatureSensor>
#   </sensor>
#   <sensor Channel="2" >
#     <!-- Frequency 0, Conductivity -->
#     <ConductivitySensor SensorID="3" >
#       <SerialNumber>7809</SerialNumber>
#       <CalibrationDate>09-Mar-18</CalibrationDate>
#       <UseG_J>1</UseG_J>
#       <!-- Cell const and series R are applicable only for wide range sensors. -->
#       <SeriesR>0.0000</SeriesR>
#       <CellConst>2000.0000</CellConst>
#       <ConductivityType>0</ConductivityType>
#       <Coefficients equation="0" >
#         <A>0.00000000e+000</A>
#         <B>0.00000000e+000</B>
#         <C>0.00000000e+000</C>
#         <D>0.00000000e+000</D>
#         <M>0.0</M>
#         <CPcor>-9.57000000e-008</CPcor>
#       </Coefficients>
#       <Coefficients equation="1" >
#         <G>-1.00672082e+000</G>
#         <H>1.26906489e-001</H>
#         <I>-1.40584351e-004</I>
#         <J>2.47837121e-005</J>
#         <CPcor>-9.57000000e-008</CPcor>
#         <CTcor>3.2500e-006</CTcor>
#         <!-- WBOTC not applicable unless ConductivityType = 1. -->
#         <WBOTC>0.00000000e+000</WBOTC>
#       </Coefficients>
#       <Slope>1.00000000</Slope>
#       <Offset>0.00000</Offset>
#     </ConductivitySensor>
#   </sensor>
#   <sensor Channel="3" >
#     <!-- Count, Pressure, Strain Gauge -->
#     <PressureSensor SensorID="46" >
#       <SerialNumber>7809</SerialNumber>
#       <CalibrationDate>07-Mar-18</CalibrationDate>
#       <PA0>-4.08176359e-002</PA0>
#       <PA1>4.85188419e-004</PA1>
#       <PA2>-3.51168169e-012</PA2>
#       <PTEMPA0>-5.37806900e+001</PTEMPA0>
#       <PTEMPA1>5.36620721e+001</PTEMPA1>
#       <PTEMPA2>4.87214332e-002</PTEMPA2>
#       <PTCA0>5.25213435e+005</PTCA0>
#       <PTCA1>1.79532409e+000</PTCA1>
#       <PTCA2>-2.84353509e-001</PTCA2>
#       <PTCB0>2.51668750e+001</PTCB0>
#       <PTCB1>3.75000000e-004</PTCB1>
#       <PTCB2>0.00000000e+000</PTCB2>
#       <Offset>0.000000</Offset>
#     </PressureSensor>
#   </sensor>
#   <sensor Channel="4" >
#     <!-- A/D voltage 0, pH -->
#     <pH_Sensor SensorID="43" >
#       <SerialNumber>0363</SerialNumber>
#       <CalibrationDate>16-Mar-18</CalibrationDate>
#       <Slope>4.6194</Slope>
#       <Offset>2.5947</Offset>
#     </pH_Sensor>
#   </sensor>
#   <sensor Channel="5" >
#     <!-- A/D voltage 1, Oxidation Reduction Potential -->
#     <OxidationReductionPotentialSensor SensorID="41" >
#       <SerialNumber>0363</SerialNumber>
#       <CalibrationDate>16-Mar-18</CalibrationDate>
#       <B>2.499480</B>
#       <M>-0.496195</M>
#       <Offset>0.0</Offset>
#     </OxidationReductionPotentialSensor>
#   </sensor>
#   <sensor Channel="6" >
#     <!-- A/D voltage 2, Oxygen, SBE 43 -->
#     <OxygenSensor SensorID="38" >
#       <SerialNumber>0434</SerialNumber>
#       <CalibrationDate>13-Mar-18</CalibrationDate>
#       <Use2007Equation>1</Use2007Equation>
#       <CalibrationCoefficients equation="0" >
#         <!-- Coefficients for Owens-Millard equation. -->
#         <Boc>0.0000</Boc>
#         <Soc>0.0000e+000</Soc>
#         <offset>0.0000</offset>
#         <Pcor>0.00e+000</Pcor>
#         <Tcor>0.0000</Tcor>
#         <Tau>0.0</Tau>
#       </CalibrationCoefficients>
#       <CalibrationCoefficients equation="1" >
#         <!-- Coefficients for Sea-Bird equation - SBE calibration in 2007 and later. -->
#         <Soc>4.5718e-001</Soc>
#         <offset>-0.6113</offset>
#         <A>-4.0649e-003</A>
#         <B> 2.0945e-004</B>
#         <C>-3.3182e-006</C>
#         <D0> 2.5826e+000</D0>
#         <D1> 1.92634e-004</D1>
#         <D2>-4.64803e-002</D2>
#         <E> 3.6000e-002</E>
#         <Tau20> 1.2200</Tau20>
#         <H1>-3.3000e-002</H1>
#         <H2> 5.0000e+003</H2>
#         <H3> 1.4500e+003</H3>
#       </CalibrationCoefficients>
#     </OxygenSensor>
#   </sensor>
#   <sensor Channel="7" >
#     <!-- A/D voltage 3, PAR/Logarithmic, Satlantic -->
#     <PARLog_SatlanticSensor SensorID="76" >
#       <SerialNumber>1122</SerialNumber>
#       <CalibrationDate>22-Jun-2017</CalibrationDate>
#       <a0>9.6090e-001</a0>
#       <a1>8.0780e-001</a1>
#       <Im>1.3589e+000</Im>
#       <Multiplier>1.0000e+000</Multiplier>
#     </PARLog_SatlanticSensor>
#   </sensor>
#   <sensor Channel="8" >
#     <!-- A/D voltage 4, Fluorometer, WET Labs ECO-AFL/FL -->
#     <FluoroWetlabECO_AFL_FL_Sensor SensorID="20" >
#       <SerialNumber>FLNTURT-2496</SerialNumber>
#       <CalibrationDate>25-Jan-2017</CalibrationDate>
#       <ScaleFactor>5.30000000e+001</ScaleFactor>
#       <!-- Dark output -->
#       <Vblank>0.0560</Vblank>
#     </FluoroWetlabECO_AFL_FL_Sensor>
#   </sensor>
#   <sensor Channel="9" >
#     <!-- A/D voltage 5, Turbidity Meter, WET Labs, ECO-NTU -->
#     <TurbidityMeter SensorID="67" >
#       <SerialNumber>FLNTURT-2496</SerialNumber>
#       <CalibrationDate>25-Jan-2017</CalibrationDate>
#       <ScaleFactor>176.000000</ScaleFactor>
#       <!-- Dark output -->
#       <DarkVoltage>0.072000</DarkVoltage>
#     </TurbidityMeter>
#   </sensor>
# </Sensors>
# datcnv_date = Oct 29 2018 16:48:39, 7.26.7.114 [datcnv_vars = 16]
# datcnv_in = C:\DATA\102918_fcr20.hex C:\DATA\SBE19plusV2_7809.xmlcon
# datcnv_skipover = 0
# datcnv_ox_hysteresis_correction = yes
# datcnv_ox_tau_correction = yes
# filter_date = Oct 29 2018 16:49:04, 7.26.7.114
# filter_in = C:\DATA\102918_fcr20.cnv
# filter_low_pass_tc_A = 0.030
# filter_low_pass_tc_B = 0.150
# filter_low_pass_A_vars = tv290C c0uS/cm par/sat/log
# filter_low_pass_B_vars = prdM prdE
# alignctd_date = Oct 29 2018 16:49:26, 7.26.7.114
# alignctd_in = C:\DATA\102918_fcr20.cnv
# alignctd_adv = tv290C 0.500, sbeox0Mg/L 3.000, sbeox0PS 3.000                                                                                                                                                                      
# file_type = ascii
*END*
     -0.631    10.4692    10.7945     96.644   1.033198      1.466      9.808  -211.0283     0.0122    -0.0766     0.0055 4.2106e-16     -0.619     -0.898          1 1.7385e+02 0.0000e+00
     -0.630    10.4720    10.7933     96.627   0.991025      1.387      9.852  -366.8866    -0.0242    -0.1169     0.0055      0.000     -0.618     -0.897          2 9.2819e+02 0.0000e+00
     -0.630    10.4734    10.7908     96.598   0.977695      1.387      8.120   770.4967    -0.0242    -0.0229     0.0055      0.000     -0.618     -0.897          3 7.4379e+02 0.0000e+00
     -0.630    10.4725    10.7972     96.648   0.931354      1.308      6.835  1233.4530    -0.3235     0.6754     0.0055      0.000     -0.618     -0.897          4 1.5025e+02 0.0000e+00
     -0.631    10.4703    10.7995     96.663   0.930262      1.308      6.213  1240.2295    -0.3356     0.5814     0.0055      0.000     -0.619     -0.898          5 2.3432e+02 0.0000e+00
     -0.631    10.4676    10.7653     96.689   0.979053      1.387      6.016  1240.2295    -0.3518     0.5814     0.0055      0.000     -0.619     -0.898          6 1.6158e+02 0.0000e+00
     -0.631    10.4645    10.6499     96.586   0.989067      1.387      5.878  1240.2295    -0.3154     0.6351     0.0055      0.000     -0.619     -0.897          7 1.4914e+02 0.0000e+00
     -0.630    10.4603    10.5740     96.614   0.977017      1.387      5.972  1240.2295    -0.3639     0.6082     0.0055      0.000     -0.618     -0.897          8 5.1459e+02 0.0000e+00
     -0.630    10.4559    10.5263     96.641   0.994049      1.387      5.991  1240.2295    -0.0040     3.0924     0.0055      0.000     -0.618     -0.897          9 6.8178e+02 0.0000e+00
     -0.630    10.4525    10.4903     96.621   1.086304      1.545      5.958  1240.2295     0.0000     3.1058     0.0055      0.000     -0.618     -0.897         10 6.6844e+02 0.0000e+00
     -0.630    10.4487    10.4581     96.577   1.276724      1.781      5.970  1240.2295    -0.0283     3.1864     0.0056      0.000     -0.618     -0.897         11 6.8155e+02 0.0000e+00
     -0.631    10.4468    10.4396     96.604   1.290027      1.860      5.993  1240.2295    -0.0161     3.0655     0.0056      0.000     -0.619     -0.897         12 6.3789e+02 0.0000e+00
     -0.631    10.4426    10.4291     96.653   1.365835      1.860      6.009  1240.2295    -1.3829     4.3546     0.0056      0.000     -0.619     -0.897         13 5.5336e+02 0.0000e+00
     -0.630    10.4415    10.4216     96.685   1.241600      1.860      6.014  1240.2295    -1.3667     4.3009     0.0056      0.000     -0.618     -0.897         14 2.3745e+02 0.0000e+00
     -0.630    10.4355    10.4423     96.934   1.592679      2.057      6.030  1240.2295    -1.3910     4.3815     0.0056      0.000     -0.617     -0.895         15 2.0582e+02 0.0000e+00
     -0.629    10.5958    10.4692     97.220   1.225010      2.057      6.046  1240.2295    -1.3991     4.3546     0.0056      0.000     -0.604     -0.875         16 2.0618e+02 0.0000e+00
     -0.585    10.9898    10.5099     97.596   3.090812      3.711      6.697  1240.2295    -0.0040     3.9384     0.0061      0.012     -0.566     -0.820         17 2.6966e+02 0.0000e+00
     -0.516    11.3239    10.5670     98.124  14.257283     20.246      6.763   312.6132    -0.0040     3.8578     0.0124      0.039     -0.508     -0.737         18 6.5950e+02 0.0000e+00
     -0.454    11.5262    10.6140     98.558  25.158461     35.178      7.037   236.7473    -0.0121     4.0324     0.0189      0.075     -0.449     -0.652         19 4.7330e+02 0.0000e+00
     -0.406    11.6720    10.6623     99.000  27.718959     38.136      7.381   225.4280    -0.0121     4.0592     0.0203      0.111     -0.398     -0.578         20 5.5191e+02 0.0000e+00
     -0.359    11.7835    10.7158     99.490  27.698119     37.917      7.639   234.8544     3.0045    30.6062     0.0203      0.145     -0.348     -0.505         21 1.1414e+03 0.0000e+00
     -0.299    11.8753    10.7506     99.826  27.763495     37.848      7.808   226.9801     2.9802    30.7002     0.0203      0.178     -0.292     -0.424         22 1.3125e+03 0.0000e+00
     -0.237    11.9408    10.7671    100.003  27.934019     37.958      7.840   225.8444     3.0206    30.6465     0.0204      0.204     -0.233     -0.338         23 1.2208e+03 0.0000e+00
     -0.177    11.9869    10.7397     99.757  28.108463     38.131      7.815   228.2673     3.0166    30.6600     0.0205      0.221     -0.177     -0.256         24 1.4894e+03 0.0000e+00
     -0.127    12.0138    10.6165     98.631  28.050381     37.949      7.770   217.1372     1.8075     3.3207     0.0205      0.222     -0.128     -0.185         25 1.3883e+03 0.0000e+00
     -0.086    12.0292    10.4042     96.672  27.976628     37.826      7.660   218.9544     1.8601     3.2401     0.0205      0.214     -0.087     -0.127         26 1.0547e+03 0.0000e+00
     -0.054    12.0295    10.1099     93.947  27.874102     37.649      7.606   222.0965     1.8601     3.3744     0.0204      0.206     -0.055     -0.081         27 1.1269e+03 0.0000e+00
     -0.029    12.0276     9.7553     90.668  27.822189     37.556      7.592   227.4344     1.8722     3.2938     0.0204      0.194     -0.033     -0.049         28 6.1574e+02 0.0000e+00
     -0.021    12.0271     9.3755     87.153  27.863343     37.633      7.539   225.8823     1.8156     3.2535     0.0204      0.171     -0.020     -0.029         29 5.9074e+02 0.0000e+00
     -0.011    12.0238     8.9858     83.539  27.822884     37.558      7.470   226.1851     1.7752     3.0387     0.0204      0.142     -0.009     -0.014         30 7.4652e+02 0.0000e+00
      0.001    12.0213     8.6399     80.327  27.813243     37.559      7.399   225.3901     1.7873     3.0924     0.0204      0.112      0.007      0.010         31 5.4340e+02 0.0000e+00
      0.032    12.0272     8.3494     77.628  27.816048     37.562      7.365   220.9987     1.7833     3.1461     0.0204      0.092      0.033      0.048         32 6.1803e+02 0.0000e+00
      0.069    12.0366     8.1320     75.614  27.760101     37.490      7.349   221.4151     1.8075     3.1461     0.0203      0.083      0.064      0.093         33 4.2925e+02 0.0000e+00
      0.096    12.0412     7.9729     74.141  27.764278     37.484      7.326   224.0273     1.9733     3.1058     0.0203      0.081      0.089      0.129         34 3.0014e+02 0.0000e+00
      0.108    12.0486     7.8635     73.130  27.810849     37.549      7.302   220.6580     1.9652     3.0655     0.0204      0.081      0.102      0.148         35 4.9766e+02 0.0000e+00
      0.108    12.0550     7.7679     72.245  27.761437     37.470      7.292   220.5823     1.9774     3.1998     0.0203      0.079      0.106      0.154         36 6.0848e+02 0.0000e+00
      0.109    12.0595     7.6873     71.499  27.766472     37.462      7.302   220.8094     1.9733     3.1327     0.0203      0.076      0.108      0.158         37 6.0808e+02 0.0000e+00
      0.115    12.0674     7.6353     71.013  27.863876     37.606      7.297   221.0365     1.9208     2.9715     0.0204      0.067      0.113      0.163         38 6.1604e+02 0.0000e+00
      0.119    12.0748     7.5891     70.574  27.877397     37.602      7.282   220.8473     1.9046     3.0790     0.0204      0.053      0.115      0.167         39 5.9331e+02 0.0000e+00
      0.118    12.0794     7.5470     70.166  27.868233     37.594      7.266   220.7715     1.8925     3.1193     0.0204      0.035      0.115      0.167         40 4.8766e+02 0.0000e+00
      0.117    12.0814     7.5124     69.845  27.875279     37.586      7.251   220.6580     1.9127     3.1193     0.0204      0.019      0.115      0.167         41 4.4017e+02 0.0000e+00
      0.117    12.0827     7.4770     69.523  27.927921     37.657      7.238   221.6801     1.9693     3.1193     0.0204      0.009      0.114      0.165         42 4.3374e+02 0.0000e+00
      0.114    12.0863     7.4416     69.199  27.921309     37.655      7.223   222.2858     1.9935     3.0655     0.0204      0.004      0.111      0.161         43 5.9944e+02 0.0000e+00
      0.110    12.0910     7.4308     69.100  27.824211     37.503      7.213   222.1723     1.9733     3.2133     0.0204      0.001      0.110      0.159         44 5.3868e+02 0.0000e+00
      0.113    12.0942     7.4323     69.114  27.870870     37.574      7.206   222.5508     1.9491     3.1730     0.0204     -0.001      0.112      0.161         45 4.7524e+02 0.0000e+00
      0.117    12.0970     7.4472     69.252  27.922535     37.645      7.203   223.7623     2.0987     3.3207     0.0204     -0.002      0.114      0.164         46 8.0392e+02 0.0000e+00
      0.116    12.0990     7.4597     69.371  27.878503     37.566      7.193   224.1030     2.1149     3.3744     0.0204     -0.002      0.114      0.165         47 1.1188e+03 0.0000e+00
      0.116    12.0981     7.4805     69.568  27.925668     37.639      7.192   223.8758     2.0866     3.3610     0.0204     -0.001      0.117      0.169         48 1.3115e+03 0.0000e+00
      0.126    12.0914     7.4958     69.714  27.982431     37.712      7.190   224.2923     2.0744     3.3475     0.0204      0.003      0.125      0.180         49 7.0450e+02 0.0000e+00
      0.139    12.0824     7.5078     69.828  27.985748     37.713      7.186   225.3901     2.0704     3.2535     0.0204      0.009      0.132      0.191         50 3.9786e+02 0.0000e+00
      0.136    12.0815     7.5334     70.064  27.980835     37.719      7.175   225.0116     2.0623     3.2535     0.0204      0.013      0.131      0.190         51 6.6780e+02 0.0000e+00
      0.125    12.0861     7.5451     70.163  27.988546     37.729      7.159   225.1251     2.0178     3.1998     0.0204      0.012      0.125      0.180         52 7.2785e+02 0.0000e+00
      0.120    12.0894     7.5688     70.380  27.976153     37.730      7.155   225.0116     2.0259     3.2267     0.0204      0.008      0.120      0.174         53 5.9486e+02 0.0000e+00
      0.122    12.0906     7.5871     70.539  27.996258     37.725      7.156   225.3901     2.0259     3.2670     0.0204      0.004      0.120      0.174         54 4.9031e+02 0.0000e+00
      0.126    12.0904     7.6150     70.785  28.052470     37.835      7.156   225.9201     2.2443     3.1730     0.0205      0.002      0.122      0.177         55 7.6038e+02 0.0000e+00
      0.126    12.0904     7.6424     71.041  28.054438     37.796      7.154   226.2608     2.2240     2.9984     0.0205     -0.001      0.121      0.175         56 8.3082e+02 0.0000e+00
      0.118    12.0919     7.6735     71.336  28.112400     37.909      7.152   226.4123     2.1836     3.0924     0.0205     -0.006      0.114      0.165         57 4.8616e+02 0.0000e+00
      0.104    12.0944     7.7005     71.593  28.128576     37.909      7.146   226.4880     2.2079     3.1998     0.0205     -0.012      0.103      0.149         58 3.3158e+02 0.0000e+00
      0.093    12.0965     7.7127     71.715  28.034307     37.795      7.135   227.0937     1.9935     3.1193     0.0205     -0.015      0.092      0.134         59 4.1260e+02 0.0000e+00
      0.085    12.0984     7.7319     71.894  28.051828     37.792      7.132   227.3208     1.9935     3.0790     0.0205     -0.019      0.087      0.126         60 5.1330e+02 0.0000e+00
      0.088    12.0963     7.7292     71.867  28.106770     37.903      7.133   227.3208     1.9491     3.1058     0.0205     -0.021      0.092      0.134         61 5.7949e+02 0.0000e+00
      0.111    12.0907     7.7270     71.844  28.025228     37.750      7.144   227.2830     1.9733     3.0924     0.0205     -0.017      0.110      0.160         62 4.4812e+02 0.0000e+00
      0.139    12.0882     7.7170     71.744  27.975417     37.715      7.138   228.2673     1.9935     3.2267     0.0204     -0.005      0.130      0.188         63 4.2433e+02 0.0000e+00
      0.145    12.0821     7.7054     71.613  27.931577     37.646      7.118   228.4566     1.9652     3.1193     0.0204      0.010      0.137      0.198         64 4.8453e+02 0.0000e+00
      0.133    12.0740     7.6920     71.466  27.872256     37.572      7.097   228.6837     1.9652     3.0521     0.0204      0.020      0.131      0.190         65 3.8812e+02 0.0000e+00
      0.124    12.0741     7.6714     71.263  27.871356     37.579      7.090   228.9109     1.9652     3.0253     0.0204      0.024      0.122      0.176         66 5.8859e+02 0.0000e+00
      0.116    12.0775     7.6618     71.174  27.932698     37.663      7.093   228.7594     1.9814     3.0924     0.0204      0.022      0.112      0.162         67 6.7854e+02 0.0000e+00
      0.105    12.0819     7.6357     70.942  27.973806     37.737      7.098   229.1001     1.9855     3.0790     0.0204      0.012      0.098      0.142         68 7.7028e+02 0.0000e+00
      0.078    12.0864     7.6317     70.922  27.938789     37.659      7.093   228.6837     1.9652     3.1193     0.0204     -0.008      0.074      0.107         69 8.9989e+02 0.0000e+00
      0.039    12.0871     7.6310     70.928  27.916979     37.654      7.095   228.8351     1.9895     3.1058     0.0204     -0.037      0.046      0.067         70 8.0762e+02 0.0000e+00
      0.024    12.0855     7.6133     70.763  27.941650     37.649      7.095   236.9744     1.9814     3.0521     0.0204     -0.059      0.034      0.051         71 6.7344e+02 0.0000e+00
      0.045    12.0844     7.5892     70.536  27.967381     37.724      7.103   233.8702     1.9693     3.1461     0.0204     -0.061      0.046      0.067         72 7.5734e+02 0.0000e+00
      0.071    12.0797     7.5567     70.235  27.944254     37.650      7.099   233.5673     1.9814     3.1193     0.0204     -0.048      0.064      0.093         73 9.6914e+02 0.0000e+00
      0.078    12.0663     7.5127     69.826  27.911137     37.652      7.095   237.9209     1.9491     3.0253     0.0204     -0.032      0.073      0.106         74 7.0992e+02 0.0000e+00
      0.074    12.0524     7.4579     69.321  27.890004     37.581      7.093   237.5423     1.9572     3.1193     0.0204     -0.017      0.073      0.106         75 1.0375e+03 0.0000e+00
      0.073    12.0453     7.3990     68.774  27.911259     37.670      7.091   238.2616     1.8965     3.1058     0.0204     -0.001      0.073      0.105         76 1.1956e+03 0.0000e+00
      0.075    12.0450     7.3443     68.262  27.884689     37.609      7.093   238.5645     1.9127     3.1730     0.0204      0.015      0.073      0.105         77 8.9510e+02 0.0000e+00
      0.073    12.0513     7.2957     67.809  27.863780     37.616      7.090   238.8295     1.8925     3.1058     0.0204      0.023      0.072      0.103         78 8.2230e+02 0.0000e+00
      0.071    12.0619     7.2600     67.475  27.877989     37.616      7.091   234.4380     1.9046     3.0253     0.0204      0.018      0.071      0.102         79 8.9601e+02 0.0000e+00
      0.073    12.0697     7.2255     67.153  27.926302     37.685      7.089   239.0187     1.9774     3.1327     0.0204      0.007      0.074      0.106         80 1.0797e+03 0.0000e+00
      0.080    12.0691     7.2067     66.975  27.981538     37.750      7.090   238.9809     1.9733     3.0924     0.0204      0.001      0.079      0.114         81 7.7159e+02 0.0000e+00
      0.087    12.0675     7.1859     66.777  27.987130     37.742      7.085   239.6623     1.9895     3.2535     0.0204      0.003      0.085      0.123         82 4.5370e+02 0.0000e+00
      0.093    12.0681     7.1597     66.528  27.978635     37.743      7.086   235.2709     1.9733     2.9984     0.0204      0.008      0.092      0.133         83 3.6421e+02 0.0000e+00
      0.104    12.0688     7.1311     66.258  27.932813     37.669      7.085   239.9652     1.9572     3.1461     0.0204      0.014      0.099      0.142         84 5.6086e+02 0.0000e+00
      0.104    12.0706     7.0992     65.958  27.925564     37.668      7.083   239.9273     1.9814     3.0924     0.0204      0.017      0.101      0.146         85 1.0895e+03 0.0000e+00
      0.104    12.0709     7.0654     65.641  27.928362     37.668      7.080   240.0787     1.9733     2.9984     0.0204      0.019      0.101      0.146         86 8.5652e+02 0.0000e+00
      0.101    12.0692     7.0279     65.289  27.929331     37.665      7.077   239.7380     1.9652     3.1327     0.0204      0.018      0.099      0.142         87 7.2713e+02 0.0000e+00
      0.096    12.0677     6.9873     64.907  27.983654     37.741      7.075   240.0787     1.9046     3.0924     0.0204      0.013      0.095      0.137         88 4.9526e+02 0.0000e+00
      0.093    12.0665     6.9529     64.582  27.979349     37.742      7.070   240.2302     1.9005     3.0924     0.0204      0.006      0.092      0.133         89 1.0374e+03 0.0000e+00
      0.093    12.0658     6.9118     64.194  27.934687     37.669      7.069   240.4195     1.9208     3.1461     0.0204      0.000      0.092      0.133         90 2.0037e+03 0.0000e+00
      0.096    12.0636     6.8721     63.821  27.920646     37.670      7.070   240.9116     1.9167     2.9984     0.0204     -0.003      0.093      0.136         91 7.1723e+02 0.0000e+00
      0.096    12.0602     6.8277     63.404  27.937531     37.670      7.066   241.1766     1.8965     3.0924     0.0204     -0.005      0.094      0.137         92 2.1282e+02 0.0000e+00
      0.095    12.0567     6.7909     63.058  27.913675     37.673      7.064   241.4795     1.9693     3.2133     0.0204     -0.004      0.094      0.137         93 5.1765e+02 0.0000e+00
      0.095    12.0537     6.7548     62.719  27.891039     37.601      7.060   241.6687     1.9652     3.1193     0.0204     -0.003      0.094      0.137         94 4.4800e+02 0.0000e+00
      0.097    12.0518     6.7163     62.357  27.965703     37.755      7.059   241.4795     1.9814     3.0387     0.0204     -0.001      0.095      0.138         95 6.6269e+02 0.0000e+00
      0.099    12.0499     6.6844     62.056  27.939349     37.683      7.058   241.9337     1.9693     3.0253     0.0204      0.002      0.097      0.140         96 3.5583e+02 0.0000e+00
      0.100    12.0472     6.6529     61.759  27.864539     37.609      7.056   242.0852     1.9814     3.1327     0.0204      0.003      0.097      0.141         97 1.2391e+03 0.0000e+00
      0.099    12.0437     6.6216     61.464  27.880917     37.611      7.053   242.1609     2.0097     3.0253     0.0204      0.003      0.096      0.140         98 1.8381e+03 0.0000e+00
      0.097    12.0399     6.5922     61.186  27.918969     37.689      7.053   242.4637     2.0016     3.1730     0.0204      0.002      0.095      0.138         99 7.3731e+02 0.0000e+00
      0.095    12.0363     6.5628     60.907  27.876479     37.618      7.051   242.5016     1.9531     3.0924     0.0204      0.001      0.094      0.136        100 7.1046e+02 0.0000e+00
      0.095    12.0332     6.5377     60.670  27.874501     37.621      7.049   242.9180     1.9895     3.1193     0.0204     -0.000      0.094      0.136        101 6.3128e+02 0.0000e+00
      0.095    12.0302     6.5091     60.399  27.921433     37.701      7.050   242.7287     1.9693     3.1461     0.0204     -0.001      0.093      0.135        102 4.7680e+02 0.0000e+00
      0.093    12.0270     6.4721     60.052  27.877369     37.628      7.048   243.7130     1.9976     3.2267     0.0204     -0.002      0.092      0.133        103 7.1821e+02 0.0000e+00
      0.093    12.0240     6.4415     59.763  27.870044     37.631      7.047   243.4102     1.9693     3.1461     0.0204     -0.003      0.092      0.133        104 6.1447e+02 0.0000e+00
      0.094    12.0209     6.4186     59.546  27.871254     37.635      7.044   242.9938     1.9814     3.0924     0.0204     -0.003      0.093      0.134        105 1.2677e+03 0.0000e+00
      0.096    12.0177     6.3965     59.337  27.875864     37.638      7.043   243.1830     1.9652     3.1193     0.0204     -0.002      0.094      0.136        106 2.0349e+03 0.0000e+00
      0.098    12.0144     6.3760     59.141  27.923604     37.716      7.041   243.4102     1.9895     3.0790     0.0204     -0.000      0.096      0.139        107 1.3217e+03 0.0000e+00
      0.099    12.0109     6.3506     58.902  27.930434     37.719      7.038   243.8645     1.9814     3.1461     0.0204      0.002      0.097      0.141        108 5.0352e+02 0.0000e+00
      0.100    12.0072     6.3293     58.701  27.867365     37.647      7.039   243.5995     1.9329     3.0521     0.0204      0.003      0.097      0.141        109 4.1096e+02 0.0000e+00
      0.098    12.0032     6.3065     58.485  27.824208     37.575      7.039   243.5616     1.8803     3.0790     0.0204      0.003      0.096      0.140        110 4.8065e+02 0.0000e+00
      0.097    11.9997     6.2927     58.353  27.865554     37.655      7.036   243.7888     1.9127     3.1193     0.0204      0.003      0.095      0.139        111 4.5298e+02 0.0000e+00
      0.097    11.9964     6.2651     58.093  27.875207     37.659      7.035   244.0159     1.9208     3.1058     0.0204      0.002      0.095      0.139        112 4.2522e+02 0.0000e+00
      0.098    11.9931     6.2461     57.912  27.871491     37.662      7.032   243.8645     1.9086     3.1058     0.0204      0.001      0.096      0.140        113 6.5509e+02 0.0000e+00
      0.099    11.9900     6.2326     57.782  27.870180     37.666      7.031   243.8645     1.8965     3.1864     0.0204      0.000      0.096      0.140        114 5.8388e+02 0.0000e+00
      0.098    11.9866     6.2074     57.544  27.876839     37.669      7.033   244.2809     1.9046     3.1595     0.0204     -0.000      0.095      0.139        115 5.0928e+02 0.0000e+00
      0.096    11.9829     6.1817     57.302  27.863207     37.672      7.032   244.5080     1.8965     3.1193     0.0204     -0.001      0.094      0.137        116 7.4925e+02 0.0000e+00
      0.096    11.9795     6.1674     57.165  27.827852     37.600      7.029   244.5080     1.9005     3.0924     0.0204     -0.001      0.094      0.137        117 9.2377e+02 0.0000e+00
      0.097    11.9765     6.1397     56.904  27.861541     37.679      7.026   245.1138     1.8925     3.1058     0.0204     -0.001      0.095      0.138        118 5.0718e+02 0.0000e+00
      0.099    11.9736     6.1231     56.746  27.880578     37.683      7.028   245.0759     1.9410     3.1730     0.0204     -0.000      0.097      0.140        119 2.1633e+02 0.0000e+00
      0.100    11.9706     6.1070     56.592  27.863460     37.686      7.025   244.9623     1.9248     3.2267     0.0204      0.001      0.098      0.142        120 5.0304e+02 0.0000e+00
      0.101    11.9678     6.0879     56.411  27.823550     37.613      7.025   244.9245     1.9167     3.0253     0.0204      0.001      0.098      0.143        121 6.9646e+02 0.0000e+00
      0.100    11.9647     6.0630     56.177  27.811655     37.616      7.023   245.1516     1.9046     3.1193     0.0204      0.002      0.098      0.142        122 3.6843e+02 0.0000e+00
      0.099    11.9608     6.0541     56.091  27.818970     37.619      7.022   244.8866     1.8803     3.0253     0.0204      0.002      0.097      0.141        123 2.5095e+02 0.0000e+00
      0.099    11.9572     6.0434     55.989  27.814447     37.622      7.020   245.1138     1.9410     3.1998     0.0204      0.002      0.097      0.140        124 3.2168e+02 0.0000e+00
      0.099    11.9541     6.0198     55.767  27.817283     37.626      7.021   245.4923     1.9410     3.0521     0.0204      0.001      0.097      0.140        125 3.1495e+02 0.0000e+00
      0.099    11.9508     6.0013     55.592  27.815441     37.630      7.020   245.4166     1.9086     3.0521     0.0204      0.000      0.097      0.140        126 2.9867e+02 0.0000e+00
      0.098    11.9475     5.9819     55.408  27.816742     37.633      7.017   245.7195     1.9167     3.1461     0.0204     -0.001      0.096      0.140        127 1.6463e+02 0.0000e+00
      0.098    11.9440     5.9633     55.232  27.815668     37.637      7.016   245.8330     1.9005     3.0790     0.0204     -0.001      0.096      0.140        128 1.3825e+02 0.0000e+00
      0.099    11.9409     5.9531     55.135  27.816779     37.640      7.014   245.9845     1.9491     3.0521     0.0204     -0.001      0.097      0.141        129 1.7459e+02 0.0000e+00
      0.100    11.9379     5.9400     55.010  27.815359     37.643      7.013   246.4388     1.8480     3.0253     0.0204     -0.000      0.098      0.142        130 2.0280e+02 0.0000e+00
      0.102    11.9347     5.9189     54.812  27.817435     37.647      7.012   246.3252     1.8439     2.9984     0.0204      0.001      0.100      0.145        131 1.7756e+02 0.0000e+00
      0.104    11.9314     5.9063     54.692  27.814198     37.650      7.006   245.2652     1.8156     3.0790     0.0204      0.002      0.103      0.149        132 1.4226e+02 0.0000e+00
      0.110    11.9287     5.8944     54.577  27.819390     37.653      7.004   246.7038     1.8399     3.0924     0.0204      0.005      0.108      0.156        133 1.5807e+02 0.0000e+00
      0.115    11.9263     5.8815     54.454  27.810975     37.656      7.002   247.1959     1.8439     3.1193     0.0204      0.008      0.111      0.161        134 2.7287e+02 0.0000e+00
      0.115    11.9239     5.8686     54.332  27.824671     37.659      6.999   247.0823     1.9855     2.9984     0.0204      0.009      0.111      0.162        135 2.2296e+02 0.0000e+00
      0.111    11.9211     5.8534     54.188  27.861641     37.737      6.997   247.0445     1.9612     3.0655     0.0204      0.009      0.109      0.158        136 2.3749e+02 0.0000e+00
      0.106    11.9178     5.8438     54.096  27.824263     37.664      6.995   246.6280     1.9612     3.1461     0.0204      0.006      0.105      0.153        137 4.7623e+02 0.0000e+00
      0.106    11.9151     5.8373     54.033  27.811894     37.667      6.981   246.0602     1.9572     3.1998     0.0204      0.004      0.104      0.151        138 3.0903e+02 0.0000e+00
      0.106    11.9126     5.8218     53.889  27.817739     37.670      6.978   247.4609     2.0987     3.0655     0.0204      0.001      0.104      0.151        139 1.9291e+02 0.0000e+00
      0.105    11.9097     5.8064     53.747  27.816989     37.673      6.976   247.7638     2.1027     3.1193     0.0204     -0.002      0.104      0.151        140 1.9689e+02 0.0000e+00
      0.107    11.9075     5.7920     53.612  27.812829     37.675      6.974   248.2181     2.1108     3.0521     0.0204     -0.004      0.105      0.152        141 2.3343e+02 0.0000e+00
      0.108    11.9049     5.7805     53.506  27.763622     37.603      6.966   247.0445     2.1068     3.0655     0.0203     -0.004      0.105      0.152        142 2.7571e+02 0.0000e+00
      0.106    11.9017     5.7739     53.444  27.759636     37.605      6.964   246.6659     2.2362     3.0655     0.0203     -0.003      0.104      0.151        143 3.5176e+02 0.0000e+00
      0.106    11.8989     5.7594     53.306  27.817791     37.683      6.966   246.6659     2.1998     3.1461     0.0204     -0.001      0.104      0.150        144 5.8515e+02 0.0000e+00
      0.105    11.8963     5.7452     53.170  27.869136     37.762      6.968   247.0066     2.2443     3.0790     0.0204     -0.000      0.101      0.147        145 2.9031e+02 0.0000e+00
      0.099    11.8940     5.7368     53.089  27.814330     37.690      6.967   247.0823     2.2726     3.0924     0.0204     -0.002      0.096      0.138        146 1.3338e+02 0.0000e+00
      0.089    11.8913     5.7264     52.991  27.767408     37.616      6.965   247.1959     2.2483     3.1193     0.0203     -0.006      0.086      0.125        147 2.8601e+02 0.0000e+00
      0.076    11.8887     5.7193     52.923  27.808940     37.695      6.958   247.0823     2.2240     3.1193     0.0204     -0.013      0.076      0.110        148 3.5844e+02 0.0000e+00
      0.068    11.8881     5.7150     52.880  27.821939     37.697      6.950   247.3473     2.2443     3.1193     0.0204     -0.019      0.069      0.100        149 3.2750e+02 0.0000e+00
      0.068    11.8886     5.6997     52.735  27.810526     37.700      6.945   247.1202     2.2159     3.0924     0.0204     -0.023      0.068      0.099        150 2.6739e+02 0.0000e+00
      0.073    11.8879     5.6943     52.679  27.823144     37.701      6.945   247.6880     2.2281     3.1461     0.0204     -0.022      0.072      0.104        151 2.4496e+02 0.0000e+00
      0.079    11.8877     5.6897     52.633  27.806236     37.700      6.945   247.9152     2.2483     3.0924     0.0204     -0.018      0.076      0.110        152 2.4573e+02 0.0000e+00
      0.079    11.8868     5.6847     52.583  27.772272     37.625      6.949   247.5745     2.2079     3.0521     0.0203     -0.013      0.078      0.112        153 2.9659e+02 0.0000e+00
      0.078    11.8833     5.6673     52.420  27.806118     37.701      6.955   247.8395     2.2523     3.1461     0.0204     -0.006      0.078      0.113        154 2.1036e+02 0.0000e+00
      0.081    11.8800     5.6574     52.326  27.823412     37.702      6.959   248.0666     2.2402     3.1058     0.0204      0.001      0.081      0.117        155 2.3139e+02 0.0000e+00
      0.087    11.8778     5.6405     52.167  27.810045     37.706      6.958   248.5588     2.3736     3.1595     0.0204      0.007      0.085      0.123        156 1.9090e+02 0.0000e+00
      0.091    11.8758     5.6325     52.093  27.822754     37.709      6.959   248.4831     2.3656     3.0387     0.0204      0.011      0.089      0.129        157 2.7199e+02 0.0000e+00
      0.094    11.8739     5.6242     52.015  27.807597     37.711      6.960   248.8995     2.3534     3.0924     0.0204      0.012      0.092      0.134        158 3.2399e+02 0.0000e+00
      0.097    11.8715     5.6145     51.922  27.769613     37.637      6.961   248.3695     2.3656     3.2267     0.0203      0.011      0.095      0.138        159 3.8464e+02 0.0000e+00
      0.100    11.8679     5.6039     51.820  27.810730     37.715      6.964   248.8238     2.5516     3.0118     0.0204      0.012      0.098      0.142        160 5.8293e+02 0.0000e+00
      0.102    11.8637     5.5899     51.687  27.815724     37.718      6.965   249.0888     2.5718     3.0924     0.0204      0.013      0.100      0.144        161 2.8729e+02 0.0000e+00
      0.103    11.8603     5.5804     51.595  27.763400     37.645      6.966   248.8238     2.5475     3.1193     0.0203      0.012      0.101      0.146        162 3.5799e+02 0.0000e+00
      0.103    11.8578     5.5683     51.483  27.757257     37.650      6.964   249.3159     2.5273     3.0253     0.0203      0.010      0.102      0.148        163 3.1592e+02 0.0000e+00
      0.107    11.8555     5.5591     51.402  27.764075     37.653      6.964   249.3538     2.5111     3.0790     0.0203      0.009      0.106      0.153        164 3.0864e+02 0.0000e+00
      0.113    11.8534     5.5520     51.312  27.814212     37.732      6.962   249.9595     2.5030     3.0924     0.0204      0.009      0.112      0.161        165 8.7675e+02 0.0000e+00
      0.120    11.8519     5.5499     51.268  27.813454     37.734      6.965   249.8838     2.4788     3.1461     0.0204      0.011      0.117      0.170        166 5.3281e+02 0.0000e+00
      0.124    11.8516     5.5550     51.289  27.824315     37.736      6.961   249.9973     2.4788     3.0790     0.0204      0.013      0.121      0.176        167 3.2622e+02 0.0000e+00
      0.127    11.8506     5.5610     51.337  27.859992     37.814      6.960   249.8838     2.5475     3.1058     0.0204      0.014      0.125      0.180        168 6.4054e+02 0.0000e+00
      0.129    11.8477     5.5728     51.484  27.828349     37.738      6.957   249.9973     2.5637     3.1461     0.0204      0.016      0.127      0.184        169 4.4224e+02 0.0000e+00
      0.131    11.8437     5.5991     51.799  27.804397     37.739      6.955   250.1866     2.5920     3.0253     0.0204      0.016      0.129      0.187        170 5.3692e+02 0.0000e+00
      0.133    11.8409     5.6319     52.196  27.771210     37.666      6.952   250.1488     2.5556     3.0387     0.0203      0.015      0.130      0.188        171 6.1865e+02 0.0000e+00
      0.132    11.8370     5.7225     53.133  27.810357     37.746      6.950   250.3381     2.6284     3.1461     0.0204      0.012      0.131      0.189        172 3.2122e+02 0.0000e+00
      0.136    11.8389     5.9055     54.894  27.814976     37.749      6.944   250.4895     2.6405     3.1461     0.0204      0.010      0.132      0.191        173 3.2397e+02 0.0000e+00
      0.137    11.8400     6.1943     57.614  27.824758     37.752      6.938   250.6788     2.6082     3.1595     0.0204      0.008      0.127      0.185        174 2.3476e+02 0.0000e+00
      0.117    11.8213     6.5829     61.248  27.857479     37.828      6.925   252.9502     2.6163     3.0521     0.0204      0.001      0.109      0.159        175 3.2579e+02 0.0000e+00
      0.083    11.7986     7.0553     65.655  27.833549     37.748      6.916   251.4359     2.6001     3.1461     0.0204     -0.013      0.074      0.107        176 5.6572e+02 0.0000e+00
      0.028    11.7777     7.5105     69.896  27.854540     37.846      6.908   250.7923     2.7052     3.0253     0.0204     -0.038      0.016      0.024        177 4.9774e+02 0.0000e+00
     -0.063    11.7712     7.9163     73.676  27.831364     37.792      6.904   250.6031     2.6850     3.2267     0.0204     -0.079     -0.059     -0.085        178 5.7929e+02 0.0000e+00
     -0.143    11.8035     8.2690     76.962  27.862398     37.890      6.913   250.8681     2.7093     3.1193     0.0204     -0.128     -0.126     -0.182        179 5.7789e+02 0.0000e+00
     -0.176    11.8639     8.5231     79.329  27.934514     37.973      6.915   253.5181     2.6850     3.0521     0.0204     -0.167     -0.164     -0.237        180 5.0705e+02 0.0000e+00
     -0.183    11.9431     8.6767     80.760  28.008447     38.053      6.917   253.5559     2.4990     3.1327     0.0205     -0.188     -0.175     -0.253        181 5.0579e+02 0.0000e+00
     -0.177    12.0228     8.7515     81.457  27.977913     37.953      6.914   253.4802     2.5111     3.1327     0.0205     -0.186     -0.171     -0.248        182 4.8789e+02 0.0000e+00
     -0.164    12.0730     8.7647     81.580  27.883547     37.721      6.915   254.0859     2.5192     3.0521     0.0204     -0.159     -0.162     -0.235        183 5.0455e+02 0.0000e+00
     -0.155    12.0990     8.7329     81.284  27.918320     37.713      6.925   251.8145     2.4667     3.0655     0.0204     -0.118     -0.152     -0.221        184 5.1463e+02 0.0000e+00
     -0.146    12.1142     8.6917     80.901  27.934609     37.663      6.924   251.8145     2.1634     3.1730     0.0204     -0.066     -0.144     -0.209        185 5.3041e+02 0.0000e+00
     -0.140    12.1218     8.6380     80.401  27.922551     37.636      6.915   251.8902     2.1674     3.1461     0.0204     -0.017     -0.138     -0.200        186 5.1655e+02 0.0000e+00
     -0.137    12.1256     8.5868     79.924  27.933317     37.622      6.915   251.5495     2.1755     3.0655     0.0204      0.015     -0.133     -0.193        187 5.1103e+02 0.0000e+00
     -0.130    12.1275     8.5379     79.469  27.921206     37.613      6.919   252.0795     2.1836     3.1595     0.0204      0.027     -0.127     -0.185        188 4.9099e+02 0.0000e+00
     -0.125    12.1292     8.4920     79.042  27.937620     37.610      6.923   252.0795     2.0542     3.0387     0.0204      0.029     -0.121     -0.175        189 5.0311e+02 0.0000e+00
     -0.116    12.1302     8.4374     78.534  27.972184     37.683      6.926   252.3823     2.0866     3.1193     0.0204      0.028     -0.112     -0.162        190 5.4796e+02 0.0000e+00
     -0.101    12.1311     8.3986     78.174  27.937486     37.606      6.928   252.5716     2.0340     3.1595     0.0204      0.028     -0.098     -0.142        191 5.7885e+02 0.0000e+00
     -0.083    12.1316     8.3599     77.811  27.921504     37.605      6.936   252.3066     2.0219     2.9984     0.0204      0.032     -0.081     -0.117        192 6.2091e+02 0.0000e+00
     -0.063    12.1318     8.3316     77.546  27.932777     37.604      6.934   252.5716     2.0259     3.0521     0.0204      0.038     -0.061     -0.088        193 6.4407e+02 0.0000e+00
     -0.039    12.1319     8.3073     77.318  27.923456     37.604      6.928   253.0638     2.3009     3.1327     0.0204      0.048     -0.038     -0.056        194 6.6051e+02 0.0000e+00
     -0.016    12.1318     8.2860     77.117  27.933104     37.604      6.925   252.7231     2.2887     3.1327     0.0204      0.059     -0.016     -0.024        195 7.0344e+02 0.0000e+00
      0.004    12.1317     8.2671     76.945  27.920772     37.603      6.921   255.2595     2.3090     3.1327     0.0204      0.069      0.006      0.009        196 5.0322e+02 0.0000e+00
      0.032    12.1315     8.2658     76.939  27.938803     37.604      6.919   253.4045     2.3009     3.0655     0.0204      0.078      0.030      0.044        197 3.9161e+02 0.0000e+00
      0.057    12.1317     8.2520     76.813  27.969960     37.679      6.908   253.0638     2.5597     3.0521     0.0204      0.086      0.055      0.079        198 7.3423e+02 0.0000e+00
      0.078    12.1319     8.2395     76.699  27.941295     37.604      6.906   255.2974     2.5516     3.1461     0.0204      0.090      0.075      0.109        199 6.8391e+02 0.0000e+00
      0.096    12.1320     8.2275     76.588  27.974477     37.679      6.897   255.7895     2.5435     3.0387     0.0204      0.090      0.090      0.130        200 3.6219e+02 0.0000e+00
      0.102    12.1322     8.2018     76.349  27.987961     37.679      6.882   256.3952     2.5556     3.0924     0.0204      0.086      0.092      0.133        201 4.6272e+02 0.0000e+00
      0.085    12.1313     8.1747     76.096  27.924515     37.603      6.878   255.6381     2.6931     3.0924     0.0204      0.071      0.069      0.100        202 5.8496e+02 0.0000e+00
      0.024    12.1298     8.1530     75.893  27.934843     37.603      6.894   254.0481     2.6850     3.1193     0.0204      0.038      0.011      0.017        203 7.8319e+02 0.0000e+00
     -0.073    12.1287     8.1336     75.712  27.975105     37.679      6.904   256.3574     2.6769     3.0924     0.0204     -0.017     -0.076     -0.110        204 1.1189e+03 0.0000e+00
     -0.183    12.1281     8.1178     75.564  27.933703     37.606      6.911   254.6538     2.7254     3.1058     0.0204     -0.090     -0.176     -0.255        205 1.1470e+03 0.0000e+00
     -0.280    12.1299     8.1081     75.472  27.927071     37.607      6.915   254.3131     2.5111     3.1595     0.0204     -0.167     -0.268     -0.388        206 1.0250e+03 0.0000e+00
     -0.358    12.1330     8.1038     75.429  27.983358     37.683      6.914   252.4581     2.4950     3.0521     0.0204     -0.235     -0.339     -0.491        207 1.0259e+03 0.0000e+00
     -0.402    12.1347     8.1054     75.444  27.982245     37.681      6.913   254.7674     2.5030     3.0924     0.0204     -0.282     -0.376     -0.545        208 1.1125e+03 0.0000e+00
     -0.388    12.1358     8.1072     75.459  27.928455     37.602      6.915   257.4174     2.4990     3.1595     0.0204     -0.287     -0.375     -0.543        209 1.0493e+03 0.0000e+00
     -0.358    12.1365     8.1179     75.554  27.872412     37.525      6.915   259.2724     2.0016   114.6249     0.0204     -0.251     -0.354     -0.513        210 1.0539e+03 0.0000e+00
     -0.338    12.1362     8.1150     75.523  27.933399     37.599      6.913   259.0074     1.9935   114.6517     0.0204     -0.185     -0.333     -0.483        211 1.1549e+03 0.0000e+00
     -0.324    12.1359     8.1118     75.483  27.971149     37.674      6.915   259.0452     1.9814   114.6920     0.0204     -0.108     -0.311     -0.451        212 1.1989e+03 0.0000e+00
     -0.286    12.1357     8.1072     75.423  27.884728     37.524      6.917   259.7645     1.9935   114.6786     0.0204     -0.030     -0.275     -0.399        213 1.1844e+03 0.0000e+00
     -0.231    12.1350     8.0886     75.238  27.922357     37.599      6.910   257.9474     1.9572   114.6249     0.0204      0.040     -0.227     -0.329        214 1.1341e+03 0.0000e+00
     -0.178    12.1344     8.0817     75.165  27.983616     37.675      6.909   255.9409     2.1472     3.2535     0.0204      0.096     -0.176     -0.255        215 1.1627e+03 0.0000e+00
     -0.128    12.1334     8.0585     74.945  27.927085     37.600      6.915   255.5624     2.1391     3.2938     0.0204      0.133     -0.128     -0.185        216 1.2100e+03 0.0000e+00
     -0.085    12.1324     8.0353     74.726  27.874119     37.526      6.913   255.9409     2.1634     3.3475     0.0204      0.152     -0.083     -0.120        217 1.1941e+03 0.0000e+00
     -0.041    12.1319     8.0161     74.541  27.930941     37.602      6.909   256.0924     2.1593     3.3341     0.0204      0.166     -0.036     -0.052        218 9.0877e+02 0.0000e+00
      0.015    12.1308     8.0017     74.400  27.915667     37.603      6.910   255.4109     2.6203     3.1864     0.0204      0.181      0.019      0.026        219 5.9376e+02 0.0000e+00
      0.081    12.1285     7.9963     74.346  27.893129     37.528      6.909   255.9031     2.6324     3.0924     0.0204      0.196      0.080      0.115        220 3.9468e+02 0.0000e+00
      0.145    12.1258     7.9997     74.369  27.958991     37.680      6.910   255.6759     2.5880     3.1461     0.0204      0.205      0.140      0.203        221 3.2104e+02 0.0000e+00
      0.200    12.1196     8.0165     74.514  27.892999     37.532      6.910   256.0166     2.6324     3.1461     0.0204      0.210      0.196      0.284        222 2.9660e+02 0.0000e+00
      0.254    12.1102     8.0366     74.694  27.915960     37.610      6.908   256.6224     2.6244     3.0387     0.0204      0.215      0.249      0.360        223 3.0649e+02 0.0000e+00
      0.306    12.1030     8.0445     74.766  27.930417     37.616      6.908   257.1145     2.6244     3.1730     0.0204      0.220      0.299      0.434        224 3.6080e+02 0.0000e+00
      0.358    12.0981     8.0627     74.940  27.934305     37.626      6.909   257.3795     2.6324     3.1461     0.0204      0.223      0.347      0.504        225 4.1606e+02 0.0000e+00
      0.399    12.0954     8.0621     74.942  27.970421     37.708      6.907   257.7581     2.6567     3.2401     0.0204      0.218      0.388      0.564        226 4.6059e+02 0.0000e+00
      0.433    12.0936     8.0545     74.875  27.944771     37.638      6.904   258.2502     2.7497     3.1058     0.0204      0.206      0.423      0.614        227 3.2236e+02 0.0000e+00
      0.464    12.0893     8.0389     74.729  27.966229     37.716      6.903   258.4017     2.7376     3.0655     0.0204      0.189      0.454      0.659        228 2.5743e+02 0.0000e+00
      0.494    12.0854     8.0264     74.610  27.943718     37.642      6.907   258.2881     2.7457     3.0253     0.0204      0.172      0.483      0.701        229 3.6036e+02 0.0000e+00
      0.522    12.0830     8.0125     74.473  27.913491     37.647      6.908   258.8938     2.7618     3.0655     0.0204      0.157      0.511      0.741        230 4.7145e+02 0.0000e+00
      0.548    12.0784     7.9959     74.314  27.944554     37.651      6.906   259.2345     2.8953     3.1461     0.0204      0.141      0.536      0.778        231 3.9953e+02 0.0000e+00
      0.571    12.0720     7.9843     74.204  27.964359     37.728      6.910   259.3859     2.8670     3.0655     0.0204      0.127      0.561      0.815        232 2.7071e+02 0.0000e+00
      0.599    12.0675     7.9746     74.115  27.948140     37.658      6.910   259.1209     2.8953     3.0655     0.0204      0.116      0.589      0.855        233 2.7280e+02 0.0000e+00
      0.632    12.0665     7.9812     74.177  27.964740     37.740      6.906   259.5374     2.8912     3.0521     0.0204      0.111      0.621      0.900        234 2.5756e+02 0.0000e+00
      0.666    12.0693     7.9878     74.239  27.943703     37.669      6.902   259.6509     3.0934     3.4012     0.0204      0.111      0.652      0.946        235 2.6112e+02 0.0000e+00
      0.696    12.0738     7.9998     74.352  27.915025     37.670      6.901   260.4459     3.0732     3.2938     0.0204      0.112      0.681      0.988        236 2.6088e+02 0.0000e+00
      0.721    12.0759     8.0088     74.434  27.941134     37.667      6.896   260.8624     3.0732     3.2401     0.0204      0.113      0.705      1.023        237 2.2355e+02 0.0000e+00
      0.741    12.0756     8.0230     74.564  27.970506     37.738      6.894   260.9002     3.0692     3.3207     0.0204      0.112      0.727      1.055        238 2.3964e+02 0.0000e+00
      0.764    12.0737     8.0320     74.645  27.937767     37.660      6.891   260.5217     3.0651     3.3341     0.0204      0.110      0.751      1.089        239 2.3581e+02 0.0000e+00
      0.794    12.0696     8.0445     74.761  27.922582     37.660      6.893   261.3545     3.4735     3.2938     0.0204      0.108      0.777      1.127        240 2.2304e+02 0.0000e+00
      0.819    12.0664     8.0406     74.725  27.989405     37.738      6.896   261.9602     3.4654     3.2133     0.0204      0.105      0.799      1.159        241 2.5521e+02 0.0000e+00
      0.831    12.0653     8.0404     74.722  27.973197     37.742      6.895   262.3009     3.4573     3.3341     0.0204      0.097      0.813      1.179        242 2.2614e+02 0.0000e+00
      0.837    12.0656     8.0418     74.735  27.942751     37.670      6.892   262.4524     3.4533     3.3207     0.0204      0.087      0.818      1.187        243 1.9287e+02 0.0000e+00
      0.835    12.0661     8.0437     74.751  27.968002     37.746      6.892   261.9981     3.5948     3.4012     0.0204      0.075      0.817      1.185        244 2.1682e+02 0.0000e+00
      0.827    12.0668     8.0432     74.746  27.941776     37.671      6.895   262.2631     3.5827     3.3475     0.0204      0.058      0.812      1.178        245 2.2293e+02 0.0000e+00
      0.823    12.0674     8.0511     74.819  27.916092     37.670      6.899   262.5281     3.5867     3.2938     0.0204      0.040      0.811      1.176        246 2.4227e+02 0.0000e+00
      0.830    12.0665     8.0617     74.917  27.940668     37.669      6.904   262.7174     3.6191     3.3207     0.0204      0.024      0.818      1.187        247 2.4389e+02 0.0000e+00
      0.850    12.0652     8.0672     74.970  27.970488     37.744      6.905   262.7174     3.6029     3.2267     0.0204      0.015      0.838      1.215        248 1.7369e+02 0.0000e+00
      0.883    12.0639     8.0802     75.090  27.938278     37.670      6.904   263.2095     3.5867     3.0118     0.0204      0.019      0.867      1.258        249 1.5579e+02 0.0000e+00
      0.919    12.0634     8.0788     75.077  27.921458     37.671      6.896   263.5124     3.5948     3.0387     0.0204      0.034      0.898      1.303        250 1.7622e+02 0.0000e+00
      0.946    12.0633     8.0766     75.057  27.932125     37.672      6.897   264.0045     3.5908     3.0253     0.0204      0.054      0.925      1.342        251 1.8046e+02 0.0000e+00
      0.965    12.0630     8.0776     75.068  27.925002     37.673      6.894   263.9667     3.6150     3.2670     0.0204      0.074      0.945      1.371        252 1.5695e+02 0.0000e+00
      0.980    12.0628     8.0757     75.049  27.930323     37.673      6.894   264.0045     3.6070     3.2804     0.0204      0.088      0.962      1.395        253 1.4643e+02 0.0000e+00
      0.999    12.0622     8.0683     74.979  27.925504     37.673      6.894   264.0045     3.6070     3.3475     0.0204      0.095      0.979      1.420        254 1.7887e+02 0.0000e+00
      1.017    12.0618     8.0576     74.880  27.930999     37.674      6.889   264.3452     3.5787     3.2535     0.0204      0.093      0.994      1.442        255 1.5521e+02 0.0000e+00
      1.025    12.0616     8.0484     74.794  27.982780     37.750      6.893   264.5724     3.5867     3.2535     0.0204      0.084      1.005      1.457        256 1.4837e+02 0.0000e+00
      1.032    12.0618     8.0436     74.749  27.979655     37.750      6.894   264.6481     3.8213     3.3072     0.0204      0.071      1.012      1.467        257 1.6570e+02 0.0000e+00
      1.038    12.0621     8.0436     74.749  27.934889     37.675      6.893   264.4967     3.7970     3.1998     0.0204      0.058      1.017      1.476        258 1.3659e+02 0.0000e+00
      1.042    12.0622     8.0469     74.780  27.919900     37.675      6.895   264.9888     3.7849     3.2535     0.0204      0.048      1.022      1.483        259 1.3801e+02 0.0000e+00
      1.049    12.0623     8.0495     74.804  27.939012     37.674      6.897   265.0645     3.7768     3.2670     0.0204      0.040      1.028      1.491        260 1.5109e+02 0.0000e+00
      1.054    12.0627     8.0556     74.861  27.970400     37.750      6.896   264.9510     3.7768     3.2401     0.0204      0.033      1.033      1.498        261 1.3423e+02 0.0000e+00
      1.057    12.0630     8.0615     74.916  27.940134     37.674      6.897   265.2160     3.8051     3.3072     0.0204      0.026      1.036      1.503        262 1.2342e+02 0.0000e+00
      1.057    12.0624     8.0646     74.944  27.976678     37.749      6.897   265.4431     3.7930     3.3475     0.0204      0.021      1.038      1.505        263 1.1862e+02 0.0000e+00
      1.059    12.0620     8.0685     74.982  27.984218     37.749      6.900   265.1781     3.7808     3.3207     0.0204      0.017      1.039      1.506        264 1.3169e+02 0.0000e+00
      1.060    12.0620     8.0680     74.977  27.930750     37.674      6.898   265.4810     3.5140     3.2804     0.0204      0.014      1.039      1.507        265 1.3614e+02 0.0000e+00
      1.060    12.0617     8.0687     74.982  27.924627     37.674      6.897   266.1245     3.5584     3.2535     0.0204      0.011      1.039      1.507        266 1.2229e+02 0.0000e+00
      1.060    12.0616     8.0724     75.015  27.932542     37.674      6.898   266.2002     3.5018     3.3475     0.0204      0.008      1.039      1.507        267 1.2909e+02 0.0000e+00
      1.060    12.0618     8.0757     75.045  27.980194     37.750      6.899   266.3895     3.5342     3.3475     0.0204      0.005      1.042      1.511        268 1.3071e+02 0.0000e+00
      1.067    12.0617     8.0735     75.023  27.983917     37.750      6.899   266.3895     3.6474     3.1327     0.0204      0.004      1.049      1.521        269 1.1565e+02 0.0000e+00
      1.080    12.0616     8.0732     75.020  27.927910     37.675      6.902   266.5788     3.6595     3.0655     0.0204      0.008      1.060      1.537        270 1.2270e+02 0.0000e+00
      1.094    12.0617     8.0785     75.069  27.931303     37.675      6.903   266.8438     3.6878     3.1461     0.0204      0.015      1.077      1.562        271 1.3174e+02 0.0000e+00
      1.121    12.0618     8.0830     75.111  27.920400     37.675      6.904   266.9195     3.6636     3.0924     0.0204      0.026      1.101      1.597        272 1.0494e+02 0.0000e+00
      1.152    12.0618     8.0836     75.115  27.941481     37.675      6.904   266.8817     3.6434     3.2535     0.0204      0.042      1.130      1.639        273 1.0297e+02 0.0000e+00
      1.184    12.0621     8.0827     75.106  27.994011     37.788      6.904   266.9195     3.6393     3.3207     0.0205      0.060      1.160      1.683        274 1.1858e+02 0.0000e+00
      1.214    12.0620     8.0822     75.100  27.943968     37.675      6.903   267.0710     3.6636     3.2804     0.0204      0.078      1.189      1.725        275 9.7242e+01 0.0000e+00
      1.242    12.0613     8.0908     75.180  27.914815     37.674      6.899   267.7524     3.6757     3.2938     0.0204      0.094      1.213      1.760        276 9.5148e+01 0.0000e+00
      1.256    12.0607     8.0906     75.178  27.941350     37.674      6.896   267.7524     3.6514     3.2804     0.0204      0.101      1.228      1.782        277 1.0955e+02 0.0000e+00
      1.260    12.0601     8.0986     75.252  27.970241     37.750      6.893   267.1088     3.5180     3.2804     0.0204      0.099      1.236      1.793        278 9.6699e+01 0.0000e+00
      1.266    12.0596     8.0955     75.223  27.938155     37.676      6.892   267.7145     3.5180     3.2535     0.0204      0.090      1.242      1.802        279 9.5606e+01 0.0000e+00
      1.274    12.0593     8.1004     75.269  27.981281     37.752      6.892   267.7524     3.5423     3.3744     0.0204      0.075      1.250      1.813        280 1.0154e+02 0.0000e+00
      1.284    12.0590     8.1039     75.302  28.005515     37.790      6.890   267.6010     3.5342     3.3072     0.0205      0.060      1.260      1.828        281 9.6877e+01 0.0000e+00
      1.297    12.0587     8.1005     75.271  27.937644     37.677      6.894   267.9795     3.4735     3.1998     0.0204      0.048      1.274      1.848        282 8.8245e+01 0.0000e+00
      1.318    12.0581     8.0972     75.240  27.917507     37.677      6.895   267.8281     3.4331     3.2535     0.0204      0.043      1.294      1.877        283 9.2597e+01 0.0000e+00
      1.344    12.0576     8.0980     75.247  27.941634     37.678      6.897   267.9795     3.4695     3.3475     0.0204      0.045      1.319      1.912        284 9.9513e+01 0.0000e+00
      1.372    12.0572     8.0973     75.240  27.966916     37.754      6.894   268.3203     3.4614     3.2535     0.0204      0.055      1.344      1.950        285 8.6717e+01 0.0000e+00
      1.396    12.0569     8.0909     75.180  27.945340     37.679      6.894   268.8881     3.3037     3.2401     0.0204      0.068      1.367      1.981        286 8.4213e+01 0.0000e+00
      1.411    12.0570     8.0966     75.234  27.968484     37.755      6.895   268.2824     3.3441     3.3744     0.0204      0.076      1.384      2.006        287 9.0377e+01 0.0000e+00
      1.426    12.0570     8.0968     75.236  27.938114     37.680      6.894   268.4338     3.3441     3.2267     0.0204      0.081      1.398      2.028        288 8.9806e+01 0.0000e+00
      1.440    12.0568     8.0937     75.207  27.923840     37.679      6.890   268.8881     3.3199     3.3341     0.0204      0.082      1.413      2.049        289 8.5098e+01 0.0000e+00
      1.455    12.0569     8.0880     75.154  27.926952     37.679      6.893   268.4717     3.2835     3.3341     0.0204      0.078      1.430      2.074        290 8.3822e+01 0.0000e+00
      1.481    12.0571     8.0802     75.080  27.934241     37.680      6.894   268.4338     3.2794     3.2804     0.0204      0.075      1.454      2.108        291 7.7258e+01 0.0000e+00
      1.509    12.0571     8.0644     74.933  27.914769     37.679      6.890   268.3581     3.2754     3.4012     0.0204      0.074      1.479      2.145        292 7.1798e+01 0.0000e+00
      1.535    12.0571     8.0547     74.841  27.891889     37.604      6.890   268.9638     3.2996     3.3207     0.0204      0.076      1.502      2.178        293 7.3712e+01 0.0000e+00
      1.549    12.0569     8.0481     74.779  27.962714     37.755      6.880   269.0774     3.3239     3.3475     0.0204      0.078      1.518      2.202        294 7.9607e+01 0.0000e+00
      1.560    12.0566     8.0432     74.734  27.945220     37.679      6.869   268.9260     3.3279     3.3610     0.0204      0.079      1.529      2.218        295 8.2861e+01 0.0000e+00
      1.569    12.0566     8.0517     74.811  27.913660     37.680      6.871   269.3045     3.3118     3.3072     0.0204      0.077      1.541      2.234        296 7.5537e+01 0.0000e+00
      1.584    12.0569     8.0562     74.851  27.942694     37.680      6.868   269.1531     3.3118     3.3744     0.0204      0.073      1.557      2.259        297 7.2105e+01 0.0000e+00
      1.611    12.0571     8.0628     74.910  27.968385     37.755      6.874   269.0017     3.2916     3.2267     0.0204      0.071      1.582      2.295        298 7.0724e+01 0.0000e+00
      1.645    12.0573     8.0731     75.001  27.940984     37.679      6.871   269.3045     3.3199     3.2267     0.0204      0.071      1.612      2.338        299 6.5938e+01 0.0000e+00
      1.672    12.0571     8.0788     75.050  27.976792     37.755      6.872   269.4938     3.3118     3.2267     0.0204      0.074      1.640      2.378        300 5.8883e+01 0.0000e+00
      1.698    12.0563     8.0803     75.062  28.012766     37.792      6.869   269.6831     3.3199     3.3072     0.0205      0.081      1.666      2.416        301 5.8018e+01 0.0000e+00
      1.726    12.0556     8.0775     75.036  27.985160     37.755      6.865   269.8345     3.3401     3.4012     0.0204      0.091      1.692      2.455        302 6.0072e+01 0.0000e+00
      1.752    12.0551     8.0741     75.007  27.981500     37.756      6.867   270.2510     3.3482     3.3341     0.0204      0.100      1.716      2.490        303 5.6768e+01 0.0000e+00
      1.772    12.0548     8.0736     74.998  27.987673     37.756      6.863   270.0238     3.3441     3.3475     0.0204      0.104      1.738      2.521        304 5.6418e+01 0.0000e+00
      1.794    12.0544     8.0737     74.990  27.977478     37.757      6.864   270.0238     3.3482     3.2267     0.0204      0.104      1.760      2.553        305 5.3668e+01 0.0000e+00
      1.819    12.0540     8.0752     74.994  27.994187     37.757      6.864   270.1753     3.3279     3.2401     0.0204      0.100      1.783      2.586        306 5.1967e+01 0.0000e+00
      1.842    12.0529     8.0756     74.992  27.996527     37.795      6.863   270.2131     3.2916     3.3072     0.0205      0.096      1.805      2.618        307 5.0506e+01 0.0000e+00
      1.861    12.0508     8.0719     74.953  27.944919     37.683      6.865   270.3267     3.2754     3.2670     0.0204      0.092      1.825      2.647        308 4.6383e+01 0.0000e+00
      1.881    12.0484     8.0721     74.952  27.969472     37.759      6.869   270.2888     3.2875     3.2267     0.0204      0.089      1.847      2.678        309 4.6157e+01 0.0000e+00
      1.906    12.0464     8.0745     74.972  27.995621     37.761      6.871   270.4403     3.2673     3.2267     0.0204      0.087      1.872      2.714        310 4.4172e+01 0.0000e+00
      1.937    12.0450     8.0666     74.897  27.971673     37.764      6.868   270.9324     3.3360     3.1864     0.0204      0.089      1.902      2.758        311 4.0905e+01 0.0000e+00
      1.974    12.0456     8.0608     74.842  27.939979     37.690      6.867   270.8945     3.3441     3.2267     0.0204      0.095      1.935      2.806        312 3.8557e+01 0.0000e+00
      2.006    12.0466     8.0541     74.778  27.975769     37.767      6.862   270.7053     3.3239     3.2267     0.0204      0.101      1.965      2.850        313 3.7313e+01 0.0000e+00
      2.030    12.0443     8.0507     74.745  27.986431     37.767      6.859   270.8945     3.3441     3.3207     0.0204      0.106      1.991      2.887        314 3.6641e+01 0.0000e+00
      2.055    12.0387     8.0482     74.721  27.986006     37.765      6.863   270.7431     3.3037     3.3475     0.0204      0.110      2.015      2.922        315 3.5789e+01 0.0000e+00
      2.080    12.0331     8.0437     74.679  27.976297     37.768      6.861   271.3110     3.3239     3.2938     0.0204      0.112      2.039      2.957        316 3.4978e+01 0.0000e+00
      2.104    12.0296     8.0389     74.632  27.939219     37.698      6.866   271.7274     3.3724     3.3207     0.0204      0.111      2.063      2.992        317 3.4343e+01 0.0000e+00
      2.126    12.0272     8.0377     74.620  27.972855     37.779      6.867   271.6138     3.3360     3.3072     0.0204      0.107      2.086      3.025        318 3.3610e+01 0.0000e+00
      2.150    12.0250     8.0371     74.613  27.934439     37.707      6.867   271.7274     3.3279     3.2938     0.0204      0.102      2.110      3.060        319 3.2960e+01 0.0000e+00
      2.177    12.0236     8.0283     74.531  27.927734     37.710      6.867   271.5760     3.3199     3.1461     0.0204      0.097      2.136      3.097        320 3.2027e+01 0.0000e+00
      2.205    12.0229     8.0197     74.453  27.981201     37.788      6.867   271.7274     3.3279     3.0521     0.0204      0.096      2.162      3.136        321 3.1002e+01 0.0000e+00
      2.233    12.0222     8.0191     74.448  27.986491     37.789      6.870   271.8410     3.3360     3.0924     0.0204      0.098      2.190      3.176        322 2.9628e+01 0.0000e+00
      2.263    12.0212     8.0112     74.372  27.921151     37.714      6.870   272.0681     3.3279     3.0521     0.0204      0.101      2.217      3.216        323 2.9164e+01 0.0000e+00
      2.287    12.0198     8.0056     74.318  27.884630     37.639      6.873   272.3331     3.4088     3.3207     0.0204      0.103      2.243      3.254        324 2.8807e+01 0.0000e+00
      2.314    12.0196     8.0076     74.336  27.913349     37.716      6.870   272.6360     3.3967     3.3207     0.0204      0.105      2.271      3.294        325 2.7125e+01 0.0000e+00
      2.348    12.0196     8.0102     74.358  27.944708     37.717      6.865   272.4088     3.4048     3.2267     0.0204      0.108      2.303      3.341        326 2.5733e+01 0.0000e+00
      2.385    12.0185     8.0108     74.361  27.964199     37.793      6.868   273.0524     3.4250     3.2804     0.0204      0.113      2.338      3.391        327 2.4797e+01 0.0000e+00
      2.419    12.0175     8.0149     74.397  27.889094     37.642      6.864   272.9388     3.1986     3.2804     0.0204      0.117      2.370      3.437        328 2.4203e+01 0.0000e+00
      2.446    12.0169     8.0183     74.428  27.919583     37.719      6.866   273.2417     3.2309     3.3072     0.0204      0.119      2.398      3.478        329 2.3238e+01 0.0000e+00
      2.472    12.0169     8.0145     74.394  27.926255     37.720      6.862   273.2038     3.1905     3.2267     0.0204      0.120      2.423      3.514        330 2.2444e+01 0.0000e+00
      2.495    12.0180     8.0076     74.335  27.880790     37.645      6.862   273.5067     3.1905     3.2535     0.0204      0.119      2.449      3.551        331 2.1898e+01 0.0000e+00
      2.524    12.0183     8.0040     74.300  27.916869     37.720      6.862   273.5824     3.1541     3.3072     0.0204      0.118      2.476      3.591        332 2.1376e+01 0.0000e+00
      2.554    12.0167     7.9939     74.203  27.881357     37.644      6.863   273.5446     3.1419     3.3878     0.0204      0.115      2.504      3.631        333 2.0730e+01 0.0000e+00
      2.581    12.0156     7.9928     74.191  27.865689     37.643      6.859   273.5824     3.1460     3.3207     0.0204      0.111      2.531      3.670        334 1.9922e+01 0.0000e+00
      2.606    12.0152     7.9927     74.188  27.877072     37.645      6.858   273.5067     3.1460     3.3207     0.0204      0.107      2.557      3.709        335 1.9161e+01 0.0000e+00
      2.635    12.0142     8.0045     74.295  27.867194     37.646      6.855   273.3553     3.2754     3.3207     0.0204      0.106      2.585      3.750        336 1.8303e+01 0.0000e+00
      2.667    12.0125     8.0140     74.381  27.818688     37.571      6.854   273.5824     3.2713     3.1998     0.0204      0.108      2.615      3.793        337 1.7753e+01 0.0000e+00
      2.697    12.0110     8.0214     74.447  27.759552     37.497      6.852   273.5067     3.2633     3.3207     0.0203      0.111      2.645      3.836        338 1.7297e+01 0.0000e+00
      2.728    12.0111     8.0313     74.529  27.822200     37.574      6.850   273.5067     3.2673     3.3610     0.0204      0.113      2.675      3.880        339 1.6648e+01 0.0000e+00
      2.759    12.0122     8.0243     74.454  27.859315     37.651      6.851   273.7717     3.2592     3.3744     0.0204      0.115      2.705      3.923        340 1.6070e+01 0.0000e+00
      2.786    12.0141     8.0229     74.438  27.831952     37.575      6.851   273.5446     3.1541     3.2535     0.0204      0.116      2.733      3.964        341 1.5581e+01 0.0000e+00
      2.815    12.0135     8.0368     74.568  27.856251     37.650      6.854   273.5067     3.1298     3.2804     0.0204      0.117      2.761      4.004        342 1.5090e+01 0.0000e+00
      2.843    12.0117     8.0264     74.467  27.829076     37.572      6.854   273.8474     3.1622     3.3207     0.0204      0.117      2.791      4.048        343 1.4551e+01 0.0000e+00
      2.880    12.0107     8.0273     74.468  27.865773     37.648      6.851   273.7338     3.1298     3.3207     0.0204      0.118      2.824      4.096        344 1.3803e+01 0.0000e+00
      2.915    12.0093     8.0278     74.464  27.869879     37.650      6.849   273.9231     3.1055     3.1058     0.0204      0.119      2.856      4.143        345 1.3385e+01 0.0000e+00
      2.942    12.0076     8.0280     74.455  27.823967     37.576      6.846   274.1503     3.0853     3.0924     0.0204      0.120      2.886      4.187        346 1.3056e+01 0.0000e+00
      2.975    12.0066     8.0203     74.374  27.863614     37.652      6.844   273.6581     3.0894     3.1327     0.0204      0.121      2.918      4.232        347 1.2472e+01 0.0000e+00
      3.010    12.0050 -9.990e-29 -9.990e-29  27.820538     37.579      6.844   273.6203     3.0853     3.1998     0.0204      0.124      2.950      4.278        348 1.1989e+01 0.0000e+00
      3.039    11.9992 -9.990e-29 -9.990e-29  27.758984     37.504      6.844   273.7338     3.1702     3.3341     0.0203      0.125      2.977      4.318        349 1.1620e+01 0.0000e+00
      3.059    11.9931 -9.990e-29 -9.990e-29  27.703038     37.430      6.842   273.5067     3.1460     3.2670     0.0203      0.123      2.996      4.345        350 1.1471e+01 0.0000e+00
      3.066    11.9915 -9.990e-29 -9.990e-29  27.712279     37.436      6.841   273.7717     3.1419     3.2535     0.0203      0.114      3.005      4.359        351 1.1399e+01 0.0000e+00
      3.068    11.9916 -9.990e-29 -9.990e-29  27.688191     37.443      6.839   273.5067     3.1379     3.3744     0.0203      0.098      3.009      4.365        352 1.1310e+01 0.0000e+00
      3.071    11.9896 -9.990e-29 -9.990e-29  27.733017     37.444      6.840   273.0146     2.7457     3.0924     0.0203      0.081      3.014      4.372        353 1.1205e+01 0.0000e+00
      3.081    11.9851 -9.990e-29 -9.990e-29  27.656494     37.444      6.842   273.6581     2.7740     3.1461     0.0203      0.065      3.022      4.383        354 1.0955e+01 0.0000e+00
      3.093    11.9799 -9.990e-29 -9.990e-29  27.724129     37.370      6.842   273.4310     2.7295     3.1058     0.0203      0.050      3.032      4.398        355 1.0595e+01 0.0000e+00
      3.102    11.9734 -9.990e-29 -9.990e-29  27.530260     37.375      6.841   273.2796     2.7740     3.0790     0.0203      0.038      3.041      4.412        356 1.0152e+01 0.0000e+00
      3.110    11.9692 -9.990e-29 -9.990e-29  27.838467     37.380      6.845   273.4688     2.5718     3.0387     0.0203      0.031      3.048      4.422        357 9.8539e+00 0.0000e+00
      3.114 -9.990e-29 -9.990e-29 -9.990e-29  27.251629     37.273      6.847   273.5067     2.5677     3.0253     0.0202      0.029      3.053      4.428        358 9.8168e+00 0.0000e+00
      3.115 -9.990e-29 -9.990e-29 -9.990e-29  25.888909     34.482      6.847   273.5824     2.5435     3.1058     0.0190      0.028      3.054      4.430        359 9.8485e+00 0.0000e+00
