* Sea-Bird SBE19plus  Data File:
* FileName = C:\R\Reservoirs\Data\DataNotYetUploadedToEDI\Raw_CTD\RawDownloads\102924_fcr50_S7809_0012.hex
* Software version 2.8.0.119
* Temperature SN = 7809
* Conductivity SN = 7809
* System UpLoad Time = Oct 29 2024 18:06:27
* <ApplicationData>
* <Seaterm232>
* <SoftwareVersion>2.8.0.119</SoftwareVersion>
* <BuildDate>07-Nov-2018</BuildDate>
* </Seaterm232>
* </ApplicationData>
* <InstrumentState>
* <HardwareData DeviceType='SBE19plus' SerialNumber='01907809'>
*
*    <Manufacturer>Sea-Bird Electronics, Inc.</Manufacturer>
*
*    <FirmwareVersion>3.1.8</FirmwareVersion>
*
*    <FirmwareDate>Mar  9 2016 16:22:29</FirmwareDate>
*
*    <CommandSetVersion>1.4</CommandSetVersion>
*
*    <PCBAssembly PCBSerialNum='120721' AssemblyNum='41054J'/>
*
*    <PCBAssembly PCBSerialNum='120715' AssemblyNum='41967A'/>
*
*    <PCBAssembly PCBSerialNum='116699' AssemblyNum='41606'/>
*
*    <PCBAssembly PCBSerialNum='120719' AssemblyNum='41059D'/>
*
*    <MfgDate>28-Apr-2017</MfgDate>
*
*    <InternalSensors>
*
*       <Sensor id='Main Temperature'>
*
*          <type>temperature0</type>
*
*          <SerialNumber>01907809</SerialNumber>
*
*       </Sensor>
*
*       <Sensor id='Main Conductivity'>
*
*          <type>conductivity-0</type>
*
*          <SerialNumber>01907809</SerialNumber>
*
*       </Sensor>
*
*       <Sensor id='Main Pressure'>
*
*          <type>strain-0</type>
*
*          <SerialNumber>10586018</SerialNumber>
*
*       </Sensor>
*
*    </InternalSensors>
*
*    <ExternalSensors>
*
*       <Sensor id='volt 0'>
*
*          <type>pH</type>
*
*          <SerialNumber>27-0363</SerialNumber>
*
*       </Sensor>
*
*       <Sensor id='volt 1'>
*
*          <type>ORP</type>
*
*          <SerialNumber>27-0363</SerialNumber>
*
*       </Sensor>
*
*       <Sensor id='volt 2'>
*
*          <type>OXY</type>
*
*          <SerialNumber>43-0434</SerialNumber>
*
*       </Sensor>
*
*       <Sensor id='volt 3'>
*
*          <type>PAR</type>
*
*          <SerialNumber>1122</SerialNumber>
*
*       </Sensor>
*
*       <Sensor id='volt 4'>
*
*          <type>ECO AFL/FL</type>
*
*          <SerialNumber>FLNTURT-2496</SerialNumber>
*
*       </Sensor>
*
*       <Sensor id='volt 5'>
*
*          <type>ECO-NTU</type>
*
*          <SerialNumber>FLNTURT-2496</SerialNumber>
*
*       </Sensor>
*
*       <Sensor id='serial'>
*
*          <type>not assigned</type>
*
*          <SerialNumber>not assigned</SerialNumber>
*
*       </Sensor>
*
*    </ExternalSensors>
*
* </HardwareData>
* <StatusData DeviceType='SBE19plus' SerialNumber='01907809'>
*
*    <DateTime>2024-10-29T18:04:33</DateTime>
*
*    <LoggingState>not logging</LoggingState>
*
*    <EventSummary numEvents='0'/>
*
*    <Power>
*
*       <vMain>13.6</vMain>
*
*       <vLith>8.3</vLith>
*
*       <iMain>63.1</iMain>
*
*       <iPump>41.1</iPump>
*
*       <iExt01>18.9</iExt01>
*
*       <iExt2345>34.8</iExt2345>
*
*    </Power>
*
*    <MemorySummary>
*
*       <Bytes>227861</Bytes>
*
*       <Samples>9907</Samples>
*
*       <SamplesFree>2850881</SamplesFree>
*
*       <SampleLength>23</SampleLength>
*
*       <Profiles>14</Profiles>
*
*    </MemorySummary>
*
* </StatusData>
* <ConfigurationData DeviceType='SBE19plus' SerialNumber='01907809'>
*
*    <ProfileMode>
*
*       <ScansToAverage>1</ScansToAverage>
*
*       <MinimumCondFreq>0</MinimumCondFreq>
*
*       <PumpDelay>45</PumpDelay>
*
*       <AutoRun>no</AutoRun>
*
*       <IgnoreSwitch>no</IgnoreSwitch>
*
*    </ProfileMode>
*
*    <Battery>
*
*       <Type>alkaline</Type>
*
*       <CutOff>7.5</CutOff>
*
*    </Battery>
*
*    <DataChannels>
*
*       <ExtVolt0>yes</ExtVolt0>
*
*       <ExtVolt1>yes</ExtVolt1>
*
*       <ExtVolt2>yes</ExtVolt2>
*
*       <ExtVolt3>yes</ExtVolt3>
*
*       <ExtVolt4>yes</ExtVolt4>
*
*       <ExtVolt5>yes</ExtVolt5>
*
*       <SBE38>no</SBE38>
*
*       <WETLABS>no</WETLABS>
*
*       <OPTODE>no</OPTODE>
*
*       <SBE63>no</SBE63>
*
*       <SeaFET>no</SeaFET>
*
*       <GTD>no</GTD>
*
*    </DataChannels>
*
*    <EchoCharacters>yes</EchoCharacters>
*
*    <OutputExecutedTag>yes</OutputExecutedTag>
*
*    <OutputFormat>raw HEX</OutputFormat>
*
* </ConfigurationData>
* <CalibrationCoefficients DeviceType='SBE19plus' SerialNumber='01907809'>
*
*    <Calibration format='TEMP1' id='Main Temperature'>
*
*       <SerialNum>01907809</SerialNum>
*
*       <CalDate>31-Jan-23</CalDate>
*
*       <TA0>1.218232e-03</TA0>
*
*       <TA1>2.815090e-04</TA1>
*
*       <TA2>-1.578887e-06</TA2>
*
*       <TA3>1.972343e-07</TA3>
*
*       <TOFFSET>0.000000e+00</TOFFSET>
*
*    </Calibration>
*
*    <Calibration format='WBCOND0' id='Main Conductivity'>
*
*       <SerialNum>01907809</SerialNum>
*
*       <CalDate>31-Jan-23</CalDate>
*
*       <G>-1.005652e+00</G>
*
*       <H>1.267963e-01</H>
*
*       <I>-1.561708e-04</I>
*
*       <J>2.645944e-05</J>
*
*       <CPCOR>-9.570000e-08</CPCOR>
*
*       <CTCOR>3.250000e-06</CTCOR>
*
*       <CSLOPE>1.000000e+00</CSLOPE>
*
*    </Calibration>
*
*    <Calibration format='STRAIN0' id='Main Pressure'>
*
*       <SerialNum>10586018</SerialNum>
*
*       <CalDate>20-Jan-23</CalDate>
*
*       <PA0>4.416439e-02</PA0>
*
*       <PA1>4.850502e-04</PA1>
*
*       <PA2>-3.090426e-12</PA2>
*
*       <PTCA0>5.254757e+05</PTCA0>
*
*       <PTCA1>1.050255e+01</PTCA1>
*
*       <PTCA2>-2.922435e-01</PTCA2>
*
*       <PTCB0>2.516687e+01</PTCB0>
*
*       <PTCB1>3.750000e-04</PTCB1>
*
*       <PTCB2>0.000000e+00</PTCB2>
*
*       <PTEMPA0>-5.470820e+01</PTEMPA0>
*
*       <PTEMPA1>5.485421e+01</PTEMPA1>
*
*       <PTEMPA2>-3.446578e-01</PTEMPA2>
*
*       <POFFSET>8.500000e-01</POFFSET>
*
*       <PRANGE>1.600000e+02</PRANGE>
*
*    </Calibration>
*
*    <Calibration format='VOLT0' id='Volt 0'>
*
*       <OFFSET>-4.920000e-02</OFFSET>
*
*       <SLOPE>1.248122e+00</SLOPE>
*
*    </Calibration>
*
*    <Calibration format='VOLT0' id='Volt 1'>
*
*       <OFFSET>-4.784000e-02</OFFSET>
*
*       <SLOPE>1.248871e+00</SLOPE>
*
*    </Calibration>
*
*    <Calibration format='VOLT0' id='Volt 2'>
*
*       <OFFSET>-4.864632e-02</OFFSET>
*
*       <SLOPE>1.248714e+00</SLOPE>
*
*    </Calibration>
*
*    <Calibration format='VOLT0' id='Volt 3'>
*
*       <OFFSET>-4.743790e-02</OFFSET>
*
*       <SLOPE>1.248571e+00</SLOPE>
*
*    </Calibration>
*
*    <Calibration format='VOLT0' id='Volt 4'>
*
*       <OFFSET>-4.671263e-02</OFFSET>
*
*       <SLOPE>1.248951e+00</SLOPE>
*
*    </Calibration>
*
*    <Calibration format='VOLT0' id='Volt 5'>
*
*       <OFFSET>-4.871053e-02</OFFSET>
*
*       <SLOPE>1.249136e+00</SLOPE>
*
*    </Calibration>
*
*    <Calibration format='FREQ0' id='external frequency channel'>
*
*       <EXTFREQSF>1.000014e+00</EXTFREQSF>
*
*    </Calibration>
*
* </CalibrationCoefficients>
* <EventCounters DeviceType='SBE19plus' SerialNumber='01907809'>
*
*    <EventSummary numEvents='0'/>
*
* </EventCounters></InstrumentState>
* <Headers>
*
* cast  12 29 Oct 2024 11:49:21 samples 6295 to 7357, avg = 1, stop = mag switch
*
# nquan = 15
# nvalues = 1063                        
# units = specified
# name 0 = depFM: Depth [fresh water, m]
# name 1 = dz/dtM: Descent Rate [m/s]
# name 2 = sbeox0Mg/L: Oxygen, SBE 43 [mg/l]
# name 3 = sbeox0PS: Oxygen, SBE 43 [% saturation]
# name 4 = specc: Specific Conductance [uS/cm]
# name 5 = c0uS/cm: Conductivity [uS/cm]
# name 6 = flECO-AFL: Fluorescence, WET Labs ECO-AFL/FL [mg/m^3]
# name 7 = ph: pH
# name 8 = orp: Oxidation Reduction Potential [mV]
# name 9 = par/sat/log: PAR/Logarithmic, Satlantic
# name 10 = turbWETntu0: Turbidity, WET Labs ECO [NTU]
# name 11 = prdM: Pressure, Strain Gauge [db]
# name 12 = prdE: Pressure, Strain Gauge [psi]
# name 13 = tv290C: Temperature [ITS-90, deg C]
# name 14 = flag:  0.000e+00
# span 0 =     -0.521,      3.038       
# span 1 =     -0.331,      0.215       
# span 2 =     6.9309,    11.6717       
# span 3 =     68.533,    114.083       
# span 4 =      1.477,     42.781       
# span 5 =   1.180169,  33.642873       
# span 6 =    -0.6241,    13.3612       
# span 7 =      7.419,      8.028       
# span 8 =  -662.1129,  1237.0415       
# span 9 = 1.8057e+00, 1.8466e+03       
# span 10 =    -8.4838,   262.8066      
# span 11 =     -0.512,      2.979      
# span 12 =     -0.742,      4.321      
# span 13 =    14.0847,    14.9258      
# span 14 = 0.0000e+00, 0.0000e+00      
# interval = seconds: 0.25
# start_time = Oct 29 2024 11:49:21 [Instrument's time stamp, header]
# bad_flag = -9.990e-29
# <Sensors count="9" >
#   <sensor Channel="1" >
#     <!-- Count, Temperature -->
#     <TemperatureSensor SensorID="58" >
#       <SerialNumber>7809</SerialNumber>
#       <CalibrationDate>31-Jan-23</CalibrationDate>
#       <A0>1.21823180e-003</A0>
#       <A1>2.81508993e-004</A1>
#       <A2>-1.57888696e-006</A2>
#       <A3>1.97234302e-007</A3>
#       <Slope>1.00000000</Slope>
#       <Offset>0.0000</Offset>
#     </TemperatureSensor>
#   </sensor>
#   <sensor Channel="2" >
#     <!-- Frequency 0, Conductivity -->
#     <ConductivitySensor SensorID="3" >
#       <SerialNumber>7809</SerialNumber>
#       <CalibrationDate>31-Jan-23</CalibrationDate>
#       <UseG_J>1</UseG_J>
#       <!-- Cell const and series R are applicable only for wide range sensors. -->
#       <SeriesR>0.0000</SeriesR>
#       <CellConst>2000.0000</CellConst>
#       <ConductivityType>0</ConductivityType>
#       <Coefficients equation="0" >
#         <A>0.00000000e+000</A>
#         <B>0.00000000e+000</B>
#         <C>0.00000000e+000</C>
#         <D>0.00000000e+000</D>
#         <M>0.0</M>
#         <CPcor>-9.57000000e-008</CPcor>
#       </Coefficients>
#       <Coefficients equation="1" >
#         <G>-1.00565232e+000</G>
#         <H>1.26796307e-001</H>
#         <I>-1.56170788e-004</I>
#         <J>2.64594368e-005</J>
#         <CPcor>-9.57000000e-008</CPcor>
#         <CTcor>3.2500e-006</CTcor>
#         <!-- WBOTC not applicable unless ConductivityType = 1. -->
#         <WBOTC>0.00000000e+000</WBOTC>
#       </Coefficients>
#       <Slope>1.00000000</Slope>
#       <Offset>0.00000</Offset>
#     </ConductivitySensor>
#   </sensor>
#   <sensor Channel="3" >
#     <!-- Count, Pressure, Strain Gauge -->
#     <PressureSensor SensorID="46" >
#       <SerialNumber>7809</SerialNumber>
#       <CalibrationDate>20-Jan-23</CalibrationDate>
#       <PA0>4.41643944e-002</PA0>
#       <PA1>4.85050239e-004</PA1>
#       <PA2>-3.09042623e-012</PA2>
#       <PTEMPA0>-5.47081996e+001</PTEMPA0>
#       <PTEMPA1>5.48542136e+001</PTEMPA1>
#       <PTEMPA2>-3.44657813e-001</PTEMPA2>
#       <PTCA0>5.25475731e+005</PTCA0>
#       <PTCA1>1.05025484e+001</PTCA1>
#       <PTCA2>-2.92243463e-001</PTCA2>
#       <PTCB0>2.51668750e+001</PTCB0>
#       <PTCB1>3.75000000e-004</PTCB1>
#       <PTCB2>0.00000000e+000</PTCB2>
#       <Offset>0.000000</Offset>
#     </PressureSensor>
#   </sensor>
#   <sensor Channel="4" >
#     <!-- A/D voltage 0, Oxygen, SBE 43 -->
#     <OxygenSensor SensorID="38" >
#       <SerialNumber>0434</SerialNumber>
#       <CalibrationDate>18-Feb-23</CalibrationDate>
#       <Use2007Equation>1</Use2007Equation>
#       <CalibrationCoefficients equation="0" >
#         <!-- Coefficients for Owens-Millard equation. -->
#         <Boc>0.0000</Boc>
#         <Soc>0.0000e+000</Soc>
#         <offset>0.0000</offset>
#         <Pcor>0.00e+000</Pcor>
#         <Tcor>0.0000</Tcor>
#         <Tau>0.0</Tau>
#       </CalibrationCoefficients>
#       <CalibrationCoefficients equation="1" >
#         <!-- Coefficients for Sea-Bird equation - SBE calibration in 2007 and later. -->
#         <Soc>5.1878e-001</Soc>
#         <offset>-0.5046</offset>
#         <A>-4.2788e-003</A>
#         <B> 1.5372e-004</B>
#         <C>-2.1853e-006</C>
#         <D0> 2.5826e+000</D0>
#         <D1> 1.92634e-004</D1>
#         <D2>-4.64803e-002</D2>
#         <E> 3.6000e-002</E>
#         <Tau20> 0.9900</Tau20>
#         <H1>-3.3000e-002</H1>
#         <H2> 5.0000e+003</H2>
#         <H3> 1.4500e+003</H3>
#       </CalibrationCoefficients>
#     </OxygenSensor>
#   </sensor>
#   <sensor Channel="5" >
#     <!-- A/D voltage 1, PAR/Logarithmic, Satlantic -->
#     <PARLog_SatlanticSensor SensorID="76" >
#       <SerialNumber>1122</SerialNumber>
#       <CalibrationDate>08-Sep-2021</CalibrationDate>
#       <a0>9.6751e-001</a0>
#       <a1>8.0992e-001</a1>
#       <Im>1.3589e+000</Im>
#       <Multiplier>1.0000e+000</Multiplier>
#     </PARLog_SatlanticSensor>
#   </sensor>
#   <sensor Channel="6" >
#     <!-- A/D voltage 2, pH -->
#     <pH_Sensor SensorID="43" >
#       <SerialNumber>0363</SerialNumber>
#       <CalibrationDate>28-Feb-23</CalibrationDate>
#       <Slope>4.7364</Slope>
#       <Offset>2.5433</Offset>
#     </pH_Sensor>
#   </sensor>
#   <sensor Channel="7" >
#     <!-- A/D voltage 3, Oxidation Reduction Potential -->
#     <OxidationReductionPotentialSensor SensorID="41" >
#       <SerialNumber>0363</SerialNumber>
#       <CalibrationDate>28-Feb-23</CalibrationDate>
#       <B>2.499480</B>
#       <M>-0.496195</M>
#       <Offset>0.0</Offset>
#     </OxidationReductionPotentialSensor>
#   </sensor>
#   <sensor Channel="8" >
#     <!-- A/D voltage 4, Fluorometer, WET Labs ECO-AFL/FL -->
#     <FluoroWetlabECO_AFL_FL_Sensor SensorID="20" >
#       <SerialNumber>FLNTURT-2496</SerialNumber>
#       <CalibrationDate>02-Sep-2021</CalibrationDate>
#       <ScaleFactor>4.80000000e+001</ScaleFactor>
#       <!-- Dark output -->
#       <Vblank>0.0550</Vblank>
#     </FluoroWetlabECO_AFL_FL_Sensor>
#   </sensor>
#   <sensor Channel="9" >
#     <!-- A/D voltage 5, Turbidity Meter, WET Labs, ECO-NTU -->
#     <TurbidityMeter SensorID="67" >
#       <SerialNumber>FLNTURT--2496</SerialNumber>
#       <CalibrationDate>02-Sep-2021</CalibrationDate>
#       <ScaleFactor>197.000000</ScaleFactor>
#       <!-- Dark output -->
#       <DarkVoltage>0.070000</DarkVoltage>
#     </TurbidityMeter>
#   </sensor>
# </Sensors>
# datcnv_date = Oct 29 2024 18:11:29, 7.26.7.129 [datcnv_vars = 14]
# datcnv_in = C:\R\Reservoirs\Data\DataNotYetUploadedToEDI\Raw_CTD\RawDownloads\102924_fcr20_S7809012.hex C:\R\Reservoirs\Data\DataNotYetUploadedToEDI\Raw_CTD\RawDownloads\SBE19plusV2_7809_start20230701.xmlcon
# datcnv_skipover = 0
# datcnv_ox_hysteresis_correction = yes
# datcnv_ox_tau_correction = yes
# filter_date = Oct 29 2024 18:11:59, 7.26.7.129
# filter_in = C:\R\Reservoirs\Data\DataNotYetUploadedToEDI\Raw_CTD\RawDownloads\102924_fcr20_S7809012.cnv
# filter_low_pass_tc_A = 0.030
# filter_low_pass_tc_B = 0.150
# filter_low_pass_A_vars = sbeox0Mg/L prdM prdE tv290C
# filter_low_pass_B_vars = depFM dz/dtM sbeox0PS specc c0uS/cm flECO-AFL ph orp par/sat/log turbWETntu0
# alignctd_date = Oct 29 2024 18:12:20, 7.26.7.129
# alignctd_in = C:\R\Reservoirs\Data\DataNotYetUploadedToEDI\Raw_CTD\RawDownloads\102924_fcr20_S7809012.cnv
# alignctd_adv = dz/dtM 1.000, sbeox0PS 1.000, specc 1.000, c0uS/cm 1.000, flECO-AFL 1.000, ph 1.000, orp 1.000, turbWETntu0 1.000                                                                                                   
# file_type = ascii
*END*
     -0.520 8.5870e-10     9.5185     94.325      1.477   1.180169    -0.0587      7.748   228.0673 8.0107e+02     3.6146     -0.510     -0.740    14.9258 0.0000e+00
     -0.520 7.8065e-11     9.5245     94.311      1.495   1.194139    -0.0633      7.754   192.6315 8.0247e+02     3.5424     -0.510     -0.740    14.9257 0.0000e+00
     -0.520 7.0965e-12     9.5254     94.300      1.545   1.233695    -0.0725      7.749   196.4050 6.5110e+02     3.5633     -0.510     -0.740    14.9258 0.0000e+00
     -0.520 6.4515e-13     9.5261     94.313      1.601   1.278382    -0.0795      7.728   259.2389 3.8103e+02     3.9351     -0.510     -0.740    14.9258 0.0000e+00
     -0.520 5.8650e-14     9.5279     94.330      1.696   1.354392    -0.0809      7.703   339.8368 5.1438e+02     4.6221     -0.510     -0.740    14.9257 0.0000e+00
     -0.520 5.3320e-15     9.5253     94.345      1.823   1.455958    -0.0811      7.690   387.9506 7.7022e+02     5.0038     -0.510     -0.739    14.9256 0.0000e+00
     -0.520 4.8470e-16     9.5225     94.359      1.869   1.492931    -0.0726      7.694   385.6584 4.9677e+02     5.0649     -0.509     -0.740    14.9256 0.0000e+00
     -0.520 4.4005e-17     9.5258     94.364      1.859   1.484713    -0.0706      7.704   359.9599 2.2858e+02     5.2248     -0.510     -0.741    14.9254 0.0000e+00
     -0.520 3.3564e-18     9.5277     94.374      1.857   1.483287    -0.0906      7.714   330.6175 4.5113e+02     5.4683     -0.511     -0.740    14.9253 0.0000e+00
     -0.520 -6.780e-18     9.5282     94.388      1.848   1.475691    -0.1054      7.721   302.2502 8.7172e+02     5.5828     -0.510     -0.740    14.9251 0.0000e+00
     -0.520 -7.855e-17     9.5313     94.387      1.823   1.456210    -0.0996      7.725   284.6411 1.0478e+03     5.6543     -0.510     -0.740    14.9250 0.0000e+00
     -0.521 -8.644e-16     9.5301     94.367      1.800   1.437774    -0.0792      7.722   287.8071 9.6792e+02     5.7512     -0.511     -0.741    14.9251 0.0000e+00
     -0.521 -9.508e-15     9.5315     94.345      1.806   1.442800    -0.0676      7.717   296.0473 8.5841e+02     5.7295     -0.511     -0.741    14.9250 0.0000e+00
     -0.520 -1.046e-13     9.5339     94.334      1.820   1.453643    -0.0759      7.722   277.2399 6.3959e+02     5.6657     -0.510     -0.740    14.9247 0.0000e+00
     -0.520 -1.151e-12     9.5341     94.334      1.806   1.442190    -0.0789      7.736   219.2377 3.2202e+02     5.6968     -0.510     -0.740    14.9246 0.0000e+00
     -0.520 -1.266e-11     9.5311     94.337      1.792   1.431001    -0.0702      7.767   109.0902 1.4930e+02     5.7293     -0.510     -0.740    14.9247 0.0000e+00
     -0.520 -1.392e-10     9.5283     94.326      1.810   1.445048    -0.0716      7.800    22.1516 1.3414e+02     5.6831     -0.510     -0.740    14.9246 0.0000e+00
     -0.520 -1.531e-09     9.5278     94.316      1.860   1.485347    -0.0710      7.788    53.5859 1.4372e+02     5.6856     -0.510     -0.740    14.9244 0.0000e+00
     -0.520 -1.684e-08     9.5273     94.326      1.926   1.538200    -0.0626      7.761    90.4535 1.4362e+02     5.7596     -0.510     -0.740    14.9242 0.0000e+00
     -0.520 -1.853e-07     9.5293     94.332      1.975   1.577347    -0.0691      7.766    27.8245 1.3212e+02     5.7230     -0.510     -0.740    14.9239 0.0000e+00
     -0.520 -3.397e-07     9.5274     94.321      1.977   1.578610    -0.0747      7.774   -25.5814 1.4517e+02     5.5846     -0.510     -0.740    14.9237 0.0000e+00
     -0.520 -1.853e-07     9.5247     94.316      1.945   1.553460    -0.0644      7.756    12.6733 3.2881e+02     5.5220     -0.510     -0.740    14.9236 0.0000e+00
     -0.520 -1.684e-08     9.5278     94.326      1.911   1.526644    -0.0610      7.729    85.0277 6.4707e+02     5.5123     -0.510     -0.740    14.9234 0.0000e+00
     -0.520 -1.531e-09     9.5291     94.327      1.887   1.507746    -0.0672      7.713   137.1013 6.5937e+02     5.4675     -0.510     -0.739    14.9230 0.0000e+00
     -0.520 -1.392e-10     9.5264     94.321      1.897   1.515004    -0.0727      7.707   179.0561 3.5290e+02     5.2525     -0.511     -0.740    14.9231 0.0000e+00
     -0.520 -1.266e-11     9.5249     94.319      1.942   1.551049    -0.0774      7.706   210.3714 1.7427e+02     4.8950     -0.510     -0.740    14.9230 0.0000e+00
     -0.520 -1.151e-12     9.5285     94.325      2.037   1.626848    -0.0735      7.711   213.9055 1.6321e+02     4.7647     -0.511     -0.740    14.9227 0.0000e+00
     -0.520 -1.046e-13     9.5278     94.338      2.172   1.734713    -0.0750      7.721   200.3638 1.6629e+02     4.7707     -0.510     -0.741    14.9225 0.0000e+00
     -0.520 -9.510e-15     9.5265     94.330      2.306   1.841734    -0.0884      7.728   175.6988 1.6986e+02     4.4208     -0.510     -0.740    14.9223 0.0000e+00
     -0.520 -8.645e-16     9.5271     94.315      2.468   1.970678    -0.0852      7.738   130.7813 1.7446e+02     3.8136     -0.510     -0.740    14.9222 0.0000e+00
     -0.520 -7.860e-17     9.5259     94.316      2.697   2.153571    -0.0606      7.744   102.7816 1.7304e+02     3.4412     -0.510     -0.740    14.9221 0.0000e+00
     -0.520 -7.145e-18     9.5307     94.310      2.854   2.279419    -0.0495      7.726   174.0863 1.6817e+02     3.3004     -0.510     -0.740    14.9220 0.0000e+00
     -0.520 -6.495e-19     9.5282     94.300      2.707   2.162040    -0.0678      7.659   424.9750 1.6891e+02     3.0674     -0.511     -0.741    14.9222 0.0000e+00
     -0.520 -5.905e-20     9.5247     94.300      2.347   1.874564    -0.0908      7.555   818.6156 1.7798e+02     2.7424     -0.510     -0.740    14.9220 0.0000e+00
     -0.520 -5.360e-21     9.5276     94.298      2.071   1.654070    -0.1189      7.465  1126.7547 2.1480e+02     2.5474     -0.510     -0.740    14.9219 0.0000e+00
     -0.520 -4.270e-22     9.5262     94.299      1.987   1.586423    -0.1490      7.419  1229.7107 5.4682e+02     2.4516     -0.510     -0.740    14.9220 0.0000e+00
     -0.520 6.2511e-22     9.5238     94.299      1.958   1.563393    -0.1301      7.457  1237.0415 1.2711e+03     2.1989     -0.510     -0.740    14.9218 0.0000e+00
     -0.520 7.3601e-21     9.5259     94.290      1.882   1.502303    -0.0822      7.580  1215.3910 1.7658e+03     1.7803     -0.510     -0.740    14.9218 0.0000e+00
     -0.520 8.1005e-20     9.5244     94.299      1.855   1.481219    -0.0619      7.752   967.9363 1.4211e+03     1.4895     -0.510     -0.739    14.9222 0.0000e+00
     -0.520 8.9106e-19     9.5242     94.318      1.876   1.498500    -0.0669      7.934   409.1463 6.2292e+02     1.4162     -0.510     -0.740    14.9227 0.0000e+00
     -0.520 9.8017e-18     9.5261     94.326      1.905   1.521222    -0.0847      8.028  -105.7047 1.9733e+02     1.4060     -0.510     -0.739    14.9233 0.0000e+00
     -0.520 1.0782e-16     9.5217     94.321      1.961   1.565915    -0.1014      8.010  -392.0797 1.4591e+02     1.4348     -0.510     -0.739    14.9240 0.0000e+00
     -0.520 1.1860e-15     9.5241     94.305      1.998   1.595483    -0.1194      7.946  -549.1293 1.3343e+02     1.4906     -0.510     -0.740    14.9243 0.0000e+00
     -0.520 1.3046e-14     9.5271     94.303      2.036   1.625347    -0.1355      7.885  -627.9499 1.2173e+02     1.4658     -0.510     -0.740    14.9246 0.0000e+00
     -0.520 1.4351e-13     9.5271     94.302      2.096   1.673628    -0.1305      7.842  -662.1129 1.1016e+02     1.4772     -0.510     -0.740    14.9247 0.0000e+00
     -0.520 1.5786e-12     9.5278     94.280      2.095   1.672496    -0.1171      7.806  -647.2884 1.0286e+02     1.6286     -0.510     -0.740    14.9245 0.0000e+00
     -0.520 1.7364e-11     9.5233     94.257      2.018   1.611657    -0.1240      7.772  -589.5543 1.0063e+02     1.7241     -0.510     -0.740    14.9246 0.0000e+00
     -0.520 1.9101e-10     9.5245     94.242      1.968   1.571468    -0.1387      7.745  -522.9659 1.0029e+02     1.7442     -0.510     -0.740    14.9247 0.0000e+00
     -0.520 2.1011e-09     9.5264     94.248      1.962   1.566629    -0.1282      7.726  -462.0007 9.8953e+01     1.8035     -0.509     -0.739    14.9246 0.0000e+00
     -0.520 2.3112e-08     9.5214     94.268      1.945   1.553155    -0.1054      7.714  -407.3823 9.4835e+01     1.7581     -0.510     -0.740    14.9247 0.0000e+00
     -0.520 2.5423e-07     9.5204     94.285      1.922   1.535243    -0.0871      7.705  -357.1323 9.0016e+01     1.5710     -0.510     -0.739    14.9247 0.0000e+00
     -0.520      0.000     9.5174     94.308      2.008   1.603426    -0.0654      7.699  -312.5919 8.8955e+01     1.4880     -0.510     -0.740    14.9247 0.0000e+00
     -0.520      0.000     9.5181     94.337      2.343   1.870803    -0.0518      7.697  -270.6516 9.1729e+01     1.5396     -0.510     -0.739    14.9245 0.0000e+00
     -0.520      0.000     9.5221     94.373      2.957   2.361012    -0.0556      7.691  -218.7993 9.6980e+01     1.6491     -0.510     -0.740    14.9243 0.0000e+00
     -0.520      0.004     9.5222     94.462      6.654   5.313448    -0.0695      7.635   -78.2474 1.0821e+02     1.8218     -0.510     -0.740    14.9244 0.0000e+00
     -0.520      0.016     9.5250     94.597     16.583  13.237611    -0.0789      7.548   127.1464 1.5925e+02     1.9532     -0.510     -0.740    14.9239 0.0000e+00
     -0.520      0.040     9.5287     94.707     29.390  23.453345    -0.0604      7.528   226.9324 6.1419e+02     2.0083     -0.510     -0.740    14.9242 0.0000e+00
     -0.519      0.074     9.5300     94.838     38.557  30.759046     0.0122      7.561   230.9533 1.4281e+03     2.0445     -0.512     -0.742    14.9236 0.0000e+00
     -0.506      0.112     9.5367     95.027     41.798  33.333661     0.6330      7.582   230.3980 1.8466e+03     2.5273     -0.508     -0.737    14.9243 0.0000e+00
     -0.469      0.148     9.5591     95.247     42.133  33.587582     1.7772      7.592   229.9408 1.8332e+03     3.4730     -0.468     -0.680    14.9203 0.0000e+00
     -0.410      0.179     9.5677     95.457     42.218  33.638830     2.4110      7.593   228.8659 1.7655e+03     4.0165     -0.401     -0.582    14.9020 0.0000e+00
     -0.347      0.204     9.5833     95.619     42.238  33.636048     2.5116      7.592   227.8979 1.6620e+03     4.1123     -0.337     -0.489    14.8841 0.0000e+00
     -0.291      0.215     9.6077     95.738     42.237  33.617363     2.8615      7.591   228.7339 1.3646e+03     4.1519     -0.284     -0.412    14.8723 0.0000e+00
     -0.237      0.210     9.6316     95.762     42.241  33.603219     3.4612      7.589   238.1132 8.0209e+02     4.1539     -0.233     -0.338    14.8579 0.0000e+00
     -0.182      0.190     9.6641     95.847     42.245  33.591905     3.7865      7.589   247.0038 3.0855e+02     4.2059     -0.178     -0.260    14.8355 0.0000e+00
     -0.128      0.162     9.6773     96.154     42.274  33.607431     3.8398      7.591   239.9523 1.2323e+02     4.3357     -0.123     -0.179    14.8116 0.0000e+00
     -0.080      0.130     9.7041     96.549     42.267  33.600603     3.9563      7.592   231.6657 9.5874e+01     4.3915     -0.071     -0.103    14.7932 0.0000e+00
     -0.050      0.096     9.7024     96.979     42.231  33.572796     4.1376      7.592   230.8713 9.0477e+01     4.3335     -0.042     -0.062    14.7707 0.0000e+00
     -0.038      0.065     9.7013     97.403     42.251  33.588435     4.2259      7.592   230.7780 9.0912e+01     4.2495     -0.034     -0.049    14.7500 0.0000e+00
     -0.036      0.042     9.7504     97.677     42.266  33.599363     4.2251      7.593   230.8820 9.2218e+01     4.2296     -0.035     -0.049    14.7439 0.0000e+00
     -0.036      0.032     9.7869     97.789     42.241  33.578044     4.1279      7.594   231.0097 9.2034e+01     4.2642     -0.037     -0.053    14.7441 0.0000e+00
     -0.034      0.037     9.8299     97.827     42.250  33.584434     3.9244      7.594   231.2034 9.0710e+01     4.2920     -0.036     -0.051    14.7448 0.0000e+00
     -0.026      0.054     9.8827     97.768     42.284  33.613186     3.7949      7.595   231.5031 8.9820e+01     4.2922     -0.027     -0.040    14.7466 0.0000e+00
     -0.012      0.075     9.9099     97.597     42.274  33.608459     3.7860      7.597   231.7081 8.7731e+01     4.2319     -0.014     -0.022    14.7454 0.0000e+00
      0.009      0.092     9.9153     97.394     42.254  33.590730     3.9919      7.597   231.8746 7.7458e+01     4.2129      0.004      0.005    14.7419 0.0000e+00
      0.042      0.101     9.9228     97.230     42.261  33.589162     4.3699      7.598   232.1399 5.9419e+01     4.2325      0.039      0.057    14.7401 0.0000e+00
      0.080      0.098     9.9187     97.100     42.275  33.589483     4.5612      7.598   232.9367 4.4160e+01     4.1957      0.080      0.116    14.7429 0.0000e+00
      0.115      0.085     9.8939     96.854     42.295  33.594599     4.5658      7.600   240.1323 3.6004e+01     4.1782      0.117      0.169    14.7483 0.0000e+00
      0.138      0.065     9.8728     96.371     42.300  33.587564     4.5584      7.603   247.2984 3.3784e+01     4.2264      0.141      0.205    14.7481 0.0000e+00
      0.148      0.042     9.8550     95.648     42.290  33.567861     4.5712      7.606   241.8880 3.4562e+01     4.3000      0.147      0.214    14.7373 0.0000e+00
      0.148      0.024     9.8541     94.670     42.278  33.546683     4.6128      7.609   235.1146 3.5717e+01     4.3158      0.146      0.211    14.7227 0.0000e+00
      0.144      0.014     9.8375     93.536     42.260  33.521827     4.6285      7.611   234.2343 3.7300e+01     4.2468      0.141      0.205    14.7111 0.0000e+00
      0.141      0.014     9.7867     92.506     42.269  33.521091     4.6108      7.613   234.0838 3.7990e+01     4.2170      0.136      0.197    14.6987 0.0000e+00
      0.142      0.018     9.7210     91.846     42.296  33.537769     4.5076      7.614   234.1549 3.6702e+01     4.3322      0.136      0.198    14.6844 0.0000e+00
      0.152      0.022     9.6205     91.662     42.293  33.533145     4.3129      7.614   234.3204 3.4165e+01     4.5119      0.146      0.213    14.6706 0.0000e+00
      0.166      0.024     9.4977     91.859     42.288  33.528616     4.2034      7.616   234.3631 3.1845e+01     4.5792      0.164      0.239    14.6568 0.0000e+00
      0.177      0.022     9.3838     92.241     42.310  33.546457     4.1826      7.619   234.4128 3.0940e+01     4.5317      0.177      0.257    14.6469 0.0000e+00
      0.180      0.019     9.3140     92.623     42.323  33.558532     4.1035      7.622   234.5777 3.1285e+01     4.4501      0.177      0.257    14.6424 0.0000e+00
      0.179      0.014     9.3002     92.864     42.307  33.547717     3.9797      7.624   234.7212 3.1730e+01     4.3779      0.175      0.254    14.6402 0.0000e+00
      0.179      0.010     9.3279     92.813     42.298  33.542582     3.9247      7.625   234.8577 3.1546e+01     4.3414      0.175      0.254    14.6391 0.0000e+00
      0.181      0.007     9.3743     92.347     42.319  33.559893     3.9297      7.626   235.0235 3.1071e+01     4.3160      0.176      0.256    14.6393 0.0000e+00
      0.185      0.006     9.4159     91.499     42.326  33.566701     3.9573      7.628   235.1784 3.0509e+01     4.2757      0.181      0.263    14.6417 0.0000e+00
      0.189      0.005     9.4456     90.421     42.317  33.561454     4.0169      7.629   235.2675 3.0030e+01     4.2306      0.187      0.269    14.6448 0.0000e+00
      0.190      0.004     9.4466     89.294     42.312  33.559894     4.0689      7.630   235.4124 3.0021e+01     4.2490      0.188      0.272    14.6467 0.0000e+00
      0.190      0.002     9.3968     88.271     42.295  33.547839     4.0782      7.631   235.6389 3.0286e+01     4.2926      0.186      0.270    14.6478 0.0000e+00
      0.188      0.001     9.3039     87.401     42.288  33.542592     4.0458      7.634   235.7696 3.0440e+01     4.2796      0.183      0.266    14.6494 0.0000e+00
      0.187      0.000     9.1878     86.686     42.309  33.559895     4.0097      7.636   235.8745 3.0380e+01     4.2293      0.182      0.265    14.6521 0.0000e+00
      0.188      0.000     9.0655     86.170     42.317  33.566715     4.0076      7.637   236.0467 3.0247e+01     4.1964      0.184      0.267    14.6547 0.0000e+00
      0.189      0.001     8.9608     85.930     42.310  33.561609     4.0205      7.639   236.2161 3.0131e+01     4.2237      0.185      0.269    14.6561 0.0000e+00
      0.190      0.002     8.8735     86.045     42.309  33.561609     4.0159      7.641   236.3738 3.0032e+01     4.2513      0.187      0.271    14.6563 0.0000e+00
      0.190      0.002     8.7985     86.501     42.314  33.566714     4.0024      7.643   236.4913 3.0067e+01     4.2225      0.187      0.271    14.6563 0.0000e+00
      0.189      0.002     8.7440     87.194     42.304  33.559894     3.9980      7.645   236.6041 3.0097e+01     4.2172      0.186      0.269    14.6569 0.0000e+00
      0.189      0.002     8.7146     87.994     42.280  33.542592     4.0055      7.648   236.7054 2.9981e+01     4.2559      0.185      0.269    14.6576 0.0000e+00
      0.190      0.004     8.7270     88.764     42.283  33.547848     4.0179      7.651   236.7700 2.9910e+01     4.2806      0.186      0.270    14.6588 0.0000e+00
      0.190      0.007     8.7781     89.433     42.294  33.560005     4.0396      7.653   236.8700 2.9905e+01     4.2770      0.187      0.271    14.6600 0.0000e+00
      0.191      0.010     8.8520     89.993     42.293  33.562699     4.0764      7.654   237.0532 2.9702e+01     4.2120      0.187      0.271    14.6610 0.0000e+00
      0.194      0.012     8.9389     90.416     42.313  33.580416     4.1044      7.655   237.2638 2.9016e+01     4.1438      0.189      0.274    14.6633 0.0000e+00
      0.200      0.013     9.0190     90.667     42.315  33.583895     4.1119      7.655   237.3509 2.8103e+01     4.2041      0.196      0.283    14.6669 0.0000e+00
      0.205      0.013     9.0847     90.757     42.260  33.541330     4.1086      7.656   237.4184 2.7353e+01     4.3266      0.202      0.293    14.6714 0.0000e+00
      0.210      0.012     9.1427     90.733     42.219  33.509875     4.0897      7.658   237.6497 2.6960e+01     4.3267      0.207      0.300    14.6750 0.0000e+00
      0.211      0.011     9.1867     90.667     42.231  33.520795     4.0591      7.661   237.9103 2.6938e+01     4.2392      0.208      0.302    14.6775 0.0000e+00
      0.211      0.008     9.2110     90.609     42.262  33.546474     4.0459      7.662   237.9882 2.6952e+01     4.2247      0.207      0.301    14.6797 0.0000e+00
      0.212      0.002     9.2182     90.500     42.285  33.566583     4.0470      7.663   237.9898 2.6647e+01     4.2888      0.208      0.301    14.6812 0.0000e+00
      0.216     -0.004     9.2131     90.240     42.293  33.573608     4.0388      7.664   238.1019 2.6184e+01     4.3311      0.212      0.306    14.6825 0.0000e+00
      0.219     -0.009     9.2028     89.815     42.285  33.567964     4.0215      7.664   238.3106 2.6330e+01     4.2918      0.219      0.316    14.6836 0.0000e+00
      0.217     -0.014     9.1993     89.293     42.275  33.561791     4.0130      7.664   238.5344 2.7349e+01     4.2231      0.216      0.313    14.6851 0.0000e+00
      0.207     -0.018     9.1937     88.788     42.275  33.562416     4.0862      7.665   238.7431 2.8794e+01     4.2528      0.202      0.293    14.6876 0.0000e+00
      0.196     -0.019     9.1664     88.372     42.290  33.575521     4.2322      7.666   238.9404 2.9912e+01     4.3091      0.191      0.276    14.6889 0.0000e+00
      0.190     -0.017     9.1212     88.018     42.311  33.593353     4.3122      7.666   239.1130 3.0406e+01     4.2891      0.185      0.269    14.6888 0.0000e+00
      0.189     -0.012     9.0628     87.668     42.302  33.587689     4.3047      7.667   239.2824 3.0599e+01     4.2495      0.184      0.268    14.6900 0.0000e+00
      0.188     -0.005     9.0077     87.307     42.279  33.570482     4.2916      7.667   239.4402 3.0450e+01     4.2405      0.185      0.268    14.6920 0.0000e+00
      0.188      0.000     8.9673     86.981     42.284  33.575645     4.3202      7.668   239.5577 3.0187e+01     4.3163      0.183      0.266    14.6934 0.0000e+00
      0.189      0.002     8.9336     86.711     42.297  33.586660     4.3682      7.670   239.6710 3.0001e+01     4.3462      0.184      0.267    14.6950 0.0000e+00
      0.191      0.002     8.8988     86.464     42.284  33.576779     4.3721      7.671   239.8637 2.9683e+01     4.2612      0.187      0.272    14.6971 0.0000e+00
      0.193      0.002     8.8589     86.249     42.292  33.583065     4.3506      7.672   240.0807 2.9473e+01     4.2112      0.189      0.275    14.6985 0.0000e+00
      0.193      0.001     8.8244     86.123     42.312  33.599224     4.3664      7.673   240.2296 2.9645e+01     4.2539      0.190      0.275    14.6992 0.0000e+00
      0.192      0.000     8.7997     86.088     42.290  33.581818     4.4137      7.675   240.2873 2.9847e+01     4.3333      0.188      0.273    14.6998 0.0000e+00
      0.190      0.000     8.7742     86.092     42.265  33.562948     4.4480      7.676   240.2620 2.9790e+01     4.3508      0.186      0.270    14.7002 0.0000e+00
      0.190      0.001     8.7487     86.094     42.263  33.561397     4.4565      7.678   240.3545 2.9754e+01     4.2949      0.186      0.270    14.7005 0.0000e+00
      0.191      0.002     8.7361     86.024     42.265  33.563072     4.4576      7.680   240.5450 2.9652e+01     4.3066      0.187      0.272    14.7008 0.0000e+00
      0.193      0.004     8.7356     85.801     42.290  33.583192     4.4536      7.680   240.7589 2.9399e+01     4.3897      0.189      0.274    14.7010 0.0000e+00
      0.194      0.004     8.7360     85.433     42.328  33.614335     4.4488      7.681   240.9611 2.9232e+01     4.3769      0.190      0.276    14.7013 0.0000e+00
      0.196      0.004     8.7389     84.976     42.338  33.622400     4.4587      7.683   241.0116 2.9029e+01     4.2886      0.192      0.278    14.7019 0.0000e+00
      0.197      0.003     8.7359     84.425     42.331  33.617267     4.4483      7.685   241.1107 2.8857e+01     4.1761      0.193      0.280    14.7025 0.0000e+00
      0.198      0.002     8.7130     83.789     42.328  33.615717     4.4229      7.685   241.2995 2.8860e+01     4.0752      0.194      0.282    14.7028 0.0000e+00
      0.198      0.000     8.6710     83.144     42.313  33.603652     4.4263      7.686   241.4008 2.8907e+01     4.0602      0.195      0.282    14.7033 0.0000e+00
      0.198 3.7253e-08     8.6263     82.521     42.306  33.598291     4.4394      7.687   241.4751 2.8967e+01     4.0963      0.194      0.282    14.7040 0.0000e+00
      0.197 4.0978e-07     8.5718     81.926     42.326  33.614336     4.4565      7.688   241.5959 2.9014e+01     4.1367      0.194      0.281    14.7044 0.0000e+00
      0.196      0.000     8.5008     81.368     42.316  33.607325     4.4828      7.689   241.7425 2.9018e+01     4.1728      0.192      0.279    14.7047 0.0000e+00
      0.196      0.000     8.4366     80.854     42.277  33.576955     4.5083      7.691   241.9565 2.8970e+01     4.2592      0.192      0.278    14.7053 0.0000e+00
      0.197      0.001     8.3722     80.367     42.261  33.564362     4.5235      7.693   242.2055 2.8847e+01     4.3617      0.193      0.279    14.7057 0.0000e+00
      0.198      0.001     8.3119     79.872     42.283  33.581947     4.5254      7.694   242.2578 2.8747e+01     4.3533      0.195      0.283    14.7061 0.0000e+00
      0.198      0.001     8.2549     79.385     42.305  33.599245     4.5215      7.694   242.2452 2.8777e+01     4.2604      0.196      0.284    14.7064 0.0000e+00
      0.198      0.001     8.2021     78.905     42.284  33.583181     4.5099      7.695   242.3969 2.8901e+01     4.1942      0.195      0.282    14.7067 0.0000e+00
      0.197      0.000     8.1569     78.433     42.276  33.578056     4.5099      7.697   242.5432 2.8990e+01     4.2362      0.194      0.281    14.7070 0.0000e+00
      0.197 1.1586e-12     8.1028     77.992     42.305  33.600721     4.5302      7.699   242.6375 2.8958e+01     4.3585      0.193      0.280    14.7073 0.0000e+00
      0.198 1.2745e-11     8.0548     77.576     42.308  33.603435     4.5140      7.700   242.7620 2.8841e+01     4.4095      0.195      0.281    14.7079 0.0000e+00
      0.198 1.4019e-10     8.0064     77.169     42.317  33.610875     4.4471      7.702   242.9310 2.8771e+01     4.3395      0.195      0.282    14.7083 0.0000e+00
      0.199 1.5421e-09     7.9563     76.768     42.337  33.627233     4.4045      7.704   243.1310 2.8790e+01     4.2647      0.195      0.283    14.7085 0.0000e+00
      0.199 1.6963e-08     7.9129     76.393     42.316  33.610885     4.4143      7.706   243.2883 2.8830e+01     4.2566      0.195      0.283    14.7088 0.0000e+00
      0.199 1.8660e-07     7.8702     76.035     42.306  33.603550     4.4573      7.707   243.3702 2.8850e+01     4.3441      0.195      0.283    14.7094 0.0000e+00
      0.199 1.8967e-07     7.8303     75.685     42.304  33.601990     4.5005      7.708   243.4326 2.8914e+01     4.4680      0.195      0.283    14.7099 0.0000e+00
      0.198 5.4163e-08     7.7872     75.338     42.291  33.592024     4.5042      7.710   243.5265 2.8959e+01     4.4911      0.194      0.281    14.7103 0.0000e+00
      0.198 4.1104e-07     7.7503     74.962     42.313  33.609943     4.4937      7.711   243.6452 2.8880e+01     4.4526      0.194      0.281    14.7108 0.0000e+00
      0.198      0.000     7.7144     74.577     42.336  33.628313     4.5150      7.711   243.7487 2.8817e+01     4.4124      0.195      0.282    14.7113 0.0000e+00
      0.198      0.000     7.6778     74.227     42.330  33.623794     4.5618      7.712   243.8321 2.8843e+01     4.3799      0.195      0.282    14.7116 0.0000e+00
      0.198      0.001     7.6456     73.899     42.322  33.618755     4.5841      7.714   243.9660 2.8879e+01     4.3342      0.195      0.282    14.7119 0.0000e+00
      0.198      0.001     7.6061     73.586     42.337  33.630827     4.5687      7.715   244.1627 2.8898e+01     4.2347      0.194      0.282    14.7122 0.0000e+00
      0.198      0.001     7.5639     73.287     42.352  33.642873     4.5346      7.715   244.3176 2.8921e+01     4.2018      0.194      0.282    14.7127 0.0000e+00
      0.198      0.000     7.5300     72.965     42.345  33.637512     4.4965      7.716   244.3760 2.8897e+01     4.2774      0.195      0.282    14.7133 0.0000e+00
      0.199 1.8611e-08     7.4973     72.639     42.334  33.629447     4.4732      7.717   244.5243 2.8787e+01     4.3294      0.196      0.284    14.7137 0.0000e+00
      0.199 2.0472e-07     7.4636     72.360     42.308  33.608807     4.4530      7.719   244.7338 2.8809e+01     4.3179      0.196      0.284    14.7139 0.0000e+00
      0.199 2.0444e-07     7.4373     72.099     42.269  33.578297     4.4359      7.721   244.8443 2.8999e+01     4.3093      0.196      0.284    14.7142 0.0000e+00
      0.198 1.5227e-08     7.4034     71.825     42.268  33.577767     4.4492      7.723   244.9146 2.9069e+01     4.3282      0.194      0.282    14.7146 0.0000e+00
      0.198 -3.556e-08     7.3658     71.570     42.299  33.602405     4.4799      7.723   244.8953 2.9125e+01     4.3075      0.194      0.281    14.7151 0.0000e+00
      0.198 -4.097e-07     7.3406     71.339     42.324  33.622420     4.4918      7.724   244.8693 2.9140e+01     4.2636      0.193      0.280    14.7154 0.0000e+00
      0.199      0.000     7.3157     71.101     42.333  33.629425     4.4768      7.725   245.0302 2.8986e+01     4.2416      0.194      0.282    14.7157 0.0000e+00
      0.199      0.000     7.2858     70.869     42.325  33.623667     4.4568      7.726   245.2912 2.8912e+01     4.2465      0.196      0.284    14.7162 0.0000e+00
      0.199     -0.001     7.2588     70.633     42.315  33.616247     4.4578      7.727   245.4443 2.8955e+01     4.3234      0.195      0.283    14.7164 0.0000e+00
      0.198     -0.001     7.2387     70.366     42.298  33.603145     4.4716      7.729   245.5055 2.9019e+01     4.3504      0.194      0.281    14.7165 0.0000e+00
      0.197     -0.001     7.2121     70.096     42.284  33.592139     4.4651      7.731   245.5147 2.9097e+01     4.2661      0.194      0.281    14.7170 0.0000e+00
      0.197     -0.001     7.1889     69.837     42.306  33.610065     4.4213      7.732   245.5552 2.9170e+01     4.2265      0.193      0.280    14.7174 0.0000e+00
      0.197     -0.001     7.1679     69.595     42.331  33.629559     4.3667      7.732   245.6517 2.9210e+01     4.2809      0.193      0.280    14.7178 0.0000e+00
      0.197     -0.000     7.1373     69.360     42.340  33.637509     4.3464      7.733   245.7345 2.9247e+01     4.3432      0.193      0.280    14.7182 0.0000e+00
      0.197      0.001     7.1107     69.131     42.346  33.642735     4.3585      7.734   245.9541 2.9331e+01     4.3316      0.194      0.281    14.7184 0.0000e+00
      0.197      0.002     7.0836     68.920     42.330  33.629307     4.3881      7.734   246.1558 2.9324e+01     4.2773      0.193      0.278    14.7187 0.0000e+00
      0.197      0.002     7.0594     68.713     42.295  33.602039     4.4299      7.734   246.1941 2.9114e+01     4.2670      0.192      0.279    14.7190 0.0000e+00
      0.198      0.003     7.0363     68.533     42.252  33.566818     4.4479      7.734   246.2455 2.8921e+01     4.2760      0.194      0.282    14.7195 0.0000e+00
      0.200      0.003     7.0113     68.675     42.202  33.520668     4.4479      7.736   246.3478 2.8900e+01     4.2833      0.196      0.285    14.7197 0.0000e+00
      0.200      0.003     6.9915     69.980     42.176  33.488150     4.5040      7.738   246.4839 2.8868e+01     4.2862      0.197      0.286    14.7199 0.0000e+00
      0.200      0.003     6.9708     73.463     42.192  33.490852     4.6021      7.738   246.6004 2.8744e+01     4.2426      0.196      0.285    14.7201 0.0000e+00
      0.201      0.003     6.9465     79.287     42.201  33.489875     4.6680      7.738   246.6377 2.8719e+01     4.2349      0.198      0.286    14.7204 0.0000e+00
      0.201      0.006     6.9309     86.577     42.195  33.476333     4.7017      7.739   246.6765 2.8869e+01     4.2952      0.198      0.287    14.7135 0.0000e+00
      0.201      0.011     7.0163     94.286     42.187  33.453993     4.7014      7.741   246.7253 2.8938e+01     4.3233      0.198      0.286    14.6969 0.0000e+00
      0.203      0.016     7.3631    101.521     42.164  33.410077     4.6643      7.743   246.7122 2.8551e+01     4.2677      0.196      0.285    14.6833 0.0000e+00
      0.208      0.019     8.0008    107.431     42.181  33.389417     4.6284      7.743   246.7753 2.7684e+01     4.1695      0.202      0.293    14.6754 0.0000e+00
      0.217      0.021     8.7807    111.519     42.230  33.394497     4.6258      7.744   246.9722 2.6754e+01     4.1603      0.214      0.310    14.6683 0.0000e+00
      0.227      0.021     9.5919    113.674     42.275  33.408009     4.6490      7.745   247.1141 2.6051e+01     4.2586      0.224      0.325    14.6510 0.0000e+00
      0.232      0.020    10.3730    114.083     42.313  33.425870     4.6842      7.746   247.2001 2.5589e+01     4.3331      0.229      0.333    14.6193 0.0000e+00
      0.235      0.017    10.9993    113.288     42.315  33.420105     4.7188      7.747   247.3245 2.5290e+01     4.3103      0.230      0.334    14.5751 0.0000e+00
      0.236      0.013    11.4280    111.896     42.297  33.401755     4.7260      7.747   247.4143 2.5010e+01     4.2218      0.230      0.334    14.5304 0.0000e+00
      0.239      0.011    11.6522    110.351     42.287  33.394324     4.7287      7.748   247.5109 2.4749e+01     4.1848      0.235      0.340    14.5040 0.0000e+00
      0.243      0.012    11.6717    108.936     42.278  33.393699     4.7436      7.749   247.6315 2.4735e+01     4.2393      0.239      0.347    14.4929 0.0000e+00
      0.245      0.013    11.5693    107.770     42.273  33.394209     4.7399      7.750   247.7546 2.4906e+01     4.2658      0.241      0.349    14.4869 0.0000e+00
      0.246      0.013    11.4150    106.850     42.279  33.400497     4.7258      7.750   247.9664 2.4833e+01     4.2314      0.241      0.349    14.4788 0.0000e+00
      0.251      0.011    11.2462    106.142     42.282  33.406275     4.7308      7.749   248.1279 2.4459e+01     4.1995      0.245      0.355    14.4789 0.0000e+00
      0.257      0.006    11.0958    105.605     42.270  33.400632     4.7332      7.749   248.1580 2.4029e+01     4.2218      0.253      0.367    14.4909 0.0000e+00
      0.261      0.000    10.9764    105.215     42.264  33.395717     4.7137      7.749   248.2445 2.3827e+01     4.2955      0.258      0.375    14.4973 0.0000e+00
      0.260     -0.007    10.8839    104.926     42.285  33.410298     4.6948      7.750   248.3993 2.4032e+01     4.3046      0.257      0.373    14.4957 0.0000e+00
      0.255     -0.014    10.8133    104.695     42.333  33.450037     4.6794      7.751   248.4812 2.4364e+01     4.2304      0.251      0.363    14.4990 0.0000e+00
      0.249     -0.019    10.7566    104.511     42.377  33.495533     4.6521      7.751   248.5458 2.4616e+01     4.1838      0.243      0.353    14.5069 0.0000e+00
      0.241     -0.019    10.7190    104.375     42.377  33.516293     4.6311      7.751   248.6640 2.5145e+01     4.2190      0.238      0.345    14.5054 0.0000e+00
      0.234     -0.017    10.6932    104.320     42.341  33.510741     4.6331      7.751   248.7915 2.5970e+01     4.2814      0.230      0.332    14.5017 0.0000e+00
      0.229     -0.013    10.6685    104.316     42.296  33.491878     4.6270      7.751   248.9693 2.6514e+01     4.2546      0.223      0.323    14.5011 0.0000e+00
      0.229     -0.009    10.6493    104.291     42.267  33.478573     4.6073      7.752   249.0931 2.6843e+01     4.2026      0.225      0.325    14.5111 0.0000e+00
      0.229     -0.005    10.6253    104.294     42.262  33.476777     4.6110      7.753   249.0838 2.7259e+01     4.2673      0.227      0.329    14.5417 0.0000e+00
      0.229     -0.001    10.6127    104.355     42.258  33.470157     4.6385      7.752   249.2018 2.7520e+01     4.3533      0.226      0.328    14.5716 0.0000e+00
      0.228      0.001    10.6154    104.438     42.263  33.461980     4.6570      7.751   249.4011 2.7514e+01     4.3538      0.224      0.324    14.5912 0.0000e+00
      0.227      0.003    10.6039    104.515     42.259  33.441333     4.6440      7.751   249.5144 2.7233e+01     4.3079      0.222      0.321    14.6031 0.0000e+00
      0.227      0.004    10.6031    104.540     42.239  33.410824     4.6144      7.752   249.6255 2.6628e+01     4.2764      0.222      0.322    14.6042 0.0000e+00
      0.231      0.006    10.6129    104.508     42.249  33.410296     4.6068      7.754   249.7119 2.5953e+01     4.2809      0.227      0.329    14.6026 0.0000e+00
      0.235      0.009    10.6237    104.471     42.284  33.434944     4.6263      7.755   249.7847 2.5600e+01     4.2586      0.232      0.337    14.5887 0.0000e+00
      0.236      0.013    10.6411    104.435     42.307  33.455063     4.6422      7.756   249.9036 2.5581e+01     4.2130      0.232      0.336    14.5614 0.0000e+00
      0.236      0.016    10.6484    104.372     42.309  33.463220     4.6246      7.755   250.0297 2.5615e+01     4.2072      0.231      0.334    14.5420 0.0000e+00
      0.240      0.021    10.6435    104.301     42.312  33.470139     4.5882      7.755   250.1055 2.5495e+01     4.2222      0.234      0.338    14.5344 0.0000e+00
      0.247      0.026    10.6405    104.245     42.320  33.475284     4.5772      7.756   250.1315 2.5260e+01     4.2586      0.242      0.351    14.5309 0.0000e+00
      0.256      0.031    10.6392    104.190     42.310  33.461973     4.5912      7.757   250.1721 2.4928e+01     4.2714      0.251      0.364    14.5323 0.0000e+00
      0.266      0.036    10.6278    104.138     42.286  33.436078     4.6157      7.758   250.3387 2.4482e+01     4.2072      0.260      0.377    14.5443 0.0000e+00
      0.277      0.036    10.6182    104.104     42.274  33.415959     4.6318      7.758   250.5117 2.4033e+01     4.1649      0.272      0.396    14.5520 0.0000e+00
      0.287      0.033    10.6144    104.074     42.279  33.409039     4.6197      7.757   250.6287 2.3481e+01     4.2381      0.282      0.409    14.5467 0.0000e+00
      0.297      0.027    10.6108    104.044     42.297  33.415838     4.6190      7.757   250.8074 2.2811e+01     4.3403      0.291      0.421    14.5399 0.0000e+00
      0.305      0.021    10.6052    104.042     42.322  33.434709     4.6490      7.757   250.9512 2.2265e+01     4.3078      0.301      0.437    14.5329 0.0000e+00
      0.309      0.015    10.6063    104.067     42.333  33.446875     4.6744      7.757   251.0767 2.1987e+01     4.2205      0.305      0.443    14.5209 0.0000e+00
      0.309      0.011    10.6075    104.079     42.316  33.436057     4.6932      7.757   251.2062 2.1903e+01     4.2410      0.304      0.442    14.5046 0.0000e+00
      0.309      0.008    10.6042    104.028     42.306  33.430800     4.7098      7.758   251.3125 2.1943e+01     4.3170      0.302      0.439    14.4950 0.0000e+00
      0.309      0.008    10.6043    103.917     42.325  33.446750     4.7586      7.758   251.4151 2.2049e+01     4.3533      0.302      0.438    14.4962 0.0000e+00
      0.311      0.011    10.6069    103.807     42.315  33.438581     4.8499      7.759   251.5002 2.2103e+01     4.3046      0.304      0.442    14.5012 0.0000e+00
      0.315      0.014    10.6100    103.738     42.262  33.395476     4.8982      7.760   251.6538 2.2116e+01     4.2407      0.309      0.448    14.5051 0.0000e+00
      0.320      0.016    10.6043    103.708     42.232  33.369674     4.9094      7.761   251.8094 2.2076e+01     4.2632      0.314      0.455    14.5075 0.0000e+00
      0.326      0.016    10.5891    103.720     42.249  33.380376     4.9190      7.762   251.9198 2.1921e+01     4.3046      0.320      0.465    14.5095 0.0000e+00
      0.332      0.015    10.5765    103.778     42.276  33.397990     4.8655      7.762   252.0423 2.1716e+01     4.2971      0.327      0.475    14.5091 0.0000e+00
      0.335      0.015    10.5711    103.866     42.274  33.392307     4.7615      7.762   252.1711 2.1521e+01     4.2744      0.330      0.478    14.5066 0.0000e+00
      0.335      0.015    10.5678    103.957     42.259  33.375103     4.6931      7.762   252.3590 2.1268e+01     4.2350      0.329      0.477    14.5049 0.0000e+00
      0.337      0.015    10.5694    104.015     42.275  33.380296     4.6792      7.763   252.5073 2.0958e+01     4.2309      0.330      0.478    14.5020 0.0000e+00
      0.342      0.014    10.5774    104.005     42.295  33.391642     4.7190      7.764   252.5864 2.0562e+01     4.2926      0.334      0.484    14.4962 0.0000e+00
      0.349      0.014    10.5882    103.919     42.288  33.385393     4.7828      7.764   252.7133 2.0169e+01     4.3325      0.342      0.496    14.4918 0.0000e+00
      0.355      0.013    10.6000    103.794     42.269  33.368181     4.8101      7.764   252.9236 1.9983e+01     4.3034      0.350      0.508    14.4874 0.0000e+00
      0.357      0.013    10.6098    103.670     42.283  33.373863     4.7993      7.765   253.1506 1.9970e+01     4.2486      0.351      0.510    14.4759 0.0000e+00
      0.357      0.012    10.6115    103.559     42.312  33.390648     4.8267      7.767   253.2205 2.0031e+01     4.3187      0.350      0.508    14.4679 0.0000e+00
      0.358      0.010    10.6001    103.471     42.302  33.380785     4.9173      7.767   253.2523 2.0008e+01     4.5018      0.350      0.508    14.4711 0.0000e+00
      0.361      0.010    10.5854    103.433     42.302  33.381505     4.9706      7.768   253.3618 1.9875e+01     4.5491      0.353      0.512    14.4707 0.0000e+00
      0.366      0.010    10.5753    103.453     42.322  33.399345     4.9627      7.769   253.5125 1.9756e+01     4.4462      0.359      0.521    14.4607 0.0000e+00
      0.370      0.010    10.5660    103.526     42.329  33.406163     4.9134      7.769   253.6989 1.9663e+01     4.3510      0.363      0.527    14.4515 0.0000e+00
      0.372      0.010    10.5555    103.635     42.320  33.400491     4.8405      7.769   253.8082 1.9573e+01     4.3208      0.365      0.529    14.4505 0.0000e+00
      0.373      0.009    10.5512    103.747     42.311  33.394211     4.8137      7.769   253.8875 1.9445e+01     4.3533      0.366      0.531    14.4534 0.0000e+00
      0.374      0.006    10.5529    103.827     42.311  33.393682     4.8146      7.769   253.9704 1.9261e+01     4.3345      0.366      0.531    14.4550 0.0000e+00
      0.377      0.002    10.5603    103.873     42.310  33.394098     4.8351      7.771   254.0361 1.9081e+01     4.2990      0.369      0.536    14.4574 0.0000e+00
      0.380     -0.001    10.5723    103.906     42.315  33.399240     4.8858      7.771   254.1648 1.9029e+01     4.3336      0.373      0.541    14.4595 0.0000e+00
      0.380     -0.003    10.5851    103.915     42.305  33.392413     4.9119      7.771   254.3222 1.9171e+01     4.3429      0.374      0.542    14.4588 0.0000e+00
      0.376     -0.003    10.5940    103.876     42.280  33.374995     4.9188      7.772   254.3909 1.9396e+01     4.3431      0.369      0.535    14.4589 0.0000e+00
      0.371     -0.003    10.5962    103.800     42.283  33.378985     4.9183      7.772   254.3930 1.9610e+01     4.3365      0.362      0.525    14.4600 0.0000e+00
      0.369     -0.002    10.6007    103.732     42.279  33.377207     4.9059      7.773   254.5196 1.9765e+01     4.2978      0.360      0.522    14.4611 0.0000e+00
      0.371      0.002    10.6021    103.706     42.251  33.353493     4.9098      7.774   254.8028 1.9845e+01     4.3186      0.363      0.527    14.4629 0.0000e+00
      0.374      0.008    10.5973    103.701     42.246  33.346042     4.9325      7.775   255.2364 1.9916e+01     4.3489      0.368      0.534    14.4658 0.0000e+00
      0.376      0.020    10.5869    103.697     42.259  33.350551     4.9398      7.774   255.8904 1.9963e+01     4.3224      0.370      0.537    14.4689 0.0000e+00
      0.377      0.037    10.5774    103.692     42.263  33.344568     4.9063      7.772   256.6009 1.9863e+01     4.2723      0.368      0.535    14.4700 0.0000e+00
      0.381      0.055    10.5776    103.682     42.271  33.337129     4.8686      7.770   257.1167 1.9545e+01     4.2209      0.371      0.539    14.4682 0.0000e+00
      0.394      0.069    10.5781    103.645     42.272  33.324025     4.8664      7.769   257.3946 1.8925e+01     4.2129      0.380      0.551    14.4630 0.0000e+00
      0.423      0.078    10.5792    103.599     42.271  33.313000     4.8709      7.768   257.6378 1.8001e+01     4.2095      0.409      0.594    14.4580 0.0000e+00
      0.460      0.080    10.5805    103.558     42.299  33.330710     4.8492      7.768   257.9927 1.7317e+01     4.1797      0.458      0.664    14.4493 0.0000e+00
      0.488      0.076    10.5850    103.467     42.323  33.347813     4.8115      7.769   258.4160 1.7078e+01     4.1604      0.485      0.703    14.4302 0.0000e+00
      0.503      0.067    10.5863    103.373     42.299  33.329461     4.7897      7.769   258.7983 1.6888e+01     4.2151      0.495      0.718    14.4107 0.0000e+00
      0.511      0.058    10.5795    103.339     42.259  33.299149     4.8016      7.769   259.0872 1.6753e+01     4.2949      0.503      0.731    14.3988 0.0000e+00
      0.516      0.053    10.5843    103.292     42.258  33.298524     4.8309      7.769   259.3267 1.6660e+01     4.2715      0.505      0.732    14.3933 0.0000e+00
      0.524      0.054    10.5714    103.213     42.290  33.321905     4.8439      7.769   259.5441 1.6452e+01     4.2056      0.510      0.740    14.3921 0.0000e+00
      0.541      0.055    10.5554    103.137     42.300  33.328079     4.8419      7.769   259.7367 1.6187e+01     4.1804      0.528      0.766    14.3929 0.0000e+00
      0.564      0.053    10.5600    103.055     42.279  33.309728     4.8406      7.769   259.9349 1.5952e+01     4.2057      0.554      0.803    14.3954 0.0000e+00
      0.585      0.048    10.5533    102.984     42.257  33.290344     4.8290      7.770   260.1338 1.5813e+01     4.2727      0.578      0.839    14.3961 0.0000e+00
      0.598      0.041    10.5434    102.949     42.252  33.284048     4.8090      7.770   260.3346 1.5786e+01     4.3078      0.592      0.858    14.3936 0.0000e+00
      0.601      0.033    10.5381    102.914     42.276  33.297040     4.7986      7.770   260.5559 1.5808e+01     4.2888      0.591      0.858    14.3915 0.0000e+00
      0.601      0.027    10.5295    102.876     42.317  33.320525     4.8035      7.771   260.6585 1.5784e+01     4.2822      0.587      0.852    14.3897 0.0000e+00
      0.603      0.025    10.5194    102.865     42.320  33.314229     4.8100      7.771   260.8007 1.5694e+01     4.2617      0.589      0.854    14.3875 0.0000e+00
      0.612      0.026    10.5203    102.836     42.290  33.284342     4.8183      7.771   261.1560 1.5589e+01     4.2116      0.599      0.869    14.3856 0.0000e+00
      0.624      0.026    10.5183    102.758     42.284  33.276382     4.8372      7.771   261.4273 1.5503e+01     4.1884      0.613      0.889    14.3790 0.0000e+00
      0.634      0.026    10.5136    102.671     42.291  33.281420     4.8476      7.771   261.5868 1.5454e+01     4.1864      0.623      0.904    14.3671 0.0000e+00
      0.641      0.024    10.5187    102.593     42.290  33.281812     4.8530      7.772   261.7931 1.5458e+01     4.2216      0.630      0.914    14.3553 0.0000e+00
      0.645      0.021    10.5197    102.497     42.288  33.281126     4.8686      7.774   262.0289 1.5525e+01     4.2730      0.633      0.919    14.3469 0.0000e+00
      0.646      0.018    10.5091    102.384     42.278  33.273122     4.8779      7.775   262.2013 1.5595e+01     4.2957      0.633      0.918    14.3437 0.0000e+00
      0.649      0.016    10.4993    102.284     42.248  33.248479     4.8741      7.776   262.2425 1.5621e+01     4.2902      0.636      0.921    14.3440 0.0000e+00
      0.655      0.016    10.4932    102.205     42.233  33.236944     4.8644      7.775   262.2683 1.5661e+01     4.2408      0.643      0.932    14.3462 0.0000e+00
      0.661      0.017    10.4827    102.145     42.264  33.260544     4.8609      7.775   262.3409 1.5730e+01     4.2448      0.650      0.943    14.3478 0.0000e+00
      0.666      0.019    10.4696    102.122     42.289  33.280044     4.8730      7.775   262.4327 1.5797e+01     4.3050      0.653      0.947    14.3467 0.0000e+00
      0.668      0.020    10.4595    102.123     42.293  33.282384     4.8694      7.776   262.5174 1.5823e+01     4.2845      0.655      0.949    14.3458 0.0000e+00
      0.673      0.020    10.4524    102.129     42.302  33.288838     4.8415      7.777   262.5912 1.5804e+01     4.2366      0.659      0.955    14.3456 0.0000e+00
      0.679      0.021    10.4442    102.148     42.310  33.294630     4.8444      7.777   262.7227 1.5786e+01     4.2385      0.666      0.967    14.3454 0.0000e+00
      0.686      0.021    10.4432    102.173     42.301  33.288972     4.8875      7.777   262.9021 1.5790e+01     4.2735      0.672      0.976    14.3446 0.0000e+00
      0.692      0.020    10.4449    102.191     42.292  33.283877     4.9213      7.778   263.1256 1.5789e+01     4.3179      0.678      0.983    14.3431 0.0000e+00
      0.698      0.019    10.4446    102.209     42.305  33.296470     4.9200      7.778   263.3607 1.5790e+01     4.2971      0.685      0.994    14.3421 0.0000e+00
      0.703      0.016    10.4470    102.231     42.326  33.314349     4.8882      7.778   263.5075 1.5817e+01     4.2273      0.690      1.001    14.3421 0.0000e+00
      0.705      0.014    10.4505    102.243     42.319  33.309719     4.8535      7.778   263.6101 1.5868e+01     4.2243      0.692      1.003    14.3436 0.0000e+00
      0.707      0.012    10.4509    102.273     42.310  33.303937     4.8508      7.779   263.7402 1.5940e+01     4.2616      0.693      1.004    14.3464 0.0000e+00
      0.710      0.012    10.4509    102.352     42.313  33.307885     4.8633      7.779   263.8765 1.6013e+01     4.2692      0.696      1.008    14.3497 0.0000e+00
      0.713      0.013    10.4550    102.437     42.296  33.294010     4.8553      7.779   263.9667 1.6094e+01     4.2478      0.699      1.014    14.3510 0.0000e+00
      0.716      0.014    10.4547    102.498     42.258  33.263061     4.8783      7.780   263.9709 1.6188e+01     4.2418      0.702      1.018    14.3514 0.0000e+00
      0.720      0.014    10.4541    102.540     42.243  33.250901     4.9409      7.782   264.0131 1.6258e+01     4.2651      0.705      1.023    14.3538 0.0000e+00
      0.725      0.015    10.4658    102.575     42.273  33.273867     4.9720      7.783   264.1335 1.6293e+01     4.2902      0.711      1.031    14.3552 0.0000e+00
      0.729      0.015    10.4753    102.610     42.291  33.286966     4.9878      7.783   264.2220 1.6324e+01     4.3067      0.715      1.037    14.3553 0.0000e+00
      0.732      0.015    10.4808    102.635     42.287  33.282394     4.9905      7.783   264.3080 1.6346e+01     4.2586      0.717      1.040    14.3546 0.0000e+00
      0.736      0.014    10.4855    102.637     42.288  33.282031     4.9711      7.783   264.3999 1.6340e+01     4.2216      0.721      1.046    14.3536 0.0000e+00
      0.741      0.013    10.4881    102.628     42.290  33.282575     4.9701      7.783   264.4720 1.6333e+01     4.2687      0.727      1.055    14.3531 0.0000e+00
      0.744      0.013    10.4930    102.606     42.297  33.288967     4.9789      7.783   264.5781 1.6340e+01     4.3166      0.730      1.059    14.3516 0.0000e+00
      0.745      0.014    10.4966    102.564     42.304  33.295878     4.9608      7.784   264.7356 1.6348e+01     4.3211      0.730      1.059    14.3498 0.0000e+00
      0.748      0.017    10.4963    102.512     42.311  33.302694     4.9253      7.785   264.8286 1.6367e+01     4.2901      0.733      1.064    14.3480 0.0000e+00
      0.752      0.020    10.4958    102.459     42.319  33.307934     4.9163      7.786   264.9271 1.6405e+01     4.2833      0.737      1.069    14.3463 0.0000e+00
      0.757      0.021    10.4943    102.421     42.308  33.295785     4.9271      7.786   265.0668 1.6487e+01     4.3072      0.741      1.075    14.3466 0.0000e+00
      0.765      0.020    10.4883    102.415     42.295  33.282691     4.9225      7.786   265.1411 1.6583e+01     4.3050      0.749      1.087    14.3498 0.0000e+00
      0.775      0.017    10.4826    102.436     42.289  33.276499     4.9025      7.786   265.2228 1.6593e+01     4.2567      0.760      1.104    14.3529 0.0000e+00
      0.781      0.013    10.4766    102.467     42.299  33.284354     4.8846      7.786   265.2803 1.6558e+01     4.2020      0.768      1.116    14.3507 0.0000e+00
      0.781      0.011    10.4733    102.477     42.336  33.314232     4.8890      7.787   265.3204 1.6571e+01     4.2238      0.767      1.113    14.3450 0.0000e+00
      0.777      0.010    10.4738    102.457     42.341  33.320527     4.8976      7.788   265.4497 1.6636e+01     4.3495      0.761      1.103    14.3416 0.0000e+00
      0.776      0.008    10.4766    102.433     42.309  33.297032     4.8809      7.788   265.6389 1.6739e+01     4.4587      0.758      1.100    14.3408 0.0000e+00
      0.781      0.008    10.4812    102.414     42.291  33.283928     4.8624      7.789   265.8017 1.6860e+01     4.4510      0.764      1.109    14.3409 0.0000e+00
      0.788      0.008    10.4830    102.392     42.297  33.288975     4.8483      7.790   265.8694 1.6971e+01     4.4266      0.775      1.124    14.3415 0.0000e+00
      0.793      0.008    10.4782    102.384     42.304  33.294615     4.8352      7.791   265.8545 1.7083e+01     4.4371      0.780      1.131    14.3443 0.0000e+00
      0.793      0.007    10.4747    102.399     42.297  33.288681     4.8448      7.791   265.8798 1.7213e+01     4.4071      0.777      1.128    14.3478 0.0000e+00
      0.790      0.006    10.4742    102.440     42.287  33.280668     4.8567      7.790   266.0029 1.7334e+01     4.3029      0.774      1.123    14.3483 0.0000e+00
      0.790      0.005    10.4700    102.501     42.262  33.261168     4.8544      7.790   266.1385 1.7417e+01     4.2027      0.773      1.121    14.3478 0.0000e+00
      0.793      0.006    10.4695    102.541     42.239  33.243242     4.8664      7.790   266.2290 1.7468e+01     4.2192      0.776      1.126    14.3481 0.0000e+00
      0.797      0.009    10.4710    102.554     42.253  33.254247     4.8857      7.790   266.2367 1.7511e+01     4.2981      0.782      1.134    14.3481 0.0000e+00
      0.800      0.011    10.4740    102.566     42.269  33.267355     4.8877      7.791   266.2319 1.7565e+01     4.3371      0.785      1.138    14.3483 0.0000e+00
      0.801      0.013    10.4837    102.590     42.279  33.274839     4.8741      7.791   266.3431 1.7611e+01     4.3156      0.785      1.139    14.3483 0.0000e+00
      0.805      0.014    10.4875    102.595     42.289  33.281292     4.8547      7.791   266.4624 1.7620e+01     4.2765      0.788      1.144    14.3478 0.0000e+00
      0.810      0.015    10.4877    102.587     42.291  33.281929     4.8527      7.791   266.4695 1.7635e+01     4.3082      0.794      1.152    14.3477 0.0000e+00
      0.814      0.015    10.4876    102.621     42.292  33.282540     4.8667      7.791   266.5153 1.7691e+01     4.3224      0.798      1.157    14.3482 0.0000e+00
      0.817      0.014    10.4921    102.688     42.301  33.288681     4.8739      7.791   266.6720 1.7750e+01     4.2779      0.800      1.161    14.3476 0.0000e+00
      0.822      0.013    10.4940    102.755     42.307  33.292734     4.8726      7.792   266.8153 1.7817e+01     4.2480      0.806      1.169    14.3462 0.0000e+00
      0.826      0.011    10.4885    102.823     42.275  33.268099     4.8761      7.793   266.8708 1.7939e+01     4.2345      0.811      1.176    14.3452 0.0000e+00
      0.828      0.011    10.4944    102.880     42.245  33.244604     4.8996      7.793   266.8274 1.8073e+01     4.2856      0.812      1.177    14.3440 0.0000e+00
      0.828      0.011    10.5029    102.903     42.267  33.262425     4.9231      7.794   266.8074 1.8177e+01     4.3191      0.812      1.177    14.3433 0.0000e+00
      0.830      0.010    10.5091    102.914     42.305  33.293245     4.9191      7.794   266.8869 1.8274e+01     4.2633      0.813      1.178    14.3433 0.0000e+00
      0.833      0.009    10.5157    102.915     42.314  33.300029     4.9185      7.794   267.0146 1.8374e+01     4.2602      0.817      1.184    14.3435 0.0000e+00
      0.837      0.009    10.5242    102.877     42.291  33.280994     4.9411      7.794   267.1463 1.8454e+01     4.3845      0.822      1.192    14.3442 0.0000e+00
      0.840      0.010    10.5243    102.839     42.256  33.253429     4.9680      7.794   267.2742 1.8520e+01     4.5021      0.825      1.197    14.3447 0.0000e+00
      0.842      0.011    10.5240    102.801     42.216  33.220523     4.9857      7.795   267.3568 1.8588e+01     4.5206      0.826      1.197    14.3452 0.0000e+00
      0.843      0.011    10.5286    102.718     42.192  33.200348     4.9801      7.795   267.3716 1.8614e+01     4.4720      0.826      1.198    14.3457 0.0000e+00
      0.845      0.011    10.5201    102.623     42.193  33.199819     4.9839      7.795   267.3667 1.8598e+01     4.3930      0.827      1.201    14.3448 0.0000e+00
      0.849      0.012    10.5168    102.557     42.213  33.214121     5.0149      7.796   267.3832 1.8612e+01     4.3510      0.833      1.208    14.3431 0.0000e+00
      0.853      0.013    10.5175    102.509     42.255  33.246390     5.0379      7.796   267.4850 1.8680e+01     4.3400      0.838      1.216    14.3425 0.0000e+00
      0.856      0.013    10.5061    102.477     42.288  33.272763     5.0455      7.797   267.5654 1.8754e+01     4.2937      0.840      1.218    14.3416 0.0000e+00
      0.859      0.012    10.4946    102.478     42.296  33.279222     5.0405      7.798   267.5812 1.8808e+01     4.2362      0.842      1.220    14.3395 0.0000e+00
      0.862      0.011    10.4899    102.499     42.272  33.261037     5.0362      7.798   267.5900 1.8865e+01     4.2585      0.846      1.226    14.3377 0.0000e+00
      0.866      0.010    10.4856    102.532     42.249  33.243216     5.0429      7.798   267.6716 1.8956e+01     4.3241      0.851      1.234    14.3369 0.0000e+00
      0.869      0.009    10.4804    102.572     42.263  33.254076     5.0465      7.799   267.8789 1.9044e+01     4.3464      0.853      1.238    14.3368 0.0000e+00
      0.871      0.008    10.4815    102.585     42.277  33.265468     5.0213      7.799   268.0319 1.9078e+01     4.3232      0.854      1.238    14.3373 0.0000e+00
      0.872      0.008    10.4843    102.580     42.262  33.254071     4.9798      7.799   268.0580 1.9093e+01     4.2479      0.855      1.240    14.3379 0.0000e+00
      0.873      0.009    10.4862    102.575     42.247  33.243166     4.9690      7.800   268.0233 1.9164e+01     4.2229      0.855      1.240    14.3380 0.0000e+00
      0.874      0.012    10.4938    102.565     42.270  33.260492     4.9828      7.801   268.0425 1.9334e+01     4.2939      0.857      1.241    14.3381 0.0000e+00
      0.876      0.016    10.4937    102.568     42.288  33.273233     5.0210      7.801   268.1176 1.9534e+01     4.3897      0.858      1.244    14.3387 0.0000e+00
      0.881      0.021    10.4914    102.579     42.288  33.270331     5.0730      7.801   268.1571 1.9734e+01     4.4583      0.863      1.252    14.3398 0.0000e+00
      0.889      0.025    10.4928    102.597     42.313  33.288840     5.0878      7.801   268.2614 1.9982e+01     4.4402      0.873      1.266    14.3405 0.0000e+00
      0.896      0.027    10.4891    102.627     42.338  33.306686     5.0838      7.802   268.4327 2.0130e+01     4.4437      0.879      1.274    14.3404 0.0000e+00
      0.903      0.027    10.4912    102.646     42.327  33.295776     5.0660      7.802   268.4220 1.9884e+01     4.5351      0.884      1.283    14.3381 0.0000e+00
      0.912      0.022    10.4934    102.617     42.313  33.283816     5.0147      7.803   268.3035 1.9534e+01     4.5543      0.895      1.298    14.3351 0.0000e+00
      0.922      0.017    10.4942    102.525     42.319  33.288970     4.9703      7.803   268.3770 1.9576e+01     4.4708      0.906      1.314    14.3325 0.0000e+00
      0.926      0.014    10.4998    102.393     42.326  33.294643     4.9533      7.803   268.5359 1.9718e+01     4.4142      0.911      1.321    14.3301 0.0000e+00
      0.924      0.014    10.5033    102.245     42.319  33.288970     4.9511      7.803   268.5908 1.9723e+01     4.4160      0.906      1.315    14.3279 0.0000e+00
      0.921      0.016    10.5016    102.086     42.314  33.283817     4.9769      7.804   268.6096 1.9753e+01     4.4244      0.901      1.307    14.3265 0.0000e+00
      0.923      0.020    10.4910    101.949     42.330  33.295787     5.0150      7.804   268.6772 1.9704e+01     4.3794      0.902      1.309    14.3270 0.0000e+00
      0.931      0.027    10.4756    101.849     42.344  33.306802     5.0208      7.805   268.7207 1.9294e+01     4.2817      0.911      1.322    14.3280 0.0000e+00
      0.943      0.035    10.4617    101.759     42.323  33.290114     5.0141      7.806   268.7042 1.8764e+01     4.1991      0.925      1.342    14.3277 0.0000e+00
      0.954      0.041    10.4438    101.679     42.317  33.284347     5.0250      7.806   268.7366 1.8683e+01     4.2007      0.937      1.358    14.3260 0.0000e+00
      0.964      0.044    10.4286    101.632     42.338  33.300506     5.0366      7.805   268.8536 1.8905e+01     4.2665      0.945      1.371    14.3248 0.0000e+00
      0.976      0.041    10.4211    101.603     42.333  33.295164     5.0299      7.805   269.0011 1.9096e+01     4.2777      0.956      1.386    14.3247 0.0000e+00
      0.990      0.033    10.4119    101.583     42.319  33.283194     5.0105      7.806   269.1436 1.9267e+01     4.2343      0.970      1.407    14.3244 0.0000e+00
      1.003      0.022    10.4012    101.565     42.318  33.282672     4.9680      7.806   269.1997 1.9617e+01     4.2198      0.986      1.431    14.3242 0.0000e+00
      1.010      0.012    10.3989    101.536     42.324  33.288851     4.9071      7.805   269.2493 2.0096e+01     4.2395      0.994      1.442    14.3235 0.0000e+00
      1.008      0.003    10.3960    101.512     42.329  33.294463     4.8731      7.805   269.3994 2.0254e+01     4.2674      0.990      1.436    14.3215 0.0000e+00
      1.000     -0.002    10.3939    101.497     42.319  33.287093     4.8651      7.805   269.4653 2.0204e+01     4.2486      0.981      1.423    14.3203 0.0000e+00
      0.992     -0.002    10.3941    101.498     42.289  33.263178     4.9355      7.805   269.4441 2.0262e+01     4.2178      0.970      1.407    14.3213 0.0000e+00
      0.991      0.003    10.3881    101.504     42.284  33.259084     5.0925      7.806   269.4866 2.0356e+01     4.2711      0.969      1.405    14.3233 0.0000e+00
      0.996      0.013    10.3865    101.511     42.339  33.301025     5.1903      7.807   269.5500 2.0471e+01     4.3121      0.977      1.417    14.3250 0.0000e+00
      1.002      0.024    10.3836    101.538     42.374  33.326188     5.2105      7.806   269.6078 2.0705e+01     4.3040      0.984      1.428    14.3259 0.0000e+00
      1.008      0.032    10.3843    101.566     42.354  33.309553     5.1954      7.806   269.6697 2.1089e+01     4.3440      0.987      1.431    14.3261 0.0000e+00
      1.018      0.033    10.3861    101.560     42.330  33.290215     5.1492      7.806   269.6952 2.1411e+01     4.4192      0.996      1.445    14.3251 0.0000e+00
      1.033      0.031    10.3850    101.519     42.321  33.282703     5.1345      7.806   269.7449 2.1513e+01     4.4971      1.014      1.470    14.3226 0.0000e+00
      1.046      0.027    10.3898    101.451     42.320  33.282175     5.1585      7.806   269.8398 2.1515e+01     4.5339      1.029      1.493    14.3206 0.0000e+00
      1.051      0.022    10.3949    101.385     42.321  33.283830     5.1568      7.806   269.8962 2.1507e+01     4.4878      1.033      1.498    14.3195 0.0000e+00
      1.051      0.016    10.3939    101.340     42.346  33.302710     5.1142      7.806   269.9104 2.1406e+01     4.4525      1.029      1.493    14.3186 0.0000e+00
      1.051      0.010    10.3895    101.303     42.368  33.320127     5.0755      7.806   269.9262 2.1076e+01     4.4830      1.030      1.494    14.3187 0.0000e+00
      1.053      0.008    10.3817    101.281     42.347  33.304082     5.0721      7.806   270.0002 2.0697e+01     4.5142      1.033      1.499    14.3193 0.0000e+00
      1.056      0.011    10.3727    101.270     42.341  33.299043     5.0979      7.806   270.1172 2.0512e+01     4.5232      1.036      1.502    14.3193 0.0000e+00
      1.058      0.017    10.3708    101.274     42.372  33.322642     5.1958      7.807   270.2228 2.0522e+01     4.4883      1.037      1.504    14.3188 0.0000e+00
      1.061      0.022    10.3651    101.285     42.389  33.335642     5.3653      7.807   270.3305 2.0695e+01     4.4687      1.038      1.506    14.3187 0.0000e+00
      1.067      0.024    10.3639    101.260     42.382  33.329336     5.4663      7.807   270.3862 2.0932e+01     4.5250      1.044      1.515    14.3189 0.0000e+00
      1.077      0.024    10.3628    101.196     42.359  33.309841     5.4764      7.808   270.3812 2.1153e+01     4.5536      1.055      1.531    14.3188 0.0000e+00
      1.089      0.022    10.3618    101.121     42.334  33.290251     5.4793      7.808   270.4417 2.1310e+01     4.5079      1.070      1.552    14.3183 0.0000e+00
      1.096      0.018    10.3675    101.042     42.324  33.282810     5.4850      7.808   270.6012 2.1408e+01     4.4508      1.078      1.563    14.3173 0.0000e+00
      1.097      0.012    10.3635    100.950     42.323  33.283320     5.4957      7.808   270.7614 2.1462e+01     4.4783      1.076      1.561    14.3160 0.0000e+00
      1.096      0.006    10.3568    100.853     42.338  33.296411     5.5002      7.807   270.8304 2.1444e+01     4.5664      1.074      1.558    14.3149 0.0000e+00
      1.095      0.001    10.3483    100.797     42.359  33.314218     5.3894      7.807   270.8322 2.1428e+01     4.5591      1.074      1.557    14.3148 0.0000e+00
      1.096     -0.002    10.3410    100.797     42.351  33.308294     5.1705      7.808   270.8687 2.1425e+01     4.4244      1.075      1.559    14.3155 0.0000e+00
      1.096     -0.002    10.3315    100.843     42.324  33.288227     5.0349      7.809   270.9281 2.1384e+01     4.2704      1.076      1.560    14.3168 0.0000e+00
      1.095     -0.001    10.3182    100.926     42.289  33.261920     5.0149      7.809   270.9481 2.1358e+01     4.2343      1.075      1.559    14.3186 0.0000e+00
      1.094     -0.001    10.3122    101.023     42.266  33.243995     5.0289      7.808   271.0254 2.1372e+01     4.2957      1.073      1.556    14.3197 0.0000e+00
      1.093     -0.001    10.3125    101.098     42.289  33.261818     5.0372      7.807   271.0883 2.1399e+01     4.2953      1.071      1.554    14.3204 0.0000e+00
      1.094      0.000    10.3169    101.140     42.322  33.287085     5.0240      7.808   271.1054 2.1351e+01     4.2296      1.072      1.554    14.3220 0.0000e+00
      1.095      0.004    10.3261    101.193     42.333  33.295723     5.0115      7.808   271.2329 2.1202e+01     4.1850      1.074      1.557    14.3238 0.0000e+00
      1.095      0.010    10.3375    101.268     42.342  33.302814     5.0104      7.808   271.3399 2.1158e+01     4.1650      1.075      1.559    14.3239 0.0000e+00
      1.094      0.018    10.3462    101.315     42.351  33.309381     5.0684      7.808   271.3664 2.1196e+01     4.2263      1.072      1.555    14.3230 0.0000e+00
      1.097      0.026    10.3483    101.322     42.353  33.311689     5.1809      7.808   271.3809 2.1143e+01     4.3455      1.072      1.554    14.3227 0.0000e+00
      1.107      0.034    10.3518    101.318     42.378  33.330723     5.2385      7.810   271.4297 2.1217e+01     4.4111      1.085      1.574    14.3227 0.0000e+00
      1.121      0.039    10.3639    101.314     42.403  33.349185     5.2400      7.811   271.5256 2.1414e+01     4.4383      1.100      1.595    14.3225 0.0000e+00
      1.134      0.041    10.3684    101.297     42.400  33.344571     5.2832      7.812   271.5939 2.1398e+01     4.4701      1.111      1.611    14.3222 0.0000e+00
      1.148      0.038    10.3677    101.269     42.394  33.338379     5.3781      7.812   271.6525 2.1246e+01     4.5221      1.126      1.634    14.3223 0.0000e+00
      1.158      0.032    10.3664    101.213     42.394  33.337765     5.4209      7.811   271.7190 2.1169e+01     4.5206      1.138      1.651    14.3226 0.0000e+00
      1.163      0.026    10.3677    101.090     42.393  33.337142     5.4014      7.809   271.7947 2.1106e+01     4.4521      1.141      1.655    14.3211 0.0000e+00
      1.166      0.021    10.3664    100.943     42.385  33.330845     5.3089      7.808   271.8801 2.0967e+01     4.3764      1.143      1.658    14.3178 0.0000e+00
      1.170      0.016    10.3632    100.833     42.378  33.325077     5.1426      7.808   271.9768 2.0766e+01     4.3230      1.147      1.664    14.3159 0.0000e+00
      1.174      0.015    10.3622    100.764     42.385  33.330845     5.0554      7.809   272.1036 2.0566e+01     4.3535      1.151      1.671    14.3151 0.0000e+00
      1.177      0.016    10.3459    100.729     42.393  33.337133     5.0457      7.810   272.2089 2.0401e+01     4.3685      1.154      1.674    14.3151 0.0000e+00
      1.181      0.017    10.3281    100.714     42.394  33.337662     5.0832      7.810   272.2174 2.0300e+01     4.2998      1.158      1.679    14.3154 0.0000e+00
      1.184      0.018    10.3178    100.694     42.394  33.337246     5.1852      7.811   272.2059 2.0305e+01     4.2749      1.161      1.683    14.3156 0.0000e+00
      1.189      0.019    10.3103    100.655     42.388  33.332104     5.2549      7.811   272.2423 2.0340e+01     4.3064      1.165      1.689    14.3156 0.0000e+00
      1.195      0.021    10.3079    100.627     42.396  33.338931     5.2767      7.811   272.3133 2.0354e+01     4.3392      1.172      1.700    14.3153 0.0000e+00
      1.202      0.024    10.3067    100.606     42.419  33.356348     5.3569      7.811   272.4622 2.0439e+01     4.2953      1.180      1.711    14.3151 0.0000e+00
      1.207      0.027    10.3066    100.558     42.414  33.352357     5.4999      7.811   272.5802 2.0591e+01     4.2198      1.184      1.716    14.3150 0.0000e+00
      1.212      0.029    10.2997    100.493     42.417  33.354124     5.5831      7.811   272.5357 2.0728e+01     4.2467      1.188      1.722    14.3150 0.0000e+00
      1.219      0.029    10.2971    100.442     42.447  33.377714     5.5972      7.811   272.4401 2.0757e+01     4.2438      1.195      1.733    14.3151 0.0000e+00
      1.229      0.028    10.2980    100.412     42.456  33.383802     5.5791      7.811   272.4563 2.0671e+01     4.1849      1.206      1.748    14.3147 0.0000e+00
      1.239      0.027    10.2912    100.377     42.431  33.364288     5.4631      7.811   272.5602 2.0592e+01     4.1838      1.217      1.765    14.3144 0.0000e+00
      1.246      0.026    10.2842    100.307     42.391  33.332104     5.2856      7.811   272.6630 2.0536e+01     4.2313      1.223      1.774    14.3138 0.0000e+00
      1.250      0.023    10.2779    100.196     42.366  33.311879     5.2061      7.811   272.7528 2.0449e+01     4.2806      1.226      1.778    14.3129 0.0000e+00
      1.255      0.019    10.2768    100.068     42.366  33.310083     5.2088      7.811   272.7853 2.0291e+01     4.2673      1.229      1.784    14.3125 0.0000e+00
      1.260      0.017    10.2742     99.967     42.369  33.310383     5.1436      7.811   272.7982 2.0091e+01     4.2070      1.235      1.792    14.3123 0.0000e+00
      1.265      0.015    10.2676     99.879     42.378  33.315517     5.0177      7.811   272.8227 1.9993e+01     4.1660      1.242      1.801    14.3120 0.0000e+00
      1.268      0.014    10.2558     99.764     42.372  33.308699     4.9601      7.811   272.8240 1.9971e+01     4.1815      1.243      1.803    14.3112 0.0000e+00
      1.271      0.012    10.2403     99.624     42.352  33.291387     4.9789      7.811   272.9004 1.9888e+01     4.2573      1.245      1.806    14.3089 0.0000e+00
      1.274      0.012    10.2311     99.489     42.359  33.296530     5.0706      7.811   273.0574 1.9837e+01     4.2971      1.249      1.813    14.3063 0.0000e+00
      1.276      0.012    10.2263     99.387     42.373  33.307441     5.2194      7.811   273.1737 1.9882e+01     4.2526      1.251      1.815    14.3041 0.0000e+00
      1.278      0.013    10.2126     99.307     42.359  33.296416     5.3047      7.811   273.1882 1.9895e+01     4.2329      1.253      1.817    14.3016 0.0000e+00
      1.282      0.015    10.1996     99.276     42.351  33.290119     5.3284      7.812   273.1474 1.9898e+01     4.2644      1.258      1.824    14.2994 0.0000e+00
      1.287      0.018    10.1824     99.291     42.356  33.294752     5.4389      7.812   273.1964 1.9965e+01     4.2912      1.262      1.832    14.2986 0.0000e+00
      1.291      0.021    10.1755     99.332     42.348  33.288984     5.6429      7.812   273.3493 2.0015e+01     4.2834      1.265      1.835    14.2985 0.0000e+00
      1.296      0.023    10.1645     99.405     42.343  33.283832     5.7474      7.812   273.4474 1.9966e+01     4.2389      1.270      1.842    14.2991 0.0000e+00
      1.303      0.025    10.1595     99.420     42.359  33.295895     5.7453      7.811   273.4368 1.9861e+01     4.2304      1.278      1.853    14.3001 0.0000e+00
      1.312      0.026    10.1672     99.406     42.375  33.307950     5.6755      7.811   273.4789 1.9763e+01     4.2498      1.286      1.866    14.3004 0.0000e+00
      1.319      0.026    10.1624     99.430     42.369  33.302702     5.5277      7.812   273.6122 1.9628e+01     4.2339      1.293      1.876    14.3003 0.0000e+00
      1.325      0.025    10.1830     99.466     42.361  33.295884     5.4310      7.812   273.6726 1.9449e+01     4.2085      1.300      1.885    14.2994 0.0000e+00
      1.331      0.023    10.1785     99.485     42.353  33.288958     5.4059      7.812   273.6925 1.9303e+01     4.1816      1.306      1.894    14.2983 0.0000e+00
      1.336      0.021    10.1737     99.476     42.345  33.282402     5.3982      7.812   273.7672 1.9179e+01     4.1819      1.310      1.900    14.2979 0.0000e+00
      1.341      0.020    10.1803     99.551     42.341  33.280052     5.3964      7.813   273.8011 1.9064e+01     4.2470      1.316      1.908    14.2975 0.0000e+00
      1.345      0.019    10.1822     99.728     42.316  33.260552     5.3835      7.813   273.7586 1.8955e+01     4.2857      1.320      1.914    14.2968 0.0000e+00
      1.350      0.019    10.1893     99.837     42.286  33.236953     5.3596      7.813   273.7686 1.8845e+01     4.2392      1.324      1.919    14.2963 0.0000e+00
      1.356      0.018    10.1804     99.856     42.301  33.248498     5.3405      7.813   273.8362 1.8765e+01     4.1983      1.330      1.928    14.2962 0.0000e+00
      1.361      0.017    10.1848     99.883     42.333  33.273245     5.4030      7.813   273.8880 1.8733e+01     4.2011      1.335      1.937    14.2958 0.0000e+00
      1.365      0.016    10.2155     99.897     42.345  33.282401     5.5407      7.812   274.0502 1.8740e+01     4.2391      1.338      1.941    14.2958 0.0000e+00
      1.370      0.015    10.2269     99.892     42.362  33.295766     5.6067      7.812   274.2487 1.8782e+01     4.2480      1.343      1.948    14.2962 0.0000e+00
      1.373      0.013    10.2188     99.881     42.377  33.307949     5.5932      7.812   274.3096 1.8832e+01     4.2052      1.347      1.954    14.2964 0.0000e+00
      1.374      0.008    10.2288     99.854     42.370  33.302816     5.5947      7.812   274.3570 1.8828e+01     4.2346      1.348      1.955    14.2963 0.0000e+00
      1.378      0.003    10.2276     99.843     42.363  33.297145     5.6246      7.812   274.3915 1.8734e+01     4.3303      1.351      1.959    14.2962 0.0000e+00
      1.381     -0.002    10.2267     99.847     42.369  33.302828     5.6555      7.812   274.4677 1.8611e+01     4.3708      1.357      1.967    14.2963 0.0000e+00
      1.380     -0.005    10.2274     99.820     42.375  33.308085     5.6673      7.812   274.5902 1.8599e+01     4.3140      1.355      1.965    14.2959 0.0000e+00
      1.373     -0.007    10.2221     99.788     42.360  33.297268     5.7249      7.813   274.5820 1.8725e+01     4.2934      1.346      1.952    14.2957 0.0000e+00
      1.367     -0.007    10.2203     99.786     42.363  33.298931     5.8537      7.813   274.5411 1.8851e+01     4.3607      1.339      1.941    14.2964 0.0000e+00
      1.365     -0.006    10.2240     99.756     42.400  33.328195     5.9347      7.812   274.5256 1.8926e+01     4.3758      1.338      1.940    14.2978 0.0000e+00
      1.366     -0.004    10.2202     99.733     42.407  33.333868     5.9300      7.812   274.5671 1.9039e+01     4.3394      1.340      1.943    14.2989 0.0000e+00
      1.368      0.000    10.2114     99.766     42.369  33.304081     5.7806      7.811   274.6979 1.9209e+01     4.2972      1.342      1.946    14.2990 0.0000e+00
      1.368      0.002    10.2191     99.789     42.344  33.285256     5.5091      7.811   274.7313 1.9379e+01     4.2404      1.343      1.947    14.2989 0.0000e+00
      1.367      0.002    10.2125     99.816     42.358  33.296591     5.3690      7.811   274.7119 1.9501e+01     4.2339      1.341      1.944    14.2990 0.0000e+00
      1.367      0.001    10.2048     99.842     42.380  33.314254     5.3774      7.812   274.8076 1.9564e+01     4.2868      1.340      1.943    14.2987 0.0000e+00
      1.368      0.001    10.2167     99.794     42.372  33.308481     5.3695      7.812   274.8561 1.9593e+01     4.2990      1.341      1.945    14.2988 0.0000e+00
      1.369      0.002    10.2151     99.729     42.349  33.290232     5.2480      7.812   274.8684 1.9601e+01     4.3140      1.343      1.947    14.2998 0.0000e+00
      1.370      0.005    10.2157     99.728     42.342  33.283945     5.0655      7.812   274.9559 1.9581e+01     4.4334      1.344      1.949    14.3005 0.0000e+00
      1.370      0.008    10.2269     99.748     42.358  33.295905     4.9856      7.812   275.0540 1.9546e+01     4.5466      1.343      1.948    14.3008 0.0000e+00
      1.370      0.013    10.2161     99.743     42.373  33.307951     4.9976      7.813   275.1948 1.9499e+01     4.5215      1.343      1.948    14.3016 0.0000e+00
      1.373      0.018    10.2051     99.753     42.366  33.302702     5.0938      7.813   275.2814 1.9390e+01     4.4366      1.345      1.952    14.3010 0.0000e+00
      1.378      0.025    10.2087     99.794     42.358  33.295884     5.2585      7.812   275.2409 1.9218e+01     4.4086      1.351      1.959    14.2998 0.0000e+00
      1.387      0.031    10.2132     99.828     42.351  33.288959     5.3419      7.812   275.2205 1.9078e+01     4.4221      1.361      1.973    14.2997 0.0000e+00
      1.397      0.035    10.2105     99.870     42.344  33.282412     5.3684      7.813   275.2934 1.8978e+01     4.4637      1.370      1.987    14.3000 0.0000e+00
      1.407      0.037    10.2084     99.893     42.342  33.280167     5.5129      7.813   275.3480 1.8821e+01     4.4682      1.377      1.998    14.3002 0.0000e+00
      1.419      0.037    10.2191     99.861     42.319  33.261809     5.7489      7.813   275.3637 1.8681e+01     4.4075      1.392      2.019    14.2997 0.0000e+00
      1.430      0.034    10.2177     99.816     42.305  33.250777     5.8664      7.813   275.3971 1.8640e+01     4.3788      1.404      2.037    14.2984 0.0000e+00
      1.438      0.030    10.2250     99.797     42.334  33.273677     5.8520      7.814   275.4939 1.8623e+01     4.4285      1.410      2.045    14.2970 0.0000e+00
      1.444      0.025    10.2308     99.816     42.349  33.284913     5.6750      7.814   275.5875 1.8646e+01     4.4625      1.417      2.056    14.2962 0.0000e+00
      1.449      0.021    10.2232     99.856     42.317  33.259739     5.3491      7.814   275.5828 1.8678e+01     4.3793      1.421      2.062    14.2954 0.0000e+00
      1.453      0.019    10.2191     99.896     42.270  33.223078     5.1573      7.813   275.6084 1.8684e+01     4.3107      1.424      2.066    14.2949 0.0000e+00
      1.457      0.019    10.2150     99.924     42.270  33.222313     5.1284      7.813   275.6391 1.8706e+01     4.3165      1.428      2.072    14.2951 0.0000e+00
      1.461      0.020    10.2193     99.954     42.305  33.250478     5.1087      7.814   275.6961 1.8670e+01     4.3121      1.433      2.077    14.2952 0.0000e+00
      1.466      0.021    10.2227     99.975     42.300  33.246413     5.0686      7.814   275.8680 1.8586e+01     4.2924      1.438      2.084    14.2951 0.0000e+00
      1.472      0.021    10.2294     99.963     42.288  33.236593     5.0342      7.815   275.9961 1.8508e+01     4.2487      1.444      2.093    14.2946 0.0000e+00
      1.479      0.021    10.2297     99.928     42.316  33.258635     5.0181      7.815   275.9546 1.8418e+01     4.2279      1.450      2.103    14.2943 0.0000e+00
      1.484      0.020    10.2339     99.862     42.316  33.259156     5.0143      7.814   275.8821 1.8323e+01     4.2464      1.457      2.113    14.2943 0.0000e+00
      1.489      0.019    10.2381     99.773     42.295  33.242895     5.0384      7.814   275.9808 1.8229e+01     4.3007      1.461      2.119    14.2945 0.0000e+00
      1.493      0.018    10.2345     99.714     42.306  33.252351     5.0850      7.815   276.1158 1.8217e+01     4.4065      1.465      2.125    14.2947 0.0000e+00
      1.497      0.017    10.2324     99.695     42.299  33.246598     5.1037      7.815   276.2237 1.8267e+01     4.4326      1.468      2.129    14.2950 0.0000e+00
      1.501      0.017    10.2256     99.673     42.285  33.236780     5.0896      7.815   276.4245 1.8245e+01     4.3773      1.472      2.134    14.2952 0.0000e+00
      1.505      0.019    10.2136     99.655     42.315  33.260526     5.1386      7.815   276.5647 1.8215e+01     4.3525      1.476      2.141    14.2956 0.0000e+00
      1.509      0.024    10.2059     99.651     42.339  33.279937     5.2554      7.815   276.4566 1.8280e+01     4.3385      1.481      2.146    14.2962 0.0000e+00
      1.514      0.030    10.2083     99.671     42.340  33.281144     5.3124      7.815   276.3211 1.8316e+01     4.2750      1.483      2.151    14.2969 0.0000e+00
      1.522      0.036    10.2034     99.713     42.333  33.275127     5.2943      7.815   276.3040 1.8286e+01     4.2001      1.491      2.163    14.2978 0.0000e+00
      1.533      0.039    10.2016     99.733     42.329  33.270622     5.2281      7.817   276.3355 1.8239e+01     4.2183      1.502      2.178    14.2981 0.0000e+00
      1.546      0.039    10.2014     99.753     42.354  33.290119     5.1358      7.818   276.5301 1.8040e+01     4.2906      1.515      2.197    14.2984 0.0000e+00
      1.561      0.035    10.2010     99.771     42.393  33.320534     5.0939      7.817   276.6773 1.7779e+01     4.3231      1.533      2.223    14.2989 0.0000e+00
      1.572      0.029    10.2110     99.768     42.393  33.321159     5.0795      7.817   276.6528 1.7657e+01     4.3035      1.544      2.240    14.2989 0.0000e+00
      1.577      0.022    10.2095     99.788     42.363  33.297664     5.0289      7.816   276.6637 1.7643e+01     4.3607      1.547      2.244    14.2977 0.0000e+00
      1.577      0.016    10.2118     99.823     42.354  33.290232     4.9565      7.815   276.7235 1.7658e+01     4.5026      1.547      2.243    14.2965 0.0000e+00
      1.577      0.011    10.2175     99.852     42.360  33.294752     4.9115      7.816   276.7732 1.7630e+01     4.5843      1.545      2.241    14.2964 0.0000e+00
      1.578      0.011    10.2113     99.874     42.352  33.288872     4.9174      7.816   276.7484 1.7550e+01     4.5978      1.546      2.243    14.2969 0.0000e+00
      1.582      0.014    10.2158     99.885     42.344  33.282573     4.9699      7.816   276.7681 1.7499e+01     4.5293      1.551      2.250    14.2973 0.0000e+00
      1.587      0.016    10.2204     99.894     42.343  33.282038     5.0380      7.816   276.9251 1.7453e+01     4.4733      1.555      2.256    14.2971 0.0000e+00
      1.592      0.016    10.2225     99.883     42.344  33.282402     5.0836      7.816   277.0120 1.7346e+01     4.5343      1.561      2.262    14.2969 0.0000e+00
      1.598      0.015    10.2260     99.850     42.350  33.286973     5.1047      7.815   276.9585 1.7293e+01     4.5846      1.568      2.274    14.2970 0.0000e+00
      1.603      0.012    10.2252     99.835     42.334  33.273865     5.1021      7.815   276.8813 1.7378e+01     4.5347      1.573      2.282    14.2970 0.0000e+00
      1.605      0.010    10.2279     99.839     42.305  33.250796     5.0768      7.817   276.8525 1.7518e+01     4.4096      1.575      2.284    14.2968 0.0000e+00
      1.605      0.010    10.2277     99.814     42.320  33.261811     5.0658      7.817   276.8686 1.7664e+01     4.3015      1.574      2.283    14.2963 0.0000e+00
      1.605      0.011    10.2213     99.757     42.343  33.280165     5.0843      7.817   276.9032 1.7787e+01     4.2868      1.574      2.283    14.2958 0.0000e+00
      1.606      0.014    10.2199     99.717     42.346  33.282387     5.0925      7.816   277.0128 1.7830e+01     4.2650      1.575      2.284    14.2954 0.0000e+00
      1.610      0.019    10.2235     99.695     42.356  33.288673     5.0653      7.816   277.1623 1.7746e+01     4.1745      1.578      2.288    14.2946 0.0000e+00
      1.617      0.023    10.2215     99.695     42.362  33.292723     5.0305      7.816   277.2468 1.7569e+01     4.1160      1.586      2.300    14.2944 0.0000e+00
      1.626      0.025    10.2116     99.727     42.331  33.267910     5.0211      7.816   277.2604 1.7427e+01     4.1725      1.596      2.314    14.2947 0.0000e+00
      1.635      0.026    10.2088     99.687     42.298  33.242439     5.0267      7.817   277.2407 1.7325e+01     4.2769      1.603      2.325    14.2942 0.0000e+00
      1.642      0.026    10.2081     99.552     42.293  33.238526     4.9982      7.817   277.2671 1.7221e+01     4.2511      1.610      2.335    14.2931 0.0000e+00
      1.647      0.025    10.2037     99.466     42.270  33.220599     4.9355      7.817   277.3220 1.7131e+01     4.1340      1.616      2.344    14.2916 0.0000e+00
      1.652      0.023    10.2150     99.526     42.263  33.216017     4.9010      7.818   277.3025 1.7024e+01     4.1246      1.621      2.350    14.2910 0.0000e+00
      1.658      0.021    10.2130     99.648     42.301  33.246569     4.9049      7.818   277.2885 1.6910e+01     4.2053      1.626      2.358    14.2916 0.0000e+00
      1.664      0.019    10.1900     99.691     42.334  33.272782     4.9169      7.818   277.3252 1.6835e+01     4.2563      1.632      2.368    14.2925 0.0000e+00
      1.669      0.017    10.1774     99.714     42.343  33.279179     4.9129      7.819   277.4027 1.6802e+01     4.2294      1.638      2.375    14.2928 0.0000e+00
      1.673      0.016    10.1860     99.797     42.319  33.260474     4.8974      7.819   277.5365 1.6813e+01     4.1525      1.641      2.380    14.2930 0.0000e+00
      1.675      0.016    10.2095     99.886     42.289  33.236945     4.8962      7.819   277.5668 1.6821e+01     4.1122      1.643      2.383    14.2933 0.0000e+00
      1.678      0.017    10.2075     99.958     42.304  33.248472     4.9156      7.818   277.5108 1.6788e+01     4.1513      1.645      2.386    14.2938 0.0000e+00
      1.683      0.019    10.2041    100.008     42.335  33.272960     4.9400      7.818   277.4605 1.6735e+01     4.2506      1.649      2.392    14.2940 0.0000e+00
      1.689      0.021    10.2196    100.030     42.343  33.279257     4.9326      7.819   277.4759 1.6676e+01     4.3217      1.656      2.402    14.2938 0.0000e+00
      1.695      0.021    10.2269    100.054     42.320  33.261171     4.9013      7.821   277.6114 1.6605e+01     4.2943      1.661      2.411    14.2937 0.0000e+00
      1.701      0.021    10.2348    100.079     42.299  33.244611     4.8864      7.821   277.7210 1.6490e+01     4.2264      1.667      2.418    14.2941 0.0000e+00
      1.707      0.021    10.2412    100.069     42.330  33.269355     4.8864      7.820   277.7695 1.6412e+01     4.2182      1.675      2.430    14.2946 0.0000e+00
      1.712      0.020    10.2406    100.028     42.378  33.306583     4.8760      7.820   277.7667 1.6450e+01     4.2635      1.680      2.436    14.2944 0.0000e+00
      1.715      0.020    10.2437     99.979     42.388  33.314067     4.8516      7.819   277.7734 1.6450e+01     4.2607      1.680      2.437    14.2941 0.0000e+00
      1.719      0.019    10.2481     99.905     42.366  33.296401     4.8332      7.819   277.8507 1.6335e+01     4.2190      1.685      2.444    14.2940 0.0000e+00
      1.725      0.018    10.2473     99.810     42.349  33.283311     4.8282      7.819   277.9272 1.6231e+01     4.2371      1.693      2.455    14.2939 0.0000e+00
      1.731      0.016    10.2404     99.694     42.349  33.282687     4.8249      7.820   277.9232 1.6164e+01     4.2757      1.698      2.463    14.2936 0.0000e+00
      1.736      0.013    10.2383     99.532     42.357  33.288857     4.8176      7.820   277.8889 1.6119e+01     4.2752      1.703      2.470    14.2933 0.0000e+00
      1.740      0.010    10.2298     99.404     42.363  33.294458     4.8062      7.821   277.9430 1.6194e+01     4.2657      1.708      2.478    14.2931 0.0000e+00
      1.740      0.008    10.2185     99.347     42.353  33.286972     4.7873      7.821   277.9751 1.6339e+01     4.2627      1.707      2.477    14.2928 0.0000e+00
      1.740      0.007    10.2117     99.265     42.321  33.261790     4.7800      7.821   277.9324 1.6413e+01     4.2735      1.705      2.472    14.2926 0.0000e+00
      1.740      0.008    10.1893     99.202     42.297  33.243758     4.7933      7.821   277.9430 1.6442e+01     4.2935      1.706      2.474    14.2926 0.0000e+00
      1.742      0.010    10.1722     99.289     42.316  33.259279     4.7980      7.821   278.0175 1.6435e+01     4.2999      1.708      2.477    14.2928 0.0000e+00
      1.746      0.013    10.1749     99.419     42.315  33.259118     4.7871      7.821   278.0583 1.6396e+01     4.3160      1.712      2.483    14.2933 0.0000e+00
      1.751      0.016    10.1657     99.489     42.293  33.241815     4.7867      7.821   278.0929 1.6402e+01     4.3862      1.719      2.493    14.2939 0.0000e+00
      1.755      0.018    10.1452     99.469     42.291  33.240397     4.8011      7.821   278.1771 1.6412e+01     4.4657      1.722      2.498    14.2947 0.0000e+00
      1.759      0.021    10.1663     99.354     42.293  33.241978     4.8113      7.822   278.2152 1.6376e+01     4.4915      1.725      2.502    14.2955 0.0000e+00
      1.764      0.025    10.1816     99.299     42.317  33.260932     4.7940      7.822   278.2096 1.6325e+01     4.3900      1.729      2.509    14.2958 0.0000e+00
      1.770      0.030    10.1867     99.380     42.340  33.279236     4.7581      7.822   278.1963 1.6230e+01     4.2636      1.735      2.516    14.2961 0.0000e+00
      1.778      0.034    10.1915     99.481     42.332  33.272957     4.7440      7.823   278.1404 1.6023e+01     4.2616      1.742      2.527    14.2962 0.0000e+00
      1.789      0.034    10.1673     99.518     42.301  33.248457     4.7481      7.823   278.1364 1.5722e+01     4.2637      1.753      2.543    14.2961 0.0000e+00
      1.802      0.031    10.1596     99.550     42.286  33.236780     4.7411      7.822   278.2337 1.5433e+01     4.2548      1.768      2.564    14.2962 0.0000e+00
      1.813      0.026    10.1737     99.612     42.314  33.258655     4.7006      7.822   278.3700 1.5253e+01     4.2563      1.779      2.581    14.2962 0.0000e+00
      1.820      0.021    10.1900     99.673     42.316  33.259175     4.6500      7.823   278.4941 1.5237e+01     4.2477      1.785      2.591    14.2965 0.0000e+00
      1.821      0.019    10.1873     99.741     42.297  33.243069     4.6365      7.823   278.5300 1.5359e+01     4.2875      1.787      2.592    14.2966 0.0000e+00
      1.819      0.019    10.1902     99.823     42.312  33.254240     4.6461      7.822   278.4586 1.5483e+01     4.3284      1.783      2.586    14.2964 0.0000e+00
      1.819      0.021    10.1988     99.817     42.328  33.267363     4.6660      7.822   278.4058 1.5415e+01     4.2977      1.780      2.582    14.2959 0.0000e+00
      1.826      0.024    10.2053     99.747     42.338  33.274848     4.7027      7.822   278.4073 1.5082e+01     4.2227      1.788      2.591    14.2948 0.0000e+00
      1.839      0.028    10.2093     99.810     42.346  33.281300     4.7315      7.823   278.3918 1.4704e+01     4.2422      1.805      2.618    14.2935 0.0000e+00
      1.852      0.029    10.2235     99.870     42.348  33.281922     4.7399      7.824   278.4759 1.4517e+01     4.3280      1.819      2.638    14.2936 0.0000e+00
      1.859      0.029    10.2285     99.815     42.349  33.282376     4.7202      7.824   278.6495 1.4460e+01     4.3036      1.824      2.645    14.2936 0.0000e+00
      1.863      0.026    10.1991     99.806     42.354  33.286787     4.6766      7.824   278.6847 1.4411e+01     4.2210      1.827      2.650    14.2934 0.0000e+00
      1.868      0.022    10.2209     99.838     42.335  33.271806     4.6542      7.824   278.6433 1.4356e+01     4.2180      1.831      2.656    14.2931 0.0000e+00
      1.873      0.021    10.2359     99.880     42.280  33.228129     4.6662      7.823   278.6654 1.4303e+01     4.2673      1.837      2.664    14.2928 0.0000e+00
      1.879      0.021    10.2116     99.951     42.249  33.202801     4.6635      7.823   278.6939 1.4245e+01     4.3045      1.842      2.672    14.2926 0.0000e+00
      1.884      0.021    10.2198    100.015     42.272  33.219336     4.6126      7.824   278.7294 1.4168e+01     4.2918      1.847      2.679    14.2926 0.0000e+00
      1.889      0.021    10.2224    100.063     42.298  33.237716     4.5587      7.824   278.7506 1.4069e+01     4.2149      1.852      2.686    14.2923 0.0000e+00
      1.895      0.020    10.2238    100.118     42.297  33.234709     4.5447      7.824   278.7779 1.3961e+01     4.1604      1.858      2.695    14.2916 0.0000e+00
      1.901      0.018    10.2356    100.164     42.313  33.246414     4.5588      7.824   278.8871 1.3887e+01     4.2149      1.865      2.705    14.2915 0.0000e+00
      1.906      0.018    10.2416    100.178     42.320  33.252352     4.5805      7.824   278.9525 1.3866e+01     4.3269      1.870      2.711    14.2897 0.0000e+00
      1.908      0.019    10.2461    100.157     42.307  33.243067     4.5825      7.825   278.9661 1.3863e+01     4.3189      1.871      2.714    14.2856 0.0000e+00
      1.911      0.021    10.2532    100.114     42.329  33.261032     4.5662      7.826   278.9662 1.3829e+01     4.2204      1.873      2.717    14.2832 0.0000e+00
      1.915      0.025    10.2595    100.095     42.352  33.279230     4.5576      7.826   278.8673 1.3683e+01     4.1946      1.876      2.722    14.2830 0.0000e+00
      1.923      0.030    10.2599    100.109     42.343  33.272772     4.5616      7.826   278.8033 1.3448e+01     4.2118      1.885      2.734    14.2835 0.0000e+00
      1.933      0.034    10.2586    100.114     42.310  33.246398     4.5728      7.826   278.8813 1.3236e+01     4.2579      1.895      2.749    14.2844 0.0000e+00
      1.943      0.037    10.2504    100.088     42.271  33.214114     4.5778      7.826   279.0358 1.3006e+01     4.3082      1.903      2.761    14.2850 0.0000e+00
      1.955      0.037    10.2482    100.043     42.254  33.199646     4.5709      7.827   279.1220 1.2761e+01     4.2729      1.917      2.781    14.2862 0.0000e+00
      1.966      0.037    10.2517     99.997     42.254  33.198345     4.5479      7.827   279.0633 1.2580e+01     4.2409      1.929      2.798    14.2876 0.0000e+00
      1.974      0.036    10.2534     99.943     42.256  33.198382     4.5079      7.827   279.0142 1.2439e+01     4.2981      1.935      2.807    14.2862 0.0000e+00
      1.980      0.033    10.2507     99.873     42.261  33.200087     4.4785      7.827   279.0447 1.2304e+01     4.3487      1.942      2.816    14.2834 0.0000e+00
      1.989      0.030    10.2453     99.803     42.287  33.218962     4.4586      7.827   279.0872 1.2152e+01     4.3067      1.949      2.827    14.2813 0.0000e+00
      1.999      0.028    10.2415     99.765     42.310  33.236276     4.4513      7.827   279.0989 1.1993e+01     4.2680      1.960      2.843    14.2806 0.0000e+00
      2.007      0.026    10.2369     99.743     42.287  33.219091     4.4813      7.827   279.0999 1.1897e+01     4.3253      1.970      2.857    14.2795 0.0000e+00
      2.012      0.026    10.2296     99.706     42.264  33.201515     4.5138      7.828   279.0993 1.1871e+01     4.3506      1.974      2.862    14.2764 0.0000e+00
      2.016      0.026    10.2210     99.677     42.281  33.214100     4.5268      7.829   279.0913 1.1811e+01     4.3001      1.975      2.864    14.2743 0.0000e+00
      2.021      0.029    10.2178     99.672     42.321  33.244369     4.5468      7.829   279.0896 1.1662e+01     4.2621      1.981      2.873    14.2737 0.0000e+00
      2.028      0.034    10.2184     99.698     42.331  33.250279     4.5559      7.829   279.0776 1.1493e+01     4.2667      1.989      2.885    14.2742 0.0000e+00
      2.037      0.041    10.2116     99.744     42.298  33.222107     4.5543      7.829   279.1191 1.1324e+01     4.3215      1.998      2.897    14.2755 0.0000e+00
      2.047      0.046    10.2086     99.746     42.300  33.220954     4.5686      7.829   279.2466 1.1114e+01     4.3442      2.008      2.912    14.2759 0.0000e+00
      2.061      0.049    10.2087     99.676     42.321  33.236333     4.5461      7.830   279.3287 1.0800e+01     4.2682      2.019      2.927    14.2732 0.0000e+00
      2.079      0.050    10.2110     99.567     42.299  33.217713     4.4816      7.831   279.3373 1.0441e+01     4.1874      2.039      2.957    14.2701 0.0000e+00
      2.095      0.049    10.2204     99.417     42.260  33.186150     4.4467      7.831   279.3503 1.0236e+01     4.1877      2.058      2.984    14.2680 0.0000e+00
      2.106      0.046    10.2223     99.211     42.243  33.171925     4.4493      7.831   279.3143 1.0104e+01     4.2376      2.065      2.994    14.2648 0.0000e+00
      2.115      0.043    10.2131     99.002     42.245  33.172601     4.4539      7.832   279.2466 9.9437e+00     4.2437      2.075      3.008    14.2632 0.0000e+00
      2.124      0.042    10.2016     98.800     42.274  33.194332     4.4189      7.832   279.3063 9.8142e+00     4.1937      2.085      3.023    14.2628 0.0000e+00
      2.133      0.044    10.1906     98.601     42.339  33.244332     4.3676      7.832   279.4333 9.6606e+00     4.2137      2.091      3.032    14.2608 0.0000e+00
      2.143      0.046    10.1636     98.448     42.373  33.269604     4.3501      7.832   279.4927 9.4731e+00     4.3147      2.101      3.047    14.2591 0.0000e+00
      2.156      0.046    10.1442     98.345     42.346  33.246115     4.3564      7.832   279.5932 9.2573e+00     4.3553      2.113      3.066    14.2580 0.0000e+00
      2.171      0.042    10.1248     98.252     42.306  33.214109     4.3614      7.832   279.7028 8.9953e+00     4.2949      2.128      3.087    14.2568 0.0000e+00
      2.187      0.037    10.1008     98.127     42.286  33.199829     4.3524      7.832   279.6992 8.7910e+00     4.2325      2.146      3.114    14.2561 0.0000e+00
      2.198      0.031    10.0865     97.950     42.286  33.200352     4.3476      7.832   279.7218 8.7290e+00     4.2849      2.158      3.130    14.2543 0.0000e+00
      2.201      0.024    10.0774     97.717     42.311  33.220422     4.3615      7.832   279.8038 8.7441e+00     4.3827      2.159      3.131    14.2522 0.0000e+00
      2.201      0.019    10.0708     97.447     42.351  33.252169     4.3788      7.832   279.8300 8.7279e+00     4.3902      2.157      3.129    14.2510 0.0000e+00
      2.203      0.017    10.0575     97.192     42.371  33.266992     4.3733      7.833   279.7804 8.6534e+00     4.3408      2.160      3.132    14.2516 0.0000e+00
      2.208      0.018    10.0398     97.001     42.380  33.272761     4.3536      7.833   279.8061 8.5786e+00     4.2973      2.165      3.140    14.2535 0.0000e+00
      2.213      0.021    10.0150     96.867     42.363  33.258472     4.3573      7.832   279.8832 8.5167e+00     4.3088      2.171      3.148    14.2545 0.0000e+00
      2.219      0.024     9.9851     96.762     42.316  33.221113     4.3842      7.832   279.8519 8.4192e+00     4.3437      2.175      3.154    14.2542 0.0000e+00
      2.226      0.025     9.9570     96.685     42.291  33.201705     4.4047      7.832   279.8581 8.2979e+00     4.3094      2.183      3.166    14.2531 0.0000e+00
      2.235      0.025     9.9382     96.635     42.307  33.214136     4.4046      7.833   279.9586 8.1846e+00     4.2356      2.193      3.181    14.2519 0.0000e+00
      2.242      0.025     9.9265     96.590     42.346  33.244532     4.3993      7.835   280.0334 8.0904e+00     4.2029      2.200      3.191    14.2510 0.0000e+00
      2.247      0.024     9.9154     96.547     42.356  33.252015     4.4082      7.835   280.0750 8.0296e+00     4.2558      2.204      3.196    14.2503 0.0000e+00
      2.252      0.023     9.9071     96.521     42.343  33.241170     4.4210      7.834   280.1180 7.9677e+00     4.3288      2.207      3.201    14.2499 0.0000e+00
      2.258      0.022     9.9036     96.504     42.342  33.240289     4.4208      7.834   280.1229 7.8797e+00     4.2989      2.214      3.210    14.2498 0.0000e+00
      2.264      0.022     9.8992     96.494     42.344  33.241356     4.4137      7.834   280.0483 7.7861e+00     4.2022      2.220      3.220    14.2500 0.0000e+00
      2.271      0.022     9.8935     96.529     42.361  33.254073     4.4017      7.834   279.9897 7.7045e+00     4.1492      2.227      3.230    14.2496 0.0000e+00
      2.276      0.022     9.8914     96.594     42.379  33.267167     4.3752      7.835   280.1032 7.6425e+00     4.1715      2.232      3.237    14.2491 0.0000e+00
      2.281      0.021     9.8916     96.652     42.387  33.272778     4.3428      7.835   280.3012 7.5818e+00     4.2324      2.236      3.243    14.2484 0.0000e+00
      2.286      0.020     9.8866     96.699     42.369  33.258473     4.3184      7.835   280.4045 7.5290e+00     4.2706      2.243      3.253    14.2477 0.0000e+00
      2.291      0.020     9.8920     96.698     42.322  33.221097     4.3054      7.834   280.4064 7.4706e+00     4.2580      2.246      3.258    14.2471 0.0000e+00
      2.296      0.021     9.9017     96.647     42.297  33.201532     4.3189      7.835   280.3241 7.3985e+00     4.2504      2.251      3.264    14.2464 0.0000e+00
      2.301      0.022     9.9048     96.587     42.312  33.212233     4.3561      7.835   280.2700 7.3536e+00     4.3153      2.257      3.274    14.2457 0.0000e+00
      2.306      0.024     9.9141     96.538     42.327  33.223598     4.3804      7.834   280.3540 7.2786e+00     4.3592      2.260      3.277    14.2452 0.0000e+00
      2.312      0.026     9.9128     96.481     42.313  33.212062     4.3722      7.833   280.3935 7.1417e+00     4.3034      2.266      3.287    14.2449 0.0000e+00
      2.320      0.026     9.9061     96.405     42.298  33.199633     4.3647      7.833   280.3170 7.0206e+00     4.2558      2.276      3.301    14.2444 0.0000e+00
      2.328      0.025     9.8989     96.333     42.298  33.200207     4.3893      7.835   280.3760 6.9256e+00     4.2956      2.283      3.310    14.2437 0.0000e+00
      2.335      0.024     9.8951     96.262     42.322  33.218992     4.4201      7.836   280.5919 6.8550e+00     4.3071      2.291      3.324    14.2432 0.0000e+00
      2.340      0.023     9.8911     96.208     42.345  33.236442     4.4377      7.835   280.7760 6.8114e+00     4.2571      2.296      3.330    14.2423 0.0000e+00
      2.344      0.020     9.8802     96.189     42.325  33.220855     4.4275      7.835   280.8804 6.7551e+00     4.2379      2.298      3.333    14.2420 0.0000e+00
      2.349      0.017     9.8751     96.194     42.325  33.220870     4.3876      7.834   280.9081 6.6915e+00     4.2457      2.304      3.342    14.2423 0.0000e+00
      2.354      0.014     9.8661     96.201     42.345  33.236624     4.3635      7.834   280.8525 6.6399e+00     4.2832      2.310      3.349    14.2421 0.0000e+00
      2.359      0.012     9.8597     96.200     42.325  33.221001     4.3601      7.834   280.8100 6.6044e+00     4.2821      2.313      3.357    14.2418 0.0000e+00
      2.362      0.009     9.8589     96.186     42.327  33.222302     4.3385      7.834   280.8246 6.5860e+00     4.1983      2.316      3.360    14.2414 0.0000e+00
      2.363      0.008     9.8600     96.177     42.365  33.252357     4.3021      7.834   280.8575 6.5777e+00     4.1579      2.317      3.360    14.2413 0.0000e+00
      2.363      0.008     9.8614     96.183     42.383  33.267182     4.2868      7.834   280.9499 6.5752e+00     4.2373      2.317      3.360    14.2416 0.0000e+00
      2.364      0.009     9.8612     96.180     42.393  33.274662     4.2946      7.834   280.9957 6.5651e+00     4.3380      2.318      3.361    14.2417 0.0000e+00
      2.365      0.012     9.8594     96.168     42.398  33.279342     4.3055      7.835   280.9804 6.5401e+00     4.3173      2.319      3.364    14.2415 0.0000e+00
      2.369      0.017     9.8568     96.152     42.373  33.260324     4.3178      7.835   281.0225 6.4861e+00     4.2255      2.321      3.367    14.2417 0.0000e+00
      2.374      0.021     9.8600     96.109     42.341  33.235051     4.3353      7.835   281.0745 6.4068e+00     4.1840      2.328      3.377    14.2422 0.0000e+00
      2.381      0.023     9.8589     96.059     42.332  33.227545     4.3419      7.835   281.0930 6.3312e+00     4.2260      2.335      3.388    14.2421 0.0000e+00
      2.389      0.023     9.8566     96.026     42.340  33.233015     4.3486      7.835   281.0740 6.2394e+00     4.3231      2.342      3.398    14.2422 0.0000e+00
      2.397      0.022     9.8577     96.021     42.347  33.237737     4.3661      7.836   281.1034 6.1538e+00     4.3337      2.351      3.411    14.2429 0.0000e+00
      2.402      0.021     9.8508     96.041     42.326  33.221198     4.3622      7.836   281.1905 6.1180e+00     4.2516      2.356      3.417    14.2434 0.0000e+00
      2.405      0.019     9.8451     96.065     42.329  33.223380     4.3515      7.836   281.2663 6.0960e+00     4.2532      2.358      3.420    14.2430 0.0000e+00
      2.409      0.017     9.8421     96.089     42.381  33.264115     4.3619      7.835   281.3321 6.0596e+00     4.3183      2.363      3.427    14.2421 0.0000e+00
      2.413      0.017     9.8409     96.116     42.389  33.269622     4.3706      7.835   281.3833 6.0074e+00     4.3223      2.366      3.432    14.2411 0.0000e+00
      2.417      0.017     9.8451     96.114     42.334  33.226518     4.3652      7.835   281.4554 5.9540e+00     4.2663      2.370      3.438    14.2408 0.0000e+00
      2.422      0.018     9.8473     96.074     42.284  33.187050     4.3555      7.836   281.5157 5.9042e+00     4.1886      2.376      3.446    14.2409 0.0000e+00
      2.427      0.018     9.8487     96.033     42.267  33.173071     4.3613      7.837   281.5099 5.8608e+00     4.1682      2.380      3.452    14.2406 0.0000e+00
      2.431      0.019     9.8536     95.986     42.282  33.184384     4.3849      7.837   281.4711 5.8264e+00     4.2249      2.383      3.458    14.2403 0.0000e+00
      2.435      0.020     9.8547     95.912     42.298  33.196948     4.3989      7.837   281.4771 5.7792e+00     4.2929      2.388      3.463    14.2398 0.0000e+00
      2.441      0.020     9.8474     95.849     42.301  33.198091     4.3895      7.837   281.4960 5.7246e+00     4.3079      2.394      3.472    14.2392 0.0000e+00
      2.446      0.020     9.8441     95.828     42.302  33.198211     4.3710      7.837   281.4423 5.6658e+00     4.2693      2.398      3.479    14.2388 0.0000e+00
      2.452      0.020     9.8415     95.831     42.302  33.198395     4.3756      7.837   281.4301 5.6178e+00     4.2703      2.405      3.488    14.2387 0.0000e+00
      2.457      0.020     9.8314     95.841     42.305  33.200320     4.3946      7.837   281.5200 5.5766e+00     4.2862      2.411      3.495    14.2383 0.0000e+00
      2.462      0.019     9.8233     95.856     42.332  33.221484     4.3848      7.838   281.6687 5.5166e+00     4.2557      2.415      3.501    14.2374 0.0000e+00
      2.466      0.018     9.8229     95.868     42.386  33.263954     4.3567      7.838   281.7659 5.4603e+00     4.2092      2.420      3.510    14.2365 0.0000e+00
      2.470      0.016     9.8242     95.892     42.394  33.269724     4.3384      7.838   281.7487 5.4041e+00     4.2022      2.422      3.513    14.2359 0.0000e+00
      2.475      0.014     9.8245     95.928     42.341  33.227794     4.3380      7.838   281.8050 5.3417e+00     4.2400      2.426      3.519    14.2358 0.0000e+00
      2.479      0.014     9.8271     95.938     42.307  33.201087     4.3602      7.838   281.9305 5.3003e+00     4.2903      2.432      3.528    14.2360 0.0000e+00
      2.482      0.013     9.8278     95.930     42.306  33.200582     4.3738      7.838   281.9746 5.2894e+00     4.2975      2.434      3.531    14.2357 0.0000e+00
      2.484      0.012     9.8289     95.923     42.333  33.221693     4.3684      7.837   281.9941 5.2828e+00     4.2244      2.435      3.533    14.2350 0.0000e+00
      2.487      0.012     9.8364     95.909     42.389  33.266015     4.3954      7.837   281.9943 5.2513e+00     4.1919      2.438      3.537    14.2348 0.0000e+00
      2.491      0.013     9.8359     95.899     42.423  33.292374     4.4684      7.837   281.8912 5.2198e+00     4.2474      2.442      3.543    14.2353 0.0000e+00
      2.494      0.015     9.8332     95.867     42.416  33.286622     4.5267      7.838   281.7802 5.2048e+00     4.3142      2.445      3.547    14.2355 0.0000e+00
      2.497      0.019     9.8355     95.820     42.382  33.259905     4.5332      7.838   281.8571 5.1751e+00     4.3505      2.449      3.551    14.2355 0.0000e+00
      2.501      0.023     9.8302     95.782     42.337  33.223117     4.5390      7.838   282.0459 5.1235e+00     4.3444      2.452      3.555    14.2358 0.0000e+00
      2.506      0.026     9.8333     95.764     42.337  33.222478     4.5888      7.839   282.0841 5.0255e+00     4.3429      2.456      3.561    14.2357 0.0000e+00
      2.516      0.027     9.8285     95.749     42.377  33.252188     4.6358      7.840   282.0612 4.8975e+00     4.3325      2.468      3.579    14.2349 0.0000e+00
      2.527      0.026     9.8225     95.671     42.394  33.265115     4.6409      7.840   282.1133 4.8082e+00     4.3215      2.480      3.596    14.2344 0.0000e+00
      2.535      0.025     9.8198     95.577     42.377  33.251889     4.6004      7.839   282.1120 4.7542e+00     4.3455      2.487      3.605    14.2335 0.0000e+00
      2.540      0.022     9.8153     95.522     42.335  33.219152     4.5371      7.839   282.1319 4.7257e+00     4.3509      2.492      3.614    14.2316 0.0000e+00
      2.543      0.018     9.8225     95.502     42.293  33.186512     4.5088      7.840   282.2675 4.7011e+00     4.3521      2.494      3.617    14.2307 0.0000e+00
      2.546      0.016     9.8083     95.493     42.278  33.174457     4.5079      7.841   282.2888 4.6631e+00     4.3247      2.497      3.621    14.2302 0.0000e+00
      2.549      0.014     9.7973     95.486     42.311  33.200281     4.5018      7.841   282.1311 4.6077e+00     4.1907      2.500      3.626    14.2303 0.0000e+00
      2.553      0.014     9.7924     95.489     42.368  33.244978     4.4930      7.841   282.0814 4.5354e+00     4.0305      2.504      3.631    14.2308 0.0000e+00
      2.557      0.014     9.7908     95.497     42.401  33.270779     4.4927      7.841   282.2039 4.4918e+00     3.9933      2.508      3.638    14.2306 0.0000e+00
      2.561      0.014     9.7917     95.510     42.385  33.258464     4.5066      7.841   282.3214 4.4757e+00     4.0485      2.511      3.643    14.2301 0.0000e+00
      2.564      0.013     9.7885     95.523     42.340  33.222971     4.5116      7.841   282.3841 4.4597e+00     4.0150      2.514      3.646    14.2299 0.0000e+00
      2.567      0.011     9.7912     95.529     42.340  33.222297     4.4774      7.841   282.4465 4.4372e+00     3.9305      2.516      3.649    14.2299 0.0000e+00
      2.570      0.008     9.7901     95.523     42.375  33.250317     4.4267      7.842   282.5592 4.4094e+00     3.9484      2.521      3.656    14.2299 0.0000e+00
      2.573      0.007     9.7930     95.529     42.368  33.244536     4.4067      7.842   282.6277 4.3939e+00     4.0601      2.524      3.661    14.2298 0.0000e+00
      2.574      0.007     9.7936     95.567     42.332  33.215841     4.4094      7.842   282.5865 4.3854e+00     4.1542      2.524      3.661    14.2295 0.0000e+00
      2.574      0.008     9.7957     95.611     42.338  33.220591     4.3674      7.841   282.5765 4.3820e+00     4.1981      2.524      3.661    14.2293 0.0000e+00
      2.574      0.011     9.7937     95.629     42.361  33.238517     4.2740      7.842   282.5932 4.3832e+00     4.2499      2.523      3.660    14.2291 0.0000e+00
      2.575      0.014     9.7926     95.622     42.366  33.242260     4.2285      7.842   282.6162 4.3540e+00     4.3022      2.523      3.660    14.2293 0.0000e+00
      2.581      0.016     9.7983     95.608     42.397  33.265844     4.2423      7.842   282.6836 4.2858e+00     4.3516      2.529      3.669    14.2298 0.0000e+00
      2.590      0.018     9.8040     95.591     42.403  33.269896     4.2666      7.842   282.7188 4.2191e+00     4.3686      2.540      3.684    14.2298 0.0000e+00
      2.597      0.019     9.8063     95.569     42.351  33.227809     4.2887      7.842   282.6981 4.1886e+00     4.3380      2.548      3.697    14.2294 0.0000e+00
      2.600      0.019     9.8035     95.542     42.316  33.201077     4.2853      7.842   282.6906 4.1857e+00     4.2884      2.550      3.699    14.2288 0.0000e+00
      2.602      0.017     9.8035     95.529     42.315  33.200453     4.2831      7.842   282.7149 4.1685e+00     4.2816      2.550      3.698    14.2280 0.0000e+00
      2.607      0.013     9.8012     95.542     42.340  33.220266     4.2623      7.843   282.7345 4.1107e+00     4.3237      2.555      3.706    14.2270 0.0000e+00
      2.612      0.011     9.8000     95.557     42.379  33.250304     4.1923      7.844   282.8417 4.0480e+00     4.3528      2.563      3.717    14.2264 0.0000e+00
      2.616      0.010     9.7962     95.568     42.374  33.246422     4.1440      7.844   282.9780 4.0278e+00     4.3612      2.566      3.722    14.2262 0.0000e+00
      2.617      0.009     9.7931     95.568     42.361  33.236779     4.1275      7.845   283.0056 4.0443e+00     4.3219      2.566      3.722    14.2265 0.0000e+00
      2.617      0.007     9.7974     95.539     42.391  33.260598     4.1344      7.845   283.0032 4.0507e+00     4.3218      2.565      3.720    14.2267 0.0000e+00
      2.617      0.007     9.7979     95.489     42.417  33.280643     4.1776      7.845   283.0353 4.0272e+00     4.3607      2.565      3.720    14.2264 0.0000e+00
      2.619      0.008     9.7994     95.441     42.428  33.288809     4.2081      7.845   283.0489 4.0008e+00     4.3141      2.568      3.725    14.2261 0.0000e+00
      2.623      0.012     9.8007     95.409     42.439  33.295893     4.1954      7.845   282.9954 3.9888e+00     4.2361      2.572      3.731    14.2264 0.0000e+00
      2.626      0.019     9.7969     95.371     42.449  33.302839     4.1832      7.845   282.9051 3.9794e+00     4.2033      2.575      3.734    14.2274 0.0000e+00
      2.629      0.027     9.7910     95.317     42.460  33.309347     4.2767      7.845   282.9041 3.9508e+00     4.2593      2.577      3.738    14.2276 0.0000e+00
      2.633      0.035     9.7846     95.221     42.465  33.311134     4.4436      7.846   282.9836 3.8939e+00     4.3327      2.581      3.742    14.2268 0.0000e+00
      2.643      0.042     9.7841     95.051     42.485  33.324447     4.5189      7.846   283.0053 3.7953e+00     4.3052      2.590      3.754    14.2255 0.0000e+00
      2.659      0.048     9.7795     94.809     42.511  33.343422     4.5059      7.847   282.9946 3.6781e+00     4.2342      2.608      3.782    14.2235 0.0000e+00
      2.676      0.053     9.7759     94.500     42.521  33.350228     4.4605      7.847   283.0264 3.5845e+00     4.1909      2.627      3.809    14.2208 0.0000e+00
      2.691      0.054     9.7692     94.157     42.513  33.343293     4.4035      7.847   283.0458 3.4880e+00     4.1915      2.639      3.827    14.2177 0.0000e+00
      2.704      0.054     9.7499     93.816     42.488  33.323017     4.3815      7.847   283.0565 3.3834e+00     4.2418      2.651      3.845    14.2154 0.0000e+00
      2.718      0.051     9.7277     93.540     42.453  33.295405     4.3697      7.847   283.1555 3.3107e+00     4.2867      2.666      3.867    14.2139 0.0000e+00
      2.729      0.049     9.6929     93.373     42.413  33.263208     4.3772      7.846   283.2106 3.2462e+00     4.2905      2.675      3.881    14.2129 0.0000e+00
      2.741      0.047     9.6583     93.305     42.397  33.250934     4.4225      7.846   283.2063 3.1522e+00     4.2878      2.686      3.895    14.2122 0.0000e+00
      2.754      0.047     9.6201     93.333     42.427  33.273890     4.4512      7.846   283.2759 3.0782e+00     4.2882      2.703      3.920    14.2117 0.0000e+00
      2.766      0.046     9.5894     93.447     42.444  33.286987     4.4586      7.846   283.3635 3.0291e+00     4.2951      2.712      3.933    14.2110 0.0000e+00
      2.776      0.044     9.5748     93.605     42.439  33.282405     4.4201      7.847   283.4049 2.9565e+00     4.2685      2.721      3.946    14.2104 0.0000e+00
      2.788      0.040     9.5666     93.772     42.439  33.281937     4.3435      7.848   283.4319 2.8791e+00     4.2395      2.734      3.965    14.2100 0.0000e+00
      2.800      0.036     9.5703     93.944     42.438  33.281326     4.3142      7.849   283.4331 2.8211e+00     4.2861      2.747      3.984    14.2092 0.0000e+00
      2.810      0.034     9.5836     94.099     42.430  33.275015     4.3331      7.849   283.3331 2.7946e+00     4.3205      2.758      4.002    14.2086 0.0000e+00
      2.815      0.034     9.6025     94.219     42.423  33.269076     4.3888      7.848   283.2547 2.7838e+00     4.3471      2.762      4.005    14.2081 0.0000e+00
      2.817      0.035     9.6177     94.268     42.429  33.272957     4.4632      7.847   283.3457 2.7461e+00     4.4027      2.760      4.003    14.2079 0.0000e+00
      2.825      0.036     9.6379     94.239     42.412  33.258495     4.4999      7.847   283.4873 2.6704e+00     4.4464      2.768      4.015    14.2083 0.0000e+00
      2.838      0.039     9.6528     94.203     42.367  33.221107     4.5164      7.848   283.5043 2.5880e+00     4.4995      2.784      4.037    14.2087 0.0000e+00
      2.852      0.042     9.6673     94.170     42.344  33.201554     4.5212      7.850   283.4647 2.5323e+00     4.4986      2.798      4.059    14.2083 0.0000e+00
      2.864      0.042     9.6746     94.134     42.360  33.212413     4.5074      7.851   283.4394 2.4985e+00     4.4361      2.811      4.077    14.2071 0.0000e+00
      2.874      0.039     9.6658     94.139     42.377  33.225507     4.4996      7.850   283.3706 2.4586e+00     4.4268      2.818      4.088    14.2055 0.0000e+00
      2.884      0.034     9.6640     94.198     42.387  33.232988     4.5017      7.850   283.3206 2.4034e+00     4.4886      2.827      4.100    14.2029 0.0000e+00
      2.893      0.029     9.6626     94.300     42.394  33.239431     4.5165      7.850   283.2646 2.3677e+00     4.5678      2.839      4.117    14.2006 0.0000e+00
      2.900      0.028     9.6553     94.450     42.394  33.239966     4.5209      7.850   283.1242 2.3552e+00     4.6676      2.845      4.126    14.1989 0.0000e+00
      2.903      0.030     9.6565     94.608     42.393  33.239449     4.5044      7.849   283.0862 2.3416e+00     4.8070      2.847      4.129    14.1981 0.0000e+00
      2.907      0.034     9.6638     94.719     42.387  33.233175     4.4924      7.849   283.1487 2.3099e+00     4.9206      2.849      4.131    14.1984 0.0000e+00
      2.914      0.036     9.6723     94.787     42.384  33.227551     4.4827      7.850   283.1059 2.2514e+00     5.0167      2.855      4.140    14.1994 0.0000e+00
      2.928      0.037     9.6897     94.831     42.398  33.234893     4.3463      7.850   282.9994 2.1889e+00     5.4917      2.871      4.164    14.2005 0.0000e+00
      2.944      0.037     9.7087     94.819     42.432  33.258507     4.0670      7.849   282.8070 2.1469e+00     6.2566      2.890      4.192    14.2012 0.0000e+00
      2.955      0.036     9.7201     94.779     42.437  33.259289     3.9016      7.849   282.5010 2.1195e+00     6.6134      2.900      4.207    14.1996 0.0000e+00
      2.961      0.033     9.7255     94.779     42.422  33.244342     3.9450      7.851   282.3097 2.0906e+00     7.0392      2.903      4.210    14.1935 0.0000e+00
      2.966      0.031     9.7344     94.819     42.460  33.268097     4.5164      7.851   282.3016 2.0731e+00    11.5069      2.909      4.219    14.1900 0.0000e+00
      2.971      0.029     9.7326     94.873     42.505  33.292741     5.5338      7.850   282.3167 2.0676e+00    19.5375      2.914      4.226    14.1875 0.0000e+00
      2.978      0.028     9.7242     94.938     42.513  33.288523     6.0843      7.849   282.3207 2.0403e+00    23.8965      2.918      4.232    14.1830 0.0000e+00
      2.989      0.027     9.7268     95.008     42.510  33.280521     6.2036      7.849   282.4361 1.9845e+00    24.8256      2.931      4.251    14.1816 0.0000e+00
      3.001      0.024     9.7329     95.035     42.485  33.259424     7.1418      7.848   282.6788 1.9450e+00    31.5221      2.945      4.271    14.1751 0.0000e+00
      3.007      0.021     9.7423     94.984     42.437  33.223776     8.8720      7.848   282.8461 1.9378e+00    43.8207      2.950      4.278    14.1588 0.0000e+00
      3.008      0.016     9.7508     94.866     42.442  33.230167     9.8196      7.849   282.9107 1.9342e+00    50.5192      2.950      4.278    14.1451 0.0000e+00
      3.009      0.011     9.7623     94.701     42.493  33.273257     9.9098      7.850   282.9441 1.9260e+00    51.1961      2.950      4.278    14.1386 0.0000e+00
      3.010      0.007     9.7672     94.531     42.521  33.300674     9.9799      7.849   282.9056 1.9205e+00    52.4494      2.952      4.281    14.1374 0.0000e+00
      3.012      0.006     9.7594     94.403     42.521  33.307897    10.8415      7.849   282.8746 1.9187e+00    66.0149      2.954      4.285    14.1415 0.0000e+00
      3.014      0.007     9.7468     94.324     42.502  33.297155    12.4460      7.849   282.9142 1.9101e+00    90.9084      2.955      4.287    14.1441 0.0000e+00
      3.015      0.007     9.7278     94.275     42.502  33.297676    13.3152      7.849   282.9532 1.8876e+00   104.6181      2.957      4.289    14.1464 0.0000e+00
      3.018      0.007     9.7059     94.250     42.526  33.314201    13.3612      7.849   282.9162 1.8735e+00   107.8467      2.959      4.292    14.1546 0.0000e+00
      3.020      0.007     9.6908     94.250     42.519  33.306623    13.1104      7.849   282.8966 1.8799e+00   130.7311      2.962      4.295    14.1639 0.0000e+00
      3.021      0.007     9.6828     94.250     42.472  33.269500    12.6466      7.849   282.9746 1.8804e+00   172.5629      2.963      4.297    14.1697 0.0000e+00
      3.022      0.007     9.6780     94.245     42.443  33.246014    12.3728      7.849   282.9987 1.8744e+00   195.2472      2.964      4.298    14.1690 0.0000e+00
      3.025      0.007     9.6756     94.238     42.483  33.276421    12.0970      7.849   283.0162 1.8794e+00   195.5397      2.966      4.302    14.1648 0.0000e+00
      3.027      0.006     9.6780     94.197     42.542  33.319936     9.4039      7.849   283.1005 1.8846e+00   176.1678      2.969      4.305    14.1625 0.0000e+00
      3.029      0.006     9.6782     94.123     42.553  33.328043     4.4884      7.850   283.0714 1.8741e+00   140.3948      2.971      4.308    14.1629 0.0000e+00
      3.030      0.005     9.6757     94.029     42.528  33.310991     1.8119      7.850   283.0083 1.8630e+00   120.7627      2.972      4.310    14.1629 0.0000e+00
      3.031      0.003     9.6790     93.940     42.516  33.304099     1.5543      7.850   283.0260 1.8661e+00   116.9391      2.973      4.311    14.1609 0.0000e+00
      3.031      0.003     9.6740     93.875     42.519  33.308158     1.1902      7.850   283.1130 1.8630e+00    93.0707      2.972      4.311    14.1575 0.0000e+00
      3.032      0.003     9.6666     93.807     42.501  33.296623     0.5393      7.850   283.2005 1.8605e+00    49.4260      2.973      4.312    14.1559 0.0000e+00
      3.032      0.003     9.6557     93.742     42.491  33.291528     0.1923      7.850   283.1379 1.8628e+00    25.5527      2.973      4.312    14.1601 0.0000e+00
      3.033      0.003     9.6432     93.729     42.516  33.309988     0.1666      7.850   283.0441 1.8544e+00    23.0410      2.974      4.313    14.1637 0.0000e+00
      3.034      0.003     9.6397     93.771     42.552  33.329494     0.1124      7.850   283.0991 1.8440e+00    19.0909      2.975      4.315    14.1641 0.0000e+00
      3.035      0.002     9.6315     93.826     42.582  33.337041     0.0021      7.850   283.1998 1.8326e+00    12.1573      2.976      4.317    14.1677 0.0000e+00
      3.036      0.002     9.6205     93.864     42.602  33.337770    -0.0678      7.850   283.2296 1.8263e+00     8.3803      2.977      4.318    14.1730 0.0000e+00
      3.036      0.002     9.6192     93.875     42.614  33.338292    -0.0755      7.850   283.2876 1.8296e+00     8.0611      2.977      4.318    14.1740 0.0000e+00
      3.036      0.001     9.6281     93.856     42.622  33.343343    -0.0657      7.849   283.3836 1.8346e+00     7.9566      2.977      4.318    14.1638 0.0000e+00
      3.036      0.001     9.6394     93.790     42.607  33.335391    -0.0576      7.849   283.4447 1.8352e+00     7.7311      2.977      4.318    14.1410 0.0000e+00
      3.036      0.001     9.6480     93.644     42.562  33.305598    -0.0601      7.849   283.5106 1.8247e+00     7.5548      2.978      4.319    14.1198 0.0000e+00
      3.037      0.001     9.6510     93.439     42.544  33.300339    -0.0716      7.850   283.5779 1.8118e+00     7.4991      2.978      4.319    14.1103 0.0000e+00
      3.037      0.001     9.6492     93.254     42.574  33.335262    -0.0714      7.850   283.5698 1.8057e+00     7.5019      2.978      4.319    14.1105 0.0000e+00
      3.037      0.001     9.6438     93.148     42.575  33.347204    -0.0664      7.851   283.5844 1.8088e+00     7.3833      2.978      4.319    14.1157 0.0000e+00
      3.037      0.001     9.6271     93.137     42.527  33.317846    -0.0702      7.851   283.6690 1.8205e+00     7.1248      2.978      4.320    14.1212 0.0000e+00
      3.037      0.001     9.5995     93.201     42.497  33.297529    -0.0673      7.851   283.6460 1.8290e+00     7.0065      2.978      4.320    14.1309 0.0000e+00
      3.037      0.001     9.5754     93.325     42.490  33.291888    -0.0730      7.851   283.6510 1.8332e+00     7.0458      2.979      4.320    14.1474 0.0000e+00
      3.037      0.001     9.5608     93.512     42.523  33.313078    -0.0806      7.850   283.8152 1.8357e+00     7.0528      2.979      4.320    14.1616 0.0000e+00
      3.038      0.000     9.5590     93.715     42.599  33.363408    -0.0838      7.850   283.8240 1.8333e+00     6.9543      2.979      4.321    14.1704 0.0000e+00
      3.038 -2.605e-08     9.5658     93.874     42.656  33.392860    -0.0953      7.851   283.6713 1.8290e+00     6.8460      2.979      4.321    14.1746 0.0000e+00
      3.038 -2.865e-07     9.5769     93.971     42.707  33.415393    -0.0943      7.851   283.6040 1.8262e+00     6.8367      2.979      4.321    14.1740 0.0000e+00
      3.038      0.000     9.5997     93.989     42.764  33.445500    -0.0801      7.852   283.6121 1.8231e+00     6.8765      2.979      4.321    14.1686 0.0000e+00
      3.037      0.000     9.6262     93.911     42.768  33.439640    -0.0649      7.852   283.6836 1.8210e+00     6.9168      2.979      4.320    14.1586 0.0000e+00
      3.037     -0.001     9.6449     93.705     42.733  33.407978    -0.0604      7.852   283.6943 1.8189e+00     7.1874      2.979      4.320    14.1412 0.0000e+00
      3.038     -0.002     9.6614     93.346     42.696  33.379888    -0.0265      7.852   283.6548 1.8128e+00    10.3526      2.979      4.321    14.1175 0.0000e+00
      3.038     -0.004     9.6677     92.884     42.658  33.353792     0.5203      7.852   283.7233 1.8137e+00    45.7335      2.979      4.321    14.0988 0.0000e+00
      3.037     -0.006     9.6625     92.399     42.639  33.346228     1.5484      7.852   283.8337 1.8255e+00   110.6657      2.978      4.320    14.0879 0.0000e+00
      3.035     -0.007     9.6449     91.960     42.635  33.351880     2.1173      7.851   283.9569 1.8401e+00   146.1067      2.976      4.317    14.0847 0.0000e+00
      3.032     -0.008     9.6043     91.620     42.636  33.358695     2.1635      7.850   284.0942 1.8566e+00   149.6982      2.973      4.312    14.0857 0.0000e+00
      3.029     -0.008     9.5539     91.446     42.643  33.365190     2.2648      7.850   284.2035 1.8616e+00   154.4663      2.969      4.307    14.0885 0.0000e+00
      3.026     -0.007     9.4986     91.491     42.646  33.366976     3.6501      7.850   284.1595 1.8464e+00   177.7614      2.967      4.304    14.0984 0.0000e+00
      3.025     -0.005     9.4497     91.714     42.662  33.380290     6.2122      7.850   283.9931 1.8475e+00   213.6249      2.967      4.303    14.1119 0.0000e+00
      3.024     -0.003     9.4108     92.029     42.686  33.399275     7.6077      7.851   283.9991 1.8613e+00   231.8749      2.966      4.302    14.1200 0.0000e+00
      3.024     -0.001     9.3889     92.355     42.696  33.406198     7.7642      7.851   284.1450 1.8548e+00   233.9088      2.966      4.301    14.1193 0.0000e+00
      3.024     -0.000     9.3977     92.649     42.690  33.400545     8.2624      7.852   284.2086 1.8449e+00   238.5580      2.966      4.302    14.1162 0.0000e+00
      3.025      0.001     9.4229     92.865     42.683  33.394371     9.1781      7.852   284.2522 1.8493e+00   246.8918      2.967      4.303    14.1180 0.0000e+00
      3.026      0.001     9.4586     92.960     42.684  33.394995     9.6804      7.852   284.2422 1.8538e+00   251.4934      2.967      4.304    14.1198 0.0000e+00
      3.026      0.002     9.4930     92.926     42.701  33.408088     9.6081      7.852   284.1729 1.8350e+00   252.1796      2.967      4.304    14.1181 0.0000e+00
      3.026      0.002     9.5254     92.782     42.725  33.425785     8.3197      7.852   284.1881 1.8333e+00   255.0525      2.967      4.304    14.1165 0.0000e+00
      3.026      0.002     9.5503     92.597     42.719  33.418644     5.9887      7.852   284.2546 1.8494e+00   260.2343      2.968      4.304    14.1158 0.0000e+00
      3.027      0.001     9.5590     92.416     42.680  33.385178     4.7457      7.851   284.3746 1.8314e+00   262.8066      2.969      4.306    14.1156 0.0000e+00
      3.029     -0.003     9.5565     92.221     42.619  33.338362     4.7346      7.851   284.5211 1.8062e+00   259.8866      2.970      4.308    14.1162 0.0000e+00
      3.029     -0.011     9.5372     91.956     42.558  33.296697     5.5877      7.850   284.7349 1.8114e+00   224.1426      2.971      4.309    14.1151 0.0000e+00
      3.028     -0.025     9.5183     91.674     42.497  33.262084     7.1457      7.850   285.0674 1.8434e+00   158.4229      2.970      4.308    14.1108 0.0000e+00
      3.024     -0.046     9.5007     91.517     42.441  33.237093     7.9916      7.849   285.3573 1.8819e+00   122.3318      2.967      4.303    14.1060 0.0000e+00
      3.015     -0.073     9.4842     91.505     42.431  33.248330     7.9750      7.847   285.5731 1.9369e+00   116.5527      2.960      4.292    14.1057 0.0000e+00
      2.996     -0.102     9.4556     91.640     42.443  33.271089     6.9700      7.844   285.6978 2.0483e+00    88.1042      2.943      4.269    14.1126 0.0000e+00
      2.964     -0.128     9.4124     91.978     42.416  33.258518     5.1205      7.842   285.7461 2.2250e+00    36.3017      2.911      4.222    14.1275 0.0000e+00
      2.919     -0.147     9.3945     92.489     42.365  33.223223     4.1062      7.840   285.8128 2.4473e+00     8.0003      2.864      4.153    14.1527 0.0000e+00
      2.870     -0.157     9.3884     93.087     42.364  33.225004     4.0287      7.840   285.9883 2.6898e+00     5.4918      2.813      4.081    14.1785 0.0000e+00
      2.823     -0.154     9.3942     93.705     42.432  33.280065     4.1823      7.839   286.1482 2.9282e+00     5.4942      2.768      4.014    14.1943 0.0000e+00
      2.780     -0.137     9.4297     94.277     42.477  33.317970     4.4659      7.839   286.1105 3.1482e+00     5.7751      2.724      3.951    14.2026 0.0000e+00
      2.745     -0.109     9.4846     94.720     42.455  33.302658     4.6118      7.840   286.1350 3.3490e+00     5.9152      2.689      3.900    14.2074 0.0000e+00
      2.717     -0.077     9.5480     95.009     42.432  33.285261     4.6146      7.840   286.2713 3.4998e+00     5.9933      2.660      3.860    14.2099 0.0000e+00
      2.701     -0.047     9.6116     95.161     42.451  33.297951     4.6075      7.840   286.2962 3.5523e+00     6.8214      2.642      3.833    14.2127 0.0000e+00
      2.699     -0.026     9.6747     95.194     42.495  33.329205     4.5093      7.841   286.2645 3.5203e+00    15.5523      2.644      3.835    14.2162 0.0000e+00
      2.707     -0.017     9.7197     95.157     42.520  33.345932     4.3183      7.842   286.3176 3.4578e+00    31.5233      2.654      3.849    14.2186 0.0000e+00
      2.715     -0.021     9.7477     95.068     42.477  33.309857     4.2038      7.842   286.3364 3.4271e+00    40.1951      2.664      3.864    14.2190 0.0000e+00
      2.715     -0.035     9.7650     94.938     42.432  33.273683     4.1573      7.843   286.3200 3.4816e+00    40.8109      2.667      3.868    14.2163 0.0000e+00
      2.703     -0.055     9.7656     94.797     42.451  33.289219     3.9639      7.843   286.3774 3.6264e+00    39.7540      2.656      3.851    14.2115 0.0000e+00
      2.679     -0.070     9.7628     94.644     42.472  33.307377     3.6377      7.844   286.3415 3.8219e+00    37.7667      2.631      3.815    14.2075 0.0000e+00
      2.649     -0.077     9.7547     94.483     42.466  33.302892     3.4672      7.846   286.2295 4.0289e+00    36.6290      2.597      3.767    14.2045 0.0000e+00
      2.620     -0.072     9.7387     94.336     42.461  33.298443     3.4676      7.848   286.1428 4.2118e+00    36.0419      2.567      3.722    14.2038 0.0000e+00
      2.598     -0.057     9.7256     94.220     42.487  33.317027     3.6344      7.850   285.9808 4.3176e+00    31.2481      2.544      3.690    14.2053 0.0000e+00
      2.587     -0.037     9.7089     94.142     42.515  33.337250     3.9692      7.852   285.8202 4.3364e+00    22.5967      2.534      3.675    14.2079 0.0000e+00
      2.585     -0.019     9.6908     94.118     42.537  33.352627     4.1787      7.853   285.8357 4.3022e+00    17.9316      2.533      3.675    14.2092 0.0000e+00
      2.590     -0.007     9.6758     94.161     42.568  33.376060     4.2201      7.854   285.9099 4.2563e+00    17.3705      2.539      3.684    14.2076 0.0000e+00
      2.596     -0.005     9.6638     94.239     42.556  33.366809     4.3941      7.856   285.9427 4.2353e+00    15.6420      2.547      3.694    14.2049 0.0000e+00
      2.597     -0.014     9.6567     94.318     42.475  33.304216     4.7348      7.857   285.9751 4.2482e+00    12.6081      2.548      3.696    14.2027 0.0000e+00
      2.594     -0.029     9.6524     94.381     42.408  33.253681     4.9434      7.858   285.9576 4.2922e+00    10.9872      2.545      3.691    14.2009 0.0000e+00
      2.588     -0.044     9.6597     94.403     42.417  33.263344     4.9856      7.859   285.9031 4.3982e+00    10.9037      2.540      3.685    14.1994 0.0000e+00
      2.573     -0.050     9.6690     94.378     42.453  33.294170     4.9699      7.861   285.8322 4.6409e+00    10.9156      2.529      3.669    14.1991 0.0000e+00
      2.546     -0.047     9.6765     94.342     42.469  33.309178     4.8119      7.861   285.7022 4.9783e+00    11.0283      2.500      3.625    14.2005 0.0000e+00
      2.519     -0.037     9.6844     94.345     42.479  33.317925     4.5570      7.862   285.6217 5.1619e+00    11.3440      2.462      3.571    14.2026 0.0000e+00
      2.509     -0.026     9.6859     94.409     42.502  33.336489     4.4269      7.863   285.6342 5.0916e+00    11.5903      2.454      3.559    14.2067 0.0000e+00
      2.519     -0.020     9.6813     94.518     42.512  33.343306     4.4039      7.863   285.6807 4.9534e+00    12.0593      2.469      3.582    14.2108 0.0000e+00
      2.530     -0.023     9.6747     94.639     42.505  33.336915     4.1789      7.863   285.6678 4.8844e+00    16.6035      2.484      3.602    14.2120 0.0000e+00
      2.535     -0.039     9.6740     94.749     42.487  33.322659     3.7615      7.863   285.5640 4.9290e+00    24.8945      2.490      3.610    14.2137 0.0000e+00
      2.527     -0.062     9.6809     94.824     42.454  33.297821     3.5520      7.863   285.5439 5.1519e+00    29.4337      2.483      3.602    14.2155 0.0000e+00
      2.502     -0.080     9.6940     94.855     42.441  33.290370     3.5695      7.864   285.5107 5.5679e+00    29.5402      2.461      3.569    14.2135 0.0000e+00
      2.460     -0.086     9.7077     94.864     42.445  33.296023     3.7067      7.865   285.4204 6.0758e+00    25.5325      2.413      3.500    14.2109 0.0000e+00
      2.417     -0.079     9.7194     94.850     42.453  33.302724     3.9375      7.867   285.3988 6.4157e+00    18.0398      2.360      3.424    14.2107 0.0000e+00
      2.393     -0.063     9.7282     94.816     42.459  33.307953     4.0538      7.868   285.4213 6.4612e+00    13.9268      2.339      3.393    14.2132 0.0000e+00
      2.391     -0.046     9.7286     94.805     42.444  33.295793     4.0565      7.868   285.5212 6.3804e+00    13.8900      2.342      3.397    14.2167 0.0000e+00
      2.397     -0.039     9.7287     94.816     42.428  33.282595     3.9953      7.868   285.5738 6.2894e+00    17.4925      2.349      3.408    14.2195 0.0000e+00
      2.403     -0.044     9.7290     94.823     42.418  33.275258     3.8711      7.868   285.5413 6.2699e+00    24.0757      2.359      3.422    14.2205 0.0000e+00
      2.398     -0.058     9.7213     94.823     42.410  33.270530     3.8026      7.868   285.5578 6.4667e+00    27.6281      2.358      3.419    14.2199 0.0000e+00
      2.376     -0.070     9.7214     94.825     42.432  33.288871     3.8167      7.869   285.5160 6.9862e+00    27.5151      2.339      3.392    14.2198 0.0000e+00
      2.336     -0.071     9.7242     94.845     42.454  33.306693     4.1256      7.870   285.3796 7.6877e+00    22.9136      2.294      3.328    14.2196 0.0000e+00
      2.295     -0.060     9.7241     94.884     42.441  33.295676     4.7074      7.871   285.2855 8.1017e+00    14.4183      2.240      3.248    14.2195 0.0000e+00
      2.276     -0.039     9.7243     94.938     42.425  33.282557     5.0161      7.872   285.3255 8.0558e+00     9.7193      2.223      3.225    14.2210 0.0000e+00
      2.281     -0.017     9.7223     95.008     42.415  33.274956     5.0205      7.872   285.4322 7.8461e+00     9.2421      2.235      3.241    14.2231 0.0000e+00
      2.296     -0.002     9.7250     95.064     42.405  33.267212     5.0016      7.871   285.3716 7.6350e+00     9.2976      2.251      3.265    14.2238 0.0000e+00
      2.312     -0.003     9.7296     95.098     42.386  33.252378     4.9542      7.870   285.1946 7.4827e+00     9.6043      2.270      3.293    14.2229 0.0000e+00
      2.320     -0.023     9.7345     95.126     42.348  33.222485     4.8634      7.870   285.1847 7.5208e+00     9.9103      2.281      3.309    14.2217 0.0000e+00
      2.314     -0.051     9.7435     95.142     42.347  33.223005     4.8025      7.873   285.2521 7.8082e+00     9.9913      2.275      3.299    14.2217 0.0000e+00
      2.290     -0.075     9.7501     95.146     42.391  33.258664     4.7838      7.874   285.2356 8.3471e+00     9.8993      2.250      3.263    14.2223 0.0000e+00
      2.253     -0.089     9.7510     95.145     42.408  33.272968     4.7532      7.874   285.1562 9.0435e+00     9.1403      2.209      3.206    14.2223 0.0000e+00
      2.213     -0.090     9.7557     95.135     42.402  33.269073     4.7153      7.875   284.9809 9.5995e+00     7.7488      2.165      3.141    14.2224 0.0000e+00
      2.186     -0.080     9.7566     95.113     42.410  33.275011     4.7085      7.876   284.9231 9.8357e+00     6.9774      2.137      3.100    14.2235 0.0000e+00
      2.173     -0.060     9.7559     95.078     42.418  33.281313     4.7128      7.876   285.0600 9.9483e+00     6.8852      2.130      3.089    14.2251 0.0000e+00
      2.166     -0.036     9.7567     95.047     42.419  33.281833     4.7760      7.877   285.0865 1.0062e+01     6.7016      2.125      3.081    14.2261 0.0000e+00
      2.161     -0.016     9.7548     95.028     42.418  33.281298     4.9316      7.878   284.9861 1.0118e+01     6.3973      2.118      3.071    14.2267 0.0000e+00
      2.159     -0.007     9.7534     95.032     42.411  33.274840     5.0300      7.877   284.9644 1.0080e+01     6.2461      2.115      3.068    14.2270 0.0000e+00
      2.163     -0.013     9.7484     95.061     42.402  33.267202     5.0332      7.876   284.9964 9.9618e+00     6.2739      2.119      3.074    14.2269 0.0000e+00
      2.170     -0.030     9.7451     95.079     42.382  33.252382     4.9616      7.876   285.0294 9.8744e+00     6.3926      2.129      3.088    14.2268 0.0000e+00
      2.173     -0.053     9.7433     95.062     42.343  33.222547     4.8308      7.877   285.1047 1.0045e+01     6.5536      2.137      3.099    14.2264 0.0000e+00
      2.158     -0.073     9.7426     95.030     42.344  33.223691     4.7668      7.878   285.1328 1.0674e+01     6.6827      2.125      3.082    14.2257 0.0000e+00
      2.123     -0.083     9.7483     95.024     42.397  33.266213     4.7705      7.878   285.0241 1.1675e+01     6.7241      2.086      3.025    14.2254 0.0000e+00
      2.077     -0.082     9.7507     95.023     42.431  33.292577     4.8083      7.877   284.8233 1.2673e+01     6.3027      2.034      2.951    14.2259 0.0000e+00
      2.042     -0.069     9.7483     95.005     42.426  33.288682     4.8741      7.874   284.6833 1.3149e+01     5.4818      1.991      2.889    14.2269 0.0000e+00
      2.030     -0.048     9.7418     95.017     42.418  33.282564     4.9008      7.872   284.7089 1.3006e+01     5.0318      1.984      2.878    14.2278 0.0000e+00
      2.036     -0.028     9.7424     95.066     42.418  33.282045     4.9059      7.871   284.7893 1.2683e+01     4.9939      1.996      2.895    14.2285 0.0000e+00
      2.046     -0.021     9.7454     95.127     42.419  33.282411     4.9196      7.871   284.7938 1.2483e+01     4.9897      2.007      2.910    14.2289 0.0000e+00
      2.051     -0.032     9.7384     95.173     42.424  33.286982     4.9749      7.871   284.7643 1.2502e+01     4.8442      2.014      2.921    14.2283 0.0000e+00
      2.046     -0.058     9.7415     95.185     42.406  33.273873     5.0754      7.872   284.7762 1.2816e+01     4.5681      2.011      2.916    14.2277 0.0000e+00
      2.030     -0.085     9.7468     95.178     42.375  33.250802     5.1276      7.873   284.7654 1.3571e+01     4.4525      1.997      2.896    14.2275 0.0000e+00
      1.997     -0.102     9.7541     95.178     42.388  33.261808     5.1316      7.875   284.7195 1.4938e+01     4.5385      1.966      2.850    14.2274 0.0000e+00
      1.948     -0.105     9.7603     95.193     42.411  33.280058     5.0646      7.876   284.7383 1.6463e+01     4.6863      1.910      2.769    14.2277 0.0000e+00
      1.903     -0.094     9.7600     95.208     42.412  33.281137     4.9252      7.877   284.7343 1.7399e+01     4.8396      1.858      2.693    14.2286 0.0000e+00
      1.879     -0.071     9.7582     95.244     42.404  33.274850     4.8529      7.879   284.6706 1.7714e+01     4.9231      1.836      2.663    14.2301 0.0000e+00
      1.873     -0.044     9.7566     95.306     42.395  33.267489     4.8567      7.881   284.6561 1.7689e+01     5.0113      1.834      2.660    14.2316 0.0000e+00
      1.877     -0.019     9.7605     95.357     42.380  33.255578     4.9125      7.882   284.6460 1.7485e+01     5.2576      1.839      2.667    14.2324 0.0000e+00
      1.883     -0.007     9.7600     95.394     42.382  33.257718     4.9946      7.882   284.5487 1.7320e+01     5.5100      1.848      2.680    14.2325 0.0000e+00
      1.887     -0.012     9.7628     95.412     42.589  33.420257     5.0253      7.883   284.5119 1.7315e+01     5.6034      1.852      2.687    14.2322 0.0000e+00
      1.887     -0.030     9.7724     95.389     42.781  33.571268     5.0259      7.885   284.6312 1.7438e+01     5.6354      1.851      2.685    14.2320 0.0000e+00
      1.882     -0.050     9.7768     95.351     42.606  33.434041     4.9521      7.886   284.7003 1.7839e+01     5.4519      1.849      2.681    14.2323 0.0000e+00
      1.865     -0.064     9.7802     95.337     42.413  33.283714     4.7988      7.887   284.6598 1.8921e+01     5.0593      1.837      2.664    14.2324 0.0000e+00
      1.834     -0.067     9.7841     95.338     42.403  33.276340     4.7048      7.888   284.6576 2.0417e+01     4.8169      1.801      2.612    14.2325 0.0000e+00
      1.799     -0.058     9.7806     95.363     42.410  33.281432     4.6806      7.887   284.6733 2.1485e+01     4.7069      1.759      2.552    14.2324 0.0000e+00
      1.777     -0.042     9.7735     95.427     42.410  33.281842     4.7469      7.885   284.5911 2.1742e+01     4.6861      1.735      2.517    14.2329 0.0000e+00
      1.775     -0.027     9.7741     95.504     42.409  33.281299     4.8986      7.883   284.5245 2.1312e+01     4.7371      1.734      2.516    14.2344 0.0000e+00
      1.786     -0.021     9.7731     95.572     42.400  33.274863     4.9831      7.882   284.5560 2.0670e+01     4.7420      1.751      2.540    14.2353 0.0000e+00
      1.798     -0.032     9.7739     95.608     42.390  33.267483     4.9786      7.881   284.6281 2.0354e+01     4.7449      1.767      2.564    14.2347 0.0000e+00
      1.800     -0.056     9.7836     95.637     42.374  33.255505     4.9525      7.880   284.7075 2.0730e+01     4.7720      1.771      2.569    14.2341 0.0000e+00
      1.785     -0.081     9.7898     95.665     42.374  33.256925     4.8673      7.881   284.7420 2.2168e+01     4.7974      1.760      2.553    14.2355 0.0000e+00
      1.746     -0.096     9.8000     95.674     42.409  33.284655     4.7305      7.881   284.7005 2.4870e+01     4.8128      1.720      2.496    14.2368 0.0000e+00
      1.691     -0.096     9.8011     95.699     42.394  33.273573     4.6555      7.881   284.6367 2.7570e+01     4.7866      1.652      2.396    14.2358 0.0000e+00
      1.649     -0.083     9.8031     95.754     42.364  33.249812     4.6510      7.881   284.6584 2.8472e+01     4.7200      1.602      2.324    14.2362 0.0000e+00
      1.637     -0.060     9.8091     95.834     42.367  33.251132     4.8177      7.881   284.7045 2.8020e+01     4.6914      1.600      2.321    14.2386 0.0000e+00
      1.643     -0.036     9.8053     95.933     42.336  33.226099     5.1557      7.881   284.6785 2.7579e+01     4.7481      1.612      2.337    14.2402 0.0000e+00
      1.649     -0.024     9.8087     96.007     42.304  33.200918     5.3590      7.881   284.6876 2.7430e+01     4.7902      1.618      2.346    14.2404 0.0000e+00
      1.652     -0.034     9.8150     96.020     42.302  33.200433     5.3621      7.881   284.7289 2.7440e+01     4.7572      1.621      2.351    14.2393 0.0000e+00
      1.649     -0.056     9.8227     96.004     42.326  33.220243     5.1764      7.883   284.7474 2.7926e+01     4.8272      1.621      2.351    14.2379 0.0000e+00
      1.634     -0.077     9.8350     95.984     42.361  33.250111     4.8620      7.883   284.7403 2.9752e+01     4.9873      1.612      2.338    14.2371 0.0000e+00
      1.598     -0.087     9.8453     95.962     42.352  33.244356     4.6981      7.884   284.6424 3.2860e+01     5.0529      1.572      2.281    14.2370 0.0000e+00
      1.553     -0.085     9.8438     95.974     42.314  33.214102     4.7086      7.884   284.5955 3.5597e+01     5.0394      1.515      2.197    14.2375 0.0000e+00
      1.520     -0.071     9.8402     96.051     42.299  33.201528     4.8399      7.884   284.6041 3.6801e+01     4.8932      1.483      2.151    14.2398 0.0000e+00
      1.508     -0.051     9.8394     96.176     42.322  33.219209     5.0623      7.883   284.5736 3.6726e+01     4.6511      1.474      2.138    14.2430 0.0000e+00
      1.510     -0.036     9.8343     96.322     42.345  33.237552     5.1914      7.881   284.6574 3.6081e+01     4.5372      1.479      2.144    14.2448 0.0000e+00
      1.516     -0.037     9.8337     96.439     42.337  33.232977     5.2024      7.880   284.7564 3.5586e+01     4.5412      1.488      2.159    14.2444 0.0000e+00
      1.521     -0.060     9.8439     96.493     42.326  33.227341     5.0706      7.880   284.7383 3.5689e+01     4.4608      1.494      2.168    14.2430 0.0000e+00
      1.515     -0.091     9.8567     96.528     42.326  33.232861     4.8128      7.880   284.6976 3.7248e+01     4.2821      1.493      2.166    14.2424 0.0000e+00
      1.487     -0.117     9.8736     96.591     42.326  33.236289     4.6744      7.880   284.6080 4.1661e+01     4.2255      1.470      2.132    14.2427 0.0000e+00
      1.429     -0.127     9.8888     96.689     42.286  33.205349     4.6794      7.879   284.5154 4.8283e+01     4.2880      1.406      2.039    14.2434 0.0000e+00
      1.363     -0.120     9.8894     96.838     42.249  33.175977     4.6894      7.877   284.5239 5.3693e+01     4.2868      1.326      1.923    14.2478 0.0000e+00
      1.320     -0.097     9.8899     97.073     42.277  33.198372     4.6950      7.876   284.5389 5.5600e+01     4.4845      1.283      1.860    14.2554 0.0000e+00
      1.309     -0.065     9.8959     97.375     42.309  33.222350     4.7150      7.873   284.5245 5.4872e+01     5.0049      1.279      1.854    14.2595 0.0000e+00
      1.316     -0.037     9.9057     97.678     42.299  33.212115     4.7388      7.870   284.5226 5.3372e+01     5.3516      1.289      1.870    14.2594 0.0000e+00
      1.328     -0.027     9.9186     97.928     42.287  33.201516     4.7585      7.868   284.5152 5.2325e+01     5.4309      1.304      1.891    14.2585 0.0000e+00
      1.334     -0.033     9.9432     98.087     42.310  33.221076     4.7447      7.868   284.5214 5.2559e+01     5.4862      1.313      1.905    14.2598 0.0000e+00
      1.327     -0.048     9.9780     98.142     42.354  33.258296     4.6970      7.869   284.5118 5.5114e+01     5.5423      1.310      1.900    14.2592 0.0000e+00
      1.301     -0.061    10.0112     98.107     42.369  33.270885     4.6728      7.870   284.4845 6.0031e+01     5.5623      1.281      1.859    14.2546 0.0000e+00
      1.263     -0.067    10.0390     98.036     42.338  33.246397     4.6848      7.871   284.4500 6.4317e+01     5.5570      1.233      1.788    14.2521 0.0000e+00
      1.237     -0.064    10.0550     97.992     42.299  33.215987     4.7753      7.873   284.4385 6.5676e+01     5.4442      1.205      1.748    14.2552 0.0000e+00
      1.227     -0.054    10.0596     97.989     42.305  33.220416     4.9270      7.873   284.5178 6.5905e+01     5.1548      1.203      1.744    14.2595 0.0000e+00
      1.224     -0.045    10.0536     97.988     42.325  33.236510     5.0041      7.873   284.5487 6.6379e+01     4.9277      1.201      1.741    14.2597 0.0000e+00
      1.221     -0.049    10.0435     97.968     42.305  33.220246     5.0173      7.874   284.4677 6.6784e+01     4.8847      1.198      1.737    14.2594 0.0000e+00
      1.218     -0.066    10.0379     97.954     42.296  33.214099     5.0026      7.874   284.3989 6.7616e+01     4.8050      1.196      1.735    14.2601 0.0000e+00
      1.208     -0.086    10.0404     97.956     42.307  33.225633     4.9520      7.873   284.4045 7.0856e+01     4.6137      1.192      1.729    14.2605 0.0000e+00
      1.179     -0.098    10.0413     97.960     42.313  33.232819     4.9206      7.869   284.4504 7.8801e+01     4.4845      1.166      1.691    14.2597 0.0000e+00
      1.131     -0.097    10.0375     97.955     42.317  33.237538     4.9146      7.862   284.5236 8.8723e+01     4.4381      1.108      1.607    14.2583 0.0000e+00
      1.083     -0.083    10.0357     97.975     42.294  33.219247     4.9301      7.856   284.6003 9.4740e+01     4.5654      1.052      1.526    14.2601 0.0000e+00
      1.058     -0.060    10.0355     98.067     42.273  33.201999     4.9656      7.853   284.6040 9.5461e+01     4.8621      1.029      1.492    14.2641 0.0000e+00
      1.058     -0.032    10.0363     98.207     42.297  33.219319     4.9868      7.852   284.5677 9.2946e+01     5.0188      1.034      1.498    14.2678 0.0000e+00
      1.070     -0.008    10.0341     98.349     42.322  33.238338     4.9862      7.852   284.5063 8.9828e+01     4.9908      1.049      1.522    14.2688 0.0000e+00
      1.082      0.001    10.0331     98.482     42.326  33.241623     4.9747      7.850   284.3782 8.8138e+01     4.8663      1.064      1.544    14.2677 0.0000e+00
      1.088     -0.010    10.0443     98.575     42.348  33.259043     4.9731      7.848   284.3087 8.8304e+01     4.6750      1.070      1.552    14.2672 0.0000e+00
      1.086     -0.037    10.0620     98.602     42.346  33.258627     4.9834      7.848   284.3551 8.9704e+01     4.5221      1.066      1.547    14.2661 0.0000e+00
      1.077     -0.068    10.0754     98.581     42.316  33.236593     4.9902      7.850   284.3366 9.2831e+01     4.4864      1.060      1.537    14.2643 0.0000e+00
      1.056     -0.092    10.0913     98.529     42.326  33.246413     4.9804      7.852   284.2576 1.0011e+02     4.5170      1.044      1.513    14.2641 0.0000e+00
      1.018     -0.102    10.1023     98.485     42.330  33.250478     4.9408      7.853   284.2599 1.1184e+02     4.5840      1.002      1.454    14.2650 0.0000e+00
      0.971     -0.098    10.1024     98.479     42.293  33.222303     4.9104      7.855   284.2778 1.2283e+02     4.6825      0.949      1.375    14.2661 0.0000e+00
      0.935     -0.083    10.1007     98.511     42.292  33.222964     4.9209      7.856   284.3024 1.2772e+02     4.7175      0.909      1.318    14.2683 0.0000e+00
      0.919     -0.061    10.0923     98.587     42.335  33.258464     4.9343      7.856   284.3851 1.2776e+02     4.6995      0.896      1.300    14.2710 0.0000e+00
      0.917     -0.039    10.0864     98.715     42.349  33.270882     5.0062      7.855   284.4176 1.2619e+02     4.6686      0.899      1.303    14.2721 0.0000e+00
      0.920     -0.027    10.0865     98.863     42.317  33.246225     5.1574      7.853   284.3513 1.2446e+02     4.6522      0.903      1.310    14.2725 0.0000e+00
      0.923     -0.034    10.0888     98.987     42.276  33.214112     5.2478      7.852   284.2723 1.2369e+02     4.7060      0.906      1.315    14.2742 0.0000e+00
      0.923     -0.055    10.0954     99.086     42.258  33.199824     5.2591      7.852   284.3226 1.2506e+02     4.7386      0.908      1.317    14.2766 0.0000e+00
      0.913     -0.076    10.1091     99.185     42.258  33.200354     5.2018      7.855   284.4430 1.3191e+02     4.6361      0.904      1.310    14.2786 0.0000e+00
      0.882     -0.089    10.1269     99.292     42.284  33.220515     5.0965      7.856   284.4370 1.4610e+02     4.5261      0.873      1.266    14.2797 0.0000e+00
      0.835     -0.090    10.1388     99.375     42.326  33.253266     5.0426      7.856   284.4224 1.6174e+02     4.5349      0.817      1.184    14.2794 0.0000e+00
      0.795     -0.080    10.1486     99.444     42.361  33.279129     5.0421      7.858   284.4385 1.7010e+02     4.5715      0.769      1.116    14.2792 0.0000e+00
      0.776     -0.060    10.1562     99.495     42.363  33.279443     5.1394      7.860   284.2873 1.7070e+02     4.4909      0.754      1.094    14.2798 0.0000e+00
      0.775     -0.035    10.1715     99.493     42.336  33.257064     5.3122      7.861   284.1428 1.6818e+02     4.3121      0.759      1.100    14.2797 0.0000e+00
      0.781     -0.012    10.1779     99.448     42.345  33.262317     5.4078      7.862   284.1540 1.6533e+02     4.2542      0.766      1.111    14.2793 0.0000e+00
      0.786      0.002    10.1847     99.348     42.369  33.279517     5.4306      7.863   284.1647 1.6437e+02     4.3374      0.772      1.121    14.2773 0.0000e+00
      0.788      0.007    10.1949     99.191     42.364  33.274687     5.4213      7.864   284.1868 1.6513e+02     4.3959      0.774      1.122    14.2745 0.0000e+00
      0.787      0.004    10.1912     99.018     42.353  33.267358     5.3872      7.864   284.2486 1.6585e+02     4.3470      0.772      1.119    14.2738 0.0000e+00
      0.787     -0.004    10.1894     98.855     42.333  33.254352     5.3668      7.865   284.2227 1.6559e+02     4.2245      0.771      1.118    14.2722 0.0000e+00
      0.788     -0.019    10.1797     98.691     42.318  33.244325     5.3662      7.866   284.1321 1.6456e+02     4.1789      0.773      1.120    14.2692 0.0000e+00
      0.789     -0.042    10.1618     98.567     42.354  33.273014     5.3717      7.867   284.1002 1.6447e+02     4.2392      0.775      1.123    14.2686 0.0000e+00
      0.785     -0.069    10.1420     98.550     42.369  33.284014     5.3002      7.870   284.0097 1.6912e+02     4.3051      0.775      1.122    14.2699 0.0000e+00
      0.767     -0.092    10.1265     98.619     42.326  33.250433     5.1512      7.872   283.8972 1.8211e+02     4.3601      0.760      1.102    14.2733 0.0000e+00
      0.730     -0.106    10.1079     98.726     42.320  33.247653     5.0766      7.873   283.9450 2.0351e+02     4.3918      0.722      1.046    14.2768 0.0000e+00
      0.680     -0.107    10.0898     98.834     42.319  33.250404     5.0809      7.872   284.0707 2.2636e+02     4.4489      0.664      0.963    14.2770 0.0000e+00
      0.637     -0.094    10.0916     98.915     42.276  33.220252     5.0528      7.871   284.2129 2.4221e+02     4.5386      0.616      0.892    14.2753 0.0000e+00
      0.614     -0.069    10.0998     99.002     42.247  33.200312     4.9778      7.870   284.2874 2.4864e+02     4.5195      0.596      0.865    14.2755 0.0000e+00
      0.609     -0.040    10.1115     99.120     42.245  33.199649     4.9242      7.870   284.1975 2.4764e+02     4.4238      0.594      0.862    14.2773 0.0000e+00
      0.613     -0.014    10.1239     99.256     42.262  33.212239     4.9125      7.871   284.0725 2.4282e+02     4.3717      0.600      0.870    14.2810 0.0000e+00
      0.620      0.003    10.1285     99.409     42.280  33.225646     4.9527      7.871   284.0669 2.3834e+02     4.3341      0.608      0.882    14.2871 0.0000e+00
      0.625      0.010    10.1350     99.579     42.290  33.234858     5.0444      7.870   284.2159 2.3769e+02     4.2760      0.614      0.891    14.2910 0.0000e+00
      0.627      0.012    10.1487     99.760     42.319  33.260179     5.0879      7.869   284.4116 2.3956e+02     4.2495      0.616      0.894    14.2917 0.0000e+00
      0.627      0.011    10.1626     99.925     42.339  33.278028     5.0715      7.868   284.5396 2.4129e+02     4.2540      0.614      0.890    14.2904 0.0000e+00
      0.627      0.007    10.1778    100.007     42.319  33.260348     5.0708      7.867   284.5581 2.4022e+02     4.3297      0.613      0.889    14.2886 0.0000e+00
      0.630      0.001    10.1971    100.069     42.294  33.236745     5.0878      7.866   284.3777 2.3643e+02     4.4819      0.618      0.896    14.2892 0.0000e+00
      0.635     -0.009    10.2122    100.167     42.308  33.246407     5.1017      7.866   284.0798 2.3258e+02     4.5565      0.624      0.905    14.2932 0.0000e+00
      0.639     -0.024    10.2359    100.201     42.313  33.250290     5.0980      7.867   283.8812 2.3289e+02     4.5145      0.629      0.913    14.2976 0.0000e+00
      0.634     -0.044    10.2403    100.168     42.273  33.220253     5.0755      7.869   283.6973 2.4120e+02     4.4184      0.627      0.909    14.2954 0.0000e+00
      0.615     -0.069    10.2411    100.077     42.248  33.200441     5.0634      7.871   283.4914 2.5477e+02     4.3511      0.605      0.877    14.2880 0.0000e+00
      0.591     -0.089    10.2639     99.922     42.249  33.201078     5.0599      7.873   283.4564 2.7083e+02     4.3149      0.579      0.839    14.2858 0.0000e+00
      0.566     -0.098    10.2611     99.777     42.285  33.227952     5.0499      7.875   283.5319 2.9354e+02     4.2884      0.561      0.814    14.2876 0.0000e+00
      0.531     -0.093    10.2588     99.703     42.343  33.271600     5.0335      7.876   283.5442 3.2450e+02     4.2706      0.524      0.760    14.2891 0.0000e+00
      0.491     -0.077    10.2509     99.643     42.361  33.284718     4.9951      7.876   283.5190 3.4901e+02     4.2358      0.474      0.687    14.2900 0.0000e+00
      0.468     -0.056    10.2312     99.568     42.330  33.259668     4.9519      7.876   283.4859 3.5677e+02     4.2437      0.451      0.653    14.2887 0.0000e+00
      0.466     -0.036    10.2129     99.516     42.282  33.222502     4.9360      7.876   283.2297 3.5158e+02     4.2629      0.455      0.660    14.2868 0.0000e+00
      0.473     -0.023    10.2101     99.450     42.273  33.216003     4.9355      7.877   282.6575 3.4474e+02     4.2631      0.464      0.674    14.2846 0.0000e+00
      0.479     -0.026    10.2074     99.385     42.311  33.244537     4.9543      7.877   281.9887 3.4522e+02     4.2467      0.471      0.683    14.2829 0.0000e+00
      0.481     -0.047    10.1924     99.327     42.321  33.250290     4.9884      7.877   281.5104 3.4555e+02     4.2355      0.475      0.688    14.2823 0.0000e+00
      0.473     -0.076    10.1950     99.263     42.286  33.222113     5.0154      7.878   281.1763 3.4735e+02     4.2982      0.470      0.681    14.2834 0.0000e+00
      0.447     -0.099    10.1825     99.203     42.285  33.221073     5.0389      7.881   280.8738 3.7433e+02     4.3218      0.448      0.650    14.2855 0.0000e+00
      0.400     -0.109    10.1779     99.167     42.305  33.237716     5.0647      7.883   280.7780 4.1648e+02     4.3159      0.394      0.572    14.2833 0.0000e+00
      0.350     -0.105    10.1730     99.146     42.298  33.233001     5.0940      7.881   280.7069 4.5062e+02     4.3973      0.334      0.486    14.2798 0.0000e+00
      0.316     -0.092    10.1661     99.118     42.291  33.227519     5.1100      7.875   280.5310 4.8534e+02     4.4865      0.303      0.440    14.2793 0.0000e+00
      0.301     -0.078    10.1598     99.131     42.299  33.234874     5.1165      7.870   280.3712 5.0908e+02     4.5400      0.291      0.423    14.2791 0.0000e+00
      0.301     -0.065    10.1539     99.175     42.328  33.258489     5.0978      7.869   280.1513 5.1318e+02     4.5318      0.292      0.424    14.2799 0.0000e+00
      0.303     -0.055    10.1570     99.202     42.328  33.259269     5.0421      7.869   279.9365 5.4037e+02     4.4553      0.305      0.442    14.2813 0.0000e+00
      0.289     -0.047    10.1471     99.209     42.308  33.244305     5.0179      7.868   279.8390 6.2491e+02     4.4350      0.293      0.424    14.2813 0.0000e+00
      0.258     -0.040    10.1514     99.211     42.335  33.267891     5.0214      7.866   279.9192 7.1888e+02     4.4916      0.250      0.363    14.2815 0.0000e+00
      0.233     -0.031    10.1579     99.232     42.359  33.290676     4.9513      7.863   280.0460 7.2113e+02     4.5244      0.220      0.320    14.2825 0.0000e+00
      0.226     -0.019    10.1595     99.275     42.319  33.266034     4.8113      7.861   279.9955 6.3071e+02     4.4900      0.217      0.314    14.2837 0.0000e+00
      0.236     -0.006    10.1602     99.346     42.259  33.223724     4.7267      7.859   279.8259 5.5261e+02     4.4170      0.231      0.334    14.2855 0.0000e+00
      0.249      0.004    10.1579     99.479     42.259  33.223219     4.7270      7.857   279.8015 5.2845e+02     4.4283      0.247      0.359    14.2865 0.0000e+00
      0.257      0.004    10.1599     99.687     42.311  33.259929     4.7486      7.857   279.9593 5.4928e+02     4.5237      0.255      0.369    14.2905 0.0000e+00
      0.256     -0.006    10.1622     99.939     42.347  33.286912     4.7556      7.859   279.9262 6.0593e+02     4.6144      0.253      0.367    14.3017 0.0000e+00
      0.250     -0.024    10.1656    100.180     42.352  33.295695     4.7451      7.861   279.6591 6.5379e+02     4.6704      0.245      0.356    14.3090 0.0000e+00
      0.242     -0.046    10.1788    100.352     42.348  33.302691     4.7296      7.863   279.3973 6.9024e+02     4.6545      0.240      0.348    14.3075 0.0000e+00
      0.229     -0.069    10.2036    100.461     42.341  33.308067     4.7100      7.864   279.2559 7.0128e+02     4.6617      0.226      0.328    14.3000 0.0000e+00
      0.213     -0.086    10.2319    100.570     42.317  33.297270     4.5000      7.867   279.4126 7.0020e+02     4.6890      0.209      0.304    14.2949 0.0000e+00
      0.189     -0.096    10.2583    100.717     42.312  33.299037     4.0873      7.868   279.6567 7.8554e+02     4.6094      0.193      0.280    14.3022 0.0000e+00
      0.151     -0.095    10.2724    100.914     42.343  33.329443     3.8493      7.869   279.5404 8.3617e+02     4.4840      0.149      0.215    14.3166 0.0000e+00
      0.111     -0.084    10.2766    101.161     42.354  33.347699     3.8189      7.871   279.2969 8.5372e+02     4.4361      0.102      0.148    14.3313 0.0000e+00
      0.085     -0.064    10.2847    101.420     42.319  33.329452     3.7855      7.873   279.2084 8.9792e+02     4.4749      0.078      0.114    14.3415 0.0000e+00
      0.074     -0.039    10.2986    101.690     42.275  33.299161     3.7293      7.873   279.1582 8.1947e+02     4.5098      0.068      0.099    14.3458 0.0000e+00
      0.076     -0.016    10.3166    102.030     42.273  33.298661     3.6805      7.873   279.1202 7.8132e+02     4.4820      0.073      0.106    14.3511 0.0000e+00
      0.085     -0.001    10.3409    102.405     42.303  33.323416     3.6533      7.874   279.0931 8.5769e+02     4.4467      0.083      0.120    14.3656 0.0000e+00
      0.093      0.000    10.3656    102.722     42.329  33.344698     3.6580      7.874   279.0886 9.0777e+02     4.5264      0.092      0.134    14.3791 0.0000e+00
      0.098     -0.014    10.3878    102.946     42.354  33.365655     3.6951      7.873   279.1508 9.1477e+02     4.6943      0.098      0.143    14.3810 0.0000e+00
      0.095     -0.041    10.4243    103.054     42.372  33.386482     3.7277      7.872   279.4157 9.6540e+02     4.7689      0.095      0.139    14.3814 0.0000e+00
      0.085     -0.082    10.4678    103.087     42.383  33.406192     3.7197      7.871   279.4520 1.1002e+03     4.7448      0.088      0.128    14.3839 0.0000e+00
      0.064     -0.140    10.4988    103.088     42.369  33.413650     3.6563      7.870   278.4708 1.1489e+03     4.6423      0.068      0.100    14.3836 0.0000e+00
      0.029     -0.210    10.5249    103.008     41.930  33.096013     3.5024      7.871   276.1567 1.0747e+03     4.4858      0.031      0.045    14.3831 0.0000e+00
     -0.021     -0.277    10.5321    102.871     36.620  28.931264     3.3162      7.873   273.1540 9.3291e+02     4.3899     -0.010     -0.015    14.3920 0.0000e+00
     -0.102     -0.321    10.5272    102.745     23.250  18.382381     3.2269      7.875   271.2478 6.6165e+02     4.3366     -0.084     -0.122    14.4054 0.0000e+00
     -0.220     -0.331    10.5302    102.635     10.447   8.266800     3.1556      7.879   270.8333 3.4681e+02     4.0122     -0.208     -0.301    14.4223 0.0000e+00
     -0.354     -0.309    10.5108    102.555      9.598   7.602835     2.5123      7.884   270.8086 1.9064e+02     0.7072     -0.356     -0.516    14.4609 0.0000e+00
     -0.459     -0.261    10.4818    102.495     21.152  16.755055     1.3583      7.888   270.5190 1.6160e+02    -5.2563     -0.477     -0.691    14.5060 0.0000e+00
     -0.509     -0.194    10.4622    102.293     34.352  27.206963     0.7218      7.891   270.0850 1.4441e+02    -8.4838     -0.512     -0.741    14.5489 0.0000e+00
     -0.519     -0.120    10.4398    101.709     39.886  31.583674     0.6760      7.894   269.8632 1.3482e+02    -8.4269     -0.509     -0.738    14.5937 0.0000e+00
     -0.520     -0.058    10.4258    100.589     38.507  30.482073     1.0711      7.897   269.5573 1.3182e+02    -3.7147     -0.510     -0.740    14.6125 0.0000e+00
     -0.520     -0.019    10.4272     98.924     31.821  25.178802     1.8196      7.900   269.1408 1.3299e+02     5.0407     -0.509     -0.739    14.6062 0.0000e+00
     -0.520     -0.004    10.4191     96.898     21.563  17.054493     2.2266      7.905   269.0433 1.4143e+02     9.7799     -0.511     -0.740    14.5974 0.0000e+00
     -0.520     -0.000    10.3659     94.719     13.513  10.682510     2.2050      7.907   269.3242 1.5662e+02     9.9649     -0.510     -0.739    14.5903 0.0000e+00
     -0.520      0.000    10.2570     92.448      9.450   7.468461     1.4753      7.908   269.6120 1.6786e+02     7.7565     -0.510     -0.740    14.5773 0.0000e+00
     -0.520      0.000    10.0842     90.122      7.369   5.822759     0.1453      7.909   269.5971 1.6966e+02     3.7441     -0.510     -0.739    14.5550 0.0000e+00
     -0.520      0.001     9.8724     87.875      6.300   4.977200    -0.5666      7.911   269.4026 1.6775e+02     1.5555     -0.510     -0.740    14.5330 0.0000e+00
     -0.520      0.001     9.6550     85.828      5.655   4.467463    -0.6241      7.915   269.0661 1.6330e+02     1.2434     -0.510     -0.739    14.5180 0.0000e+00
     -0.520      0.000     9.4247     83.973      5.183   4.094307    -0.4907      7.929   269.2296 1.5348e+02     0.8248     -0.509     -0.739    14.5096 0.0000e+00
     -0.519 1.8474e-08     9.1835     82.281      4.840   3.823056    -0.2105      7.943   269.8299 1.4127e+02     0.2513     -0.509     -0.738    14.5039 0.0000e+00
     -0.519 2.0321e-07     8.9482     80.757      4.551   3.595116    -0.0667      7.918   269.6995 1.3246e+02    -0.0545     -0.509     -0.738    14.5000 0.0000e+00
     -0.520 2.0321e-07     8.7430     79.409      4.261   3.365507    -0.0752      7.865   269.5458 1.2981e+02    -0.1398     -0.509     -0.739    14.4974 0.0000e+00
     -0.520 1.8473e-08     8.5556     78.255      3.892   3.074048    -0.0798      7.823   269.8644 1.2926e+02    -0.1984     -0.509     -0.739    14.4954 0.0000e+00
     -0.520 1.6794e-09     8.3818     77.275      3.539   2.795085    -0.0643      7.809   269.7668 1.2572e+02    -0.1832     -0.509     -0.739    14.4937 0.0000e+00
     -0.520 1.5267e-10     8.2286     76.466      3.360   2.653192    -0.0466      7.826   269.3115 1.2068e+02    -0.1262     -0.509     -0.739    14.4915 0.0000e+00
     -0.520 1.3879e-11     8.0880     75.844      3.325   2.625374    -0.0483      7.861   268.9188 1.1486e+02    -0.1588     -0.510     -0.739    14.4896 0.0000e+00
     -0.520 1.2618e-12     7.9738     75.400      3.355   2.648788    -0.0607      7.896   268.5472 1.0907e+02    -0.2022     -0.509     -0.739    14.4880 0.0000e+00
     -0.520 1.1471e-13     7.8734     75.103      3.318   2.619549    -0.0960      7.922   267.9159 1.0600e+02    -0.1722     -0.509     -0.739    14.4861 0.0000e+00
     -0.520 1.0428e-14     7.7903     74.909      3.198   2.525226    -0.1513      7.947   266.7055 9.8837e+01    -0.2057     -0.510     -0.739    14.4835 0.0000e+00
     -0.519 9.4800e-16     7.7281     74.815      3.194   2.521885    -0.1795      7.973   265.3556 7.0276e+01    -0.2661     -0.509     -0.738    14.4812 0.0000e+00
     -0.519 8.6180e-17     7.6833     74.819      3.588   2.832534    -0.1784      7.986   264.7592 3.9958e+01    -0.2533     -0.509     -0.738    14.4797 0.0000e+00
     -0.519 7.8345e-18     7.6569     74.883      5.469   4.317497    -0.1474      7.976   264.8294 3.6731e+01    -0.2217     -0.509     -0.739    14.4778 0.0000e+00
     -0.519 7.1225e-19     7.6358     74.964      8.121   6.411871    -0.0949      7.956   264.6549 4.4751e+01    -0.2256     -0.509     -0.738    14.4752 0.0000e+00
     -0.520 6.4750e-20     7.6274     75.062      8.780   6.931580    -0.0606      7.938   264.0260 6.1632e+01    -0.1986     -0.510     -0.739    14.4733 0.0000e+00
     -0.520 5.8860e-21     7.6286     75.177      7.971   6.293534    -0.0493      7.925   262.9909 8.4126e+01    -0.1335     -0.510     -0.739    14.4724 0.0000e+00
     -0.520 5.3510e-22     7.6384     75.303      7.338   5.793618    -0.0581      7.917   262.1195 9.5724e+01     0.0155     -0.509     -0.739    14.4718 0.0000e+00
     -0.520 4.8646e-23     7.6450     75.445      7.383   5.829012    -0.0836      7.907   262.2658 9.8652e+01     0.2699     -0.510     -0.739    14.4719 0.0000e+00
     -0.519 4.4224e-24     7.6551     75.595      7.550   5.961014    -0.0906      7.888   262.6093 1.0197e+02     0.4147     -0.509     -0.739    14.4728 0.0000e+00
     -0.519 4.0204e-25     7.6677     75.772      6.551   5.171962    -0.0757      7.862   262.4863 1.1227e+02     0.5020     -0.509     -0.738    14.4736 0.0000e+00
     -0.519 3.6549e-26     7.6788     75.973      5.651   4.461612    -0.0706      7.833   262.1558 1.2403e+02     1.1209     -0.509     -0.739    14.4742 0.0000e+00
     -0.519 3.3227e-27     7.6959     76.173      5.819   4.594890    -0.0787      7.813   261.8828 1.3413e+02     2.1934     -0.510     -0.739    14.4745 0.0000e+00
     -0.519 3.0206e-28     7.7080     76.369      6.184   4.882827    -0.0824      7.808   261.5938 2.1079e+02     2.8104     -0.509     -0.739    14.4745 0.0000e+00
     -0.519 2.7460e-29     7.7273     76.567      6.129   4.838723    -0.0736      7.818   261.2425 3.9921e+02     2.9453     -0.510     -0.739    14.4747 0.0000e+00
     -0.519 2.4963e-30     7.7488     76.757      5.626   4.441762    -0.0633      7.834   260.9911 5.7082e+02     3.0046     -0.509     -0.739    14.4745 0.0000e+00
     -0.520 2.2694e-31     7.7695     76.925      5.161   4.074424    -0.0662      7.839   260.3607 6.5807e+02     3.2881     -0.510     -0.739    14.4739 0.0000e+00
     -0.520 2.0631e-32     7.7888     77.064      4.917   3.881644    -0.0751      7.832   259.4714 6.2582e+02     3.8801     -0.510     -0.740    14.4731 0.0000e+00
     -0.520 1.8756e-33     7.8100     77.200      4.761   3.757998    -0.0707      7.818   259.1009 6.7352e+02     4.2522     -0.510     -0.740    14.4720 0.0000e+00
     -0.520 1.7051e-34     7.8300     77.378      4.873   3.846426    -0.0637      7.798   259.2360 1.0566e+03     4.3031     -0.510     -0.740    14.4707 0.0000e+00
     -0.520 1.5500e-35     7.8478     77.553      5.389   4.253955    -0.0660      7.778   259.4702 1.4038e+03     4.6329     -0.510     -0.739    14.4694 0.0000e+00
     -0.520 1.4091e-36     7.8624     77.699      5.867   4.630905    -0.0727      7.793   259.4373 1.4916e+03     5.3364     -0.510     -0.740    14.4680 0.0000e+00
     -0.520 1.2810e-37     7.8713     77.828      5.992   4.729700    -0.0700      7.838   259.0963 1.4986e+03     5.7710     -0.510     -0.740    14.4663 0.0000e+00
     -0.520 1.1646e-38     7.8951     77.940      5.940   4.688248    -0.0498      7.838   259.1335 1.4872e+03     5.7889     -0.510     -0.740    14.4645 0.0000e+00
     -0.520 1.0674e-39     7.9129     78.032      5.875   4.636538    -0.0540      7.793   259.2841 1.4717e+03     5.6900     -0.509     -0.739    14.4627 0.0000e+00
     -0.520 1.9249e-40     7.9272     78.069      5.843   4.611303    -0.0709      7.770   259.1969 1.4656e+03     5.6338     -0.510     -0.740    14.4610 0.0000e+00
     -0.520 -9.990e-29     7.9417 -9.990e-29 -9.990e-29 -9.990e-29 -9.990e-29 -9.990e-29 -9.990e-29 1.4845e+03 -9.990e-29     -0.509     -0.739    14.4594 0.0000e+00
     -0.520 -9.990e-29     7.9516 -9.990e-29 -9.990e-29 -9.990e-29 -9.990e-29 -9.990e-29 -9.990e-29 1.5151e+03 -9.990e-29     -0.510     -0.740    14.4579 0.0000e+00
     -0.520 -9.990e-29     7.9644 -9.990e-29 -9.990e-29 -9.990e-29 -9.990e-29 -9.990e-29 -9.990e-29 1.5251e+03 -9.990e-29     -0.510     -0.739    14.4561 0.0000e+00
     -0.520 -9.990e-29     7.9683 -9.990e-29 -9.990e-29 -9.990e-29 -9.990e-29 -9.990e-29 -9.990e-29 1.5214e+03 -9.990e-29     -0.510     -0.740    14.4547 0.0000e+00
