* Sea-Bird SBE19plus  Data File:
* FileName = C:\DATA\103019_fcr_0003.hex
* Software version 2.8.0.119 SB_Terminal.dll
* Temperature SN = 7809
* Conductivity SN = 7809
* System UpLoad Time = Oct 30 2019 15:28:32
* <ApplicationData>
* <Seaterm232>
* <SoftwareVersion>2.8.0.119</SoftwareVersion>
* <BuildDate>07-Nov-2018</BuildDate>
* </Seaterm232>
* </ApplicationData>
* cast   3 30 Oct 2019 10:38:21 samples 1746 to 2159, avg = 1, stop = mag switch
# nquan = 16
# nvalues = 341                         
# units = specified
# name 0 = depFM: Depth [fresh water, m]
# name 1 = dz/dtM: Descent Rate [m/s]
# name 2 = sbeox0ML/L: Oxygen, SBE 43 [ml/l]
# name 3 = sbeox0PS: Oxygen, SBE 43 [% saturation]
# name 4 = specc: Specific Conductance [uS/cm]
# name 5 = c0uS/cm: Conductivity [uS/cm]
# name 6 = flECO-AFL: Fluorescence, WET Labs ECO-AFL/FL [mg/m^3]
# name 7 = ph: pH
# name 8 = orp: Oxidation Reduction Potential [mV]
# name 9 = par/sat/log: PAR/Logarithmic, Satlantic
# name 10 = turbWETntu0: Turbidity, WET Labs ECO [NTU]
# name 11 = prdM: Pressure, Strain Gauge [db]
# name 12 = prdE: Pressure, Strain Gauge [psi]
# name 13 = tv290C: Temperature [ITS-90, deg C]
# name 14 = density00: Density [density, kg/m^3]
# name 15 = flag:  0.000e+00
# span 0 =     -0.520,      3.368       
# span 1 =     -0.001,      0.258       
# span 2 =     3.7967,     7.9221       
# span 3 =     52.802,    113.069       
# span 4 =      1.508,     45.738       
# span 5 =   1.210734,  35.772782       
# span 6 =    -0.1522,     7.8460       
# span 7 =      6.680,      8.658       
# span 8 =   197.6241,   287.0508       
# span 9 = 1.2364e-01, 1.0627e+02       
# span 10 =    -0.5279,    35.9927      
# span 11 =     -0.511,      3.303      
# span 12 =     -0.741,      4.791      
# span 13 =    14.0992,    15.5261      
# span 14 =   999.0386,   999.2668      
# span 15 = 0.0000e+00, 0.0000e+00      
# interval = seconds: 0.25
# start_time = Oct 30 2019 10:38:21 [Instrument's time stamp, header]
# bad_flag = -9.990e-29
# <Sensors count="9" >
#   <sensor Channel="1" >
#     <!-- Count, Temperature -->
#     <TemperatureSensor SensorID="58" >
#       <SerialNumber>7809</SerialNumber>
#       <CalibrationDate>24-Mar-19</CalibrationDate>
#       <A0>1.21792325e-003</A0>
#       <A1>2.81669265e-004</A1>
#       <A2>-1.60333336e-006</A2>
#       <A3>1.98414625e-007</A3>
#       <Slope>1.00000000</Slope>
#       <Offset>0.0000</Offset>
#     </TemperatureSensor>
#   </sensor>
#   <sensor Channel="2" >
#     <!-- Frequency 0, Conductivity -->
#     <ConductivitySensor SensorID="3" >
#       <SerialNumber>7809</SerialNumber>
#       <CalibrationDate>24-Mar-19</CalibrationDate>
#       <UseG_J>1</UseG_J>
#       <!-- Cell const and series R are applicable only for wide range sensors. -->
#       <SeriesR>0.0000</SeriesR>
#       <CellConst>2000.0000</CellConst>
#       <ConductivityType>0</ConductivityType>
#       <Coefficients equation="0" >
#         <A>0.00000000e+000</A>
#         <B>0.00000000e+000</B>
#         <C>0.00000000e+000</C>
#         <D>0.00000000e+000</D>
#         <M>0.0</M>
#         <CPcor>-9.57000000e-008</CPcor>
#       </Coefficients>
#       <Coefficients equation="1" >
#         <G>-1.00589325e+000</G>
#         <H>1.26816302e-001</H>
#         <I>-1.51560448e-004</I>
#         <J>2.67137274e-005</J>
#         <CPcor>-9.57000000e-008</CPcor>
#         <CTcor>3.2500e-006</CTcor>
#         <!-- WBOTC not applicable unless ConductivityType = 1. -->
#         <WBOTC>0.00000000e+000</WBOTC>
#       </Coefficients>
#       <Slope>1.00000000</Slope>
#       <Offset>0.00000</Offset>
#     </ConductivitySensor>
#   </sensor>
#   <sensor Channel="3" >
#     <!-- Count, Pressure, Strain Gauge -->
#     <PressureSensor SensorID="46" >
#       <SerialNumber>7809</SerialNumber>
#       <CalibrationDate>11-Mar-19</CalibrationDate>
#       <PA0>4.56561833e-002</PA0>
#       <PA1>4.85095118e-004</PA1>
#       <PA2>-2.88327090e-012</PA2>
#       <PTEMPA0>-5.48784562e+001</PTEMPA0>
#       <PTEMPA1>5.53756816e+001</PTEMPA1>
#       <PTEMPA2>-5.86727098e-001</PTEMPA2>
#       <PTCA0>5.25246745e+005</PTCA0>
#       <PTCA1>1.22304214e+001</PTCA1>
#       <PTCA2>-3.56745036e-001</PTCA2>
#       <PTCB0>2.51668750e+001</PTCB0>
#       <PTCB1>3.75000000e-004</PTCB1>
#       <PTCB2>0.00000000e+000</PTCB2>
#       <Offset>0.000000</Offset>
#     </PressureSensor>
#   </sensor>
#   <sensor Channel="4" >
#     <!-- A/D voltage 0, Oxygen, SBE 43 -->
#     <OxygenSensor SensorID="38" >
#       <SerialNumber>0434</SerialNumber>
#       <CalibrationDate>13-Apr-19</CalibrationDate>
#       <Use2007Equation>1</Use2007Equation>
#       <CalibrationCoefficients equation="0" >
#         <!-- Coefficients for Owens-Millard equation. -->
#         <Boc>0.0000</Boc>
#         <Soc>0.0000e+000</Soc>
#         <offset>0.0000</offset>
#         <Pcor>0.00e+000</Pcor>
#         <Tcor>0.0000</Tcor>
#         <Tau>0.0</Tau>
#       </CalibrationCoefficients>
#       <CalibrationCoefficients equation="1" >
#         <!-- Coefficients for Sea-Bird equation - SBE calibration in 2007 and later. -->
#         <Soc>4.2007e-001</Soc>
#         <offset>-0.6109</offset>
#         <A>-4.3656e-003</A>
#         <B> 1.7017e-004</B>
#         <C>-2.5341e-006</C>
#         <D0> 2.5826e+000</D0>
#         <D1> 1.92634e-004</D1>
#         <D2>-4.64803e-002</D2>
#         <E> 3.6000e-002</E>
#         <Tau20> 1.1800</Tau20>
#         <H1>-3.3000e-002</H1>
#         <H2> 5.0000e+003</H2>
#         <H3> 1.4500e+003</H3>
#       </CalibrationCoefficients>
#     </OxygenSensor>
#   </sensor>
#   <sensor Channel="5" >
#     <!-- A/D voltage 1, PAR/Logarithmic, Satlantic -->
#     <PARLog_SatlanticSensor SensorID="76" >
#       <SerialNumber>1122</SerialNumber>
#       <CalibrationDate>08-May-2019</CalibrationDate>
#       <a0>9.7456e-001</a0>
#       <a1>8.1640e-001</a1>
#       <Im>1.3589e+000</Im>
#       <Multiplier>1.0000e+000</Multiplier>
#     </PARLog_SatlanticSensor>
#   </sensor>
#   <sensor Channel="6" >
#     <!-- A/D voltage 2, pH -->
#     <pH_Sensor SensorID="43" >
#       <SerialNumber>0363</SerialNumber>
#       <CalibrationDate>15-Apr-19</CalibrationDate>
#       <Slope>4.5952</Slope>
#       <Offset>2.5370</Offset>
#     </pH_Sensor>
#   </sensor>
#   <sensor Channel="7" >
#     <!-- A/D voltage 3, Oxidation Reduction Potential -->
#     <OxidationReductionPotentialSensor SensorID="41" >
#       <SerialNumber>0363</SerialNumber>
#       <CalibrationDate>15-Apr-19</CalibrationDate>
#       <B>2.499480</B>
#       <M>-0.496195</M>
#       <Offset>0.0</Offset>
#     </OxidationReductionPotentialSensor>
#   </sensor>
#   <sensor Channel="8" >
#     <!-- A/D voltage 4, Fluorometer, WET Labs ECO-AFL/FL -->
#     <FluoroWetlabECO_AFL_FL_Sensor SensorID="20" >
#       <SerialNumber>FLNTURT-2496</SerialNumber>
#       <CalibrationDate>08-May-2019</CalibrationDate>
#       <ScaleFactor>5.00000000e+001</ScaleFactor>
#       <!-- Dark output -->
#       <Vblank>0.0550</Vblank>
#     </FluoroWetlabECO_AFL_FL_Sensor>
#   </sensor>
#   <sensor Channel="9" >
#     <!-- A/D voltage 5, Turbidity Meter, WET Labs, ECO-NTU -->
#     <TurbidityMeter SensorID="67" >
#       <SerialNumber>FLNTURT-2496</SerialNumber>
#       <CalibrationDate>08-May-2019</CalibrationDate>
#       <ScaleFactor>189.000000</ScaleFactor>
#       <!-- Dark output -->
#       <DarkVoltage>0.071000</DarkVoltage>
#     </TurbidityMeter>
#   </sensor>
# </Sensors>
# datcnv_date = Oct 30 2019 15:31:58, 7.26.7.129 [datcnv_vars = 15]
# datcnv_in = C:\DATA\103019_fcr20.hex C:\DATA\SBE19plusV2_7809.xmlcon
# datcnv_skipover = 0
# datcnv_ox_hysteresis_correction = yes
# datcnv_ox_tau_correction = yes
# filter_date = Oct 30 2019 15:32:26, 7.26.7.129
# filter_in = C:\DATA\103019_fcr20.cnv
# filter_low_pass_tc_A = 0.030
# filter_low_pass_tc_B = 0.150
# filter_low_pass_A_vars = sbeox0ML/L prdM prdE tv290C density00
# filter_low_pass_B_vars = depFM dz/dtM sbeox0PS specc c0uS/cm flECO-AFL ph orp par/sat/log turbWETntu0
# alignctd_date = Oct 30 2019 15:32:46, 7.26.7.129
# alignctd_in = C:\DATA\103019_fcr20.cnv
# alignctd_adv = dz/dtM 1.000, sbeox0PS 1.000, specc 1.000, c0uS/cm 1.000, flECO-AFL 1.000, ph 1.000, orp 1.000, turbWETntu0 1.000                                                                                                   
# file_type = ascii
*END*
     -0.519 1.8053e-08     6.7031     95.291      1.510   1.212392    -0.1341      6.693   226.3974 8.1697e+01    -0.0399     -0.509     -0.739    15.1266   999.0856 0.0000e+00
     -0.519 1.6412e-09     6.7044     95.297      1.508   1.210734    -0.1298      6.690   221.7581 7.5877e+01    -0.0577     -0.509     -0.739    15.1267   999.0856 0.0000e+00
     -0.520 1.4940e-10     6.7057     95.310      1.528   1.226536    -0.1298      6.688   220.4087 6.9478e+01    -0.0635     -0.509     -0.739    15.1268   999.0856 0.0000e+00
     -0.520 1.5803e-11     6.7056     95.314      1.512   1.213370    -0.1431      6.688   220.3200 6.4265e+01    -0.1420     -0.511     -0.741    15.1267   999.0856 0.0000e+00
     -0.519 2.5876e-11     6.7051     95.323      1.547   1.241633    -0.1522      6.688   219.6539 5.9551e+01    -0.2531     -0.510     -0.738    15.1268   999.0856 0.0000e+00
     -0.519 2.7118e-10     6.7052     95.342      1.638   1.314800    -0.1443      6.690   218.6354 5.6686e+01    -0.2930     -0.509     -0.737    15.1267   999.0856 0.0000e+00
     -0.519 2.9819e-09     6.7074     95.345      1.667   1.337675    -0.1344      6.690   211.2749 5.6978e+01    -0.2960     -0.509     -0.738    15.1268   999.0856 0.0000e+00
     -0.519 3.2801e-08     6.7067     95.338      1.655   1.328126    -0.1363      6.684   200.2649 6.0030e+01    -0.3553     -0.509     -0.738    15.1269   999.0855 0.0000e+00
     -0.519 3.6081e-07     6.7070     95.335      1.652   1.326079    -0.1417      6.680   197.6241 6.4157e+01    -0.4532     -0.509     -0.738    15.1269   999.0855 0.0000e+00
     -0.519      0.000     6.7098     95.321      1.636   1.312915    -0.1385      6.686   201.6292 6.8768e+01    -0.4958     -0.509     -0.738    15.1270   999.0856 0.0000e+00
     -0.519      0.000     6.7095     95.301      1.614   1.295698    -0.1320      6.692   221.7600 7.3921e+01    -0.5101     -0.509     -0.738    15.1270   999.0856 0.0000e+00
     -0.519      0.000     6.7081     95.296      1.945   1.561439    -0.1331      6.747   258.2763 7.7735e+01    -0.5279     -0.509     -0.738    15.1272   999.0855 0.0000e+00
     -0.519      0.005     6.7089     95.301      6.427   5.159589    -0.1426      6.956   282.7259 7.9343e+01    -0.5145     -0.509     -0.737    15.1269   999.0856 0.0000e+00
     -0.519      0.020     6.7077     95.316     19.157  15.390748    -0.1433      7.327   287.0508 8.0025e+01    -0.4795     -0.510     -0.739    15.1273   999.0855 0.0000e+00
     -0.519      0.049     6.7052     95.333     33.089  26.612022    -0.1332      7.727   284.6709 8.1026e+01    -0.4328     -0.508     -0.736    15.1266   999.0856 0.0000e+00
     -0.517      0.086     6.7056     95.328     39.113  31.502246    -0.1153      8.032   283.1178 8.3983e+01    -0.2448     -0.511     -0.740    15.1278   999.0854 0.0000e+00
     -0.501      0.123     6.7058     95.309     39.924  32.208285    -0.0922      8.230   282.7272 8.9287e+01     0.0577     -0.505     -0.733    15.1261   999.0857 0.0000e+00
     -0.455      0.154     6.7056     95.292     40.127  32.419970    -0.0698      8.368   280.8089 9.5247e+01     0.2423     -0.454     -0.657    15.1334   999.0894 0.0000e+00
     -0.390      0.181     6.6999     95.261     40.224  32.538714     0.0515      8.475   276.9589 1.0084e+02     1.0370     -0.380     -0.550    15.1883   999.0876 0.0000e+00
     -0.326      0.206     6.6874     95.224     40.221  32.565221     1.3307      8.557   274.2068 1.0528e+02     9.9609     -0.315     -0.457    15.2670   999.0766 0.0000e+00
     -0.275      0.229     6.6756     95.234     40.180  32.550112     3.6670      8.613   273.1735 1.0627e+02    26.2753     -0.266     -0.385    15.3348   999.0662 0.0000e+00
     -0.235      0.247     6.6666     95.353     40.162  32.546440     4.9341      8.644   272.9826 1.0165e+02    35.1856     -0.234     -0.339    15.3964   999.0570 0.0000e+00
     -0.184      0.257     6.6571     95.620     40.124  32.520828     5.0424      8.658   273.1893 9.0030e+01    35.9927     -0.194     -0.280    15.4482   999.0491 0.0000e+00
     -0.104      0.258     6.6473     96.043     40.089  32.494289     5.0621      8.658   272.9190 7.1895e+01    35.5755     -0.108     -0.156    15.4843   999.0439 0.0000e+00
     -0.012      0.246     6.6438     96.580     40.071  32.479406     5.1892      8.650   272.1237 5.3161e+01    30.4360     -0.006     -0.008    15.5059   999.0409 0.0000e+00
      0.070      0.216     6.6490     97.129     40.061  32.467793     5.4092      8.639   271.4897 3.9507e+01    21.1093      0.075      0.109    15.5176   999.0395 0.0000e+00
      0.131      0.170     6.6670     97.593     40.081  32.480795     5.5113      8.625   271.1042 3.1861e+01    16.0447      0.141      0.204    15.5231   999.0389 0.0000e+00
      0.161      0.115     6.6969     97.969     40.120  32.509691     5.5135      8.610   270.6456 2.9239e+01    15.5725      0.170      0.247    15.5259   999.0386 0.0000e+00
      0.165      0.064     6.7368     98.238     40.186  32.563330     5.5222      8.594   270.0741 2.9068e+01    15.3673      0.162      0.236    15.5250   999.0388 0.0000e+00
      0.160      0.027     6.7801     98.333     40.255  32.621650     5.5301      8.578   269.4436 2.9939e+01    15.0709      0.156      0.226    15.5194   999.0395 0.0000e+00
      0.156      0.007     6.8115     98.294     40.279  32.643676     5.5393      8.563   268.8724 3.1211e+01    14.9061      0.153      0.222    15.5140   999.0404 0.0000e+00
      0.155      0.004     6.8383     98.236     40.271  32.639272     5.5385      8.549   268.4171 3.1331e+01    14.8818      0.151      0.221    15.5108   999.0409 0.0000e+00
      0.156      0.009     6.8606     98.168     40.261  32.631860     5.5550      8.538   267.8960 3.0713e+01    15.1055      0.153      0.221    15.5111   999.0409 0.0000e+00
      0.159      0.015     6.8655     98.028     40.241  32.617515     5.6081      8.528   267.3904 3.0005e+01    15.5461      0.153      0.222    15.5143   999.0404 0.0000e+00
      0.166      0.018     6.8574     97.764     40.210  32.592757     5.6432      8.519   267.0358 2.8827e+01    15.7512      0.162      0.235    15.5177   999.0399 0.0000e+00
      0.176      0.018     6.8536     97.315     40.202  32.586354     5.6497      8.510   266.6203 2.7588e+01    15.7177      0.174      0.252    15.5206   999.0395 0.0000e+00
      0.183      0.016     6.8511     96.686     40.223  32.603566     5.6087      8.502   266.1516 2.6820e+01    15.5023      0.181      0.262    15.5228   999.0392 0.0000e+00
      0.185      0.012     6.8410     95.948     40.231  32.610481     5.5287      8.495   265.8425 2.6648e+01    15.1125      0.182      0.264    15.5240   999.0390 0.0000e+00
      0.185      0.007     6.8253     95.159     40.226  32.606500     5.4896      8.488   265.5507 2.6919e+01    14.9050      0.181      0.263    15.5248   999.0388 0.0000e+00
      0.185      0.004     6.7937     94.336     40.241  32.618894     5.4740      8.480   265.1187 2.7228e+01    14.8938      0.181      0.263    15.5249   999.0388 0.0000e+00
      0.185      0.002     6.7474     93.499     40.259  32.633406     5.4531      8.473   264.7492 2.7403e+01    14.8790      0.180      0.261    15.5247   999.0389 0.0000e+00
      0.186      0.002     6.6944     92.716     40.286  32.655050     5.4358      8.466   264.4380 2.7381e+01    14.8567      0.181      0.264    15.5245   999.0389 0.0000e+00
      0.186      0.002     6.6393     92.034     40.329  32.690199     5.4208      8.459   264.1096 2.7103e+01    14.8542      0.182      0.264    15.5247   999.0389 0.0000e+00
      0.187      0.002     6.5817     91.404     40.313  32.677621     5.4203      8.453   263.8765 2.6814e+01    14.8807      0.183      0.266    15.5253   999.0388 0.0000e+00
      0.188      0.001     6.5213     90.786     40.254  32.629901     5.4287      8.448   263.6836 2.6732e+01    14.9161      0.185      0.269    15.5255   999.0388 0.0000e+00
      0.188      0.000     6.4645     90.194     40.243  32.620907     5.4872      8.443   263.4127 2.6764e+01    15.0190      0.185      0.268    15.5254   999.0388 0.0000e+00
      0.188      0.000     6.4192     89.603     40.258  32.632341     5.5987      8.438   263.0960 2.6856e+01    15.2073      0.184      0.267    15.5257   999.0388 0.0000e+00
      0.187     -0.001     6.3770     88.989     40.269  32.641220     5.6583      8.432   262.8663 2.6949e+01    15.3246      0.184      0.266    15.5258   999.0388 0.0000e+00
      0.187     -0.001     6.3317     88.374     40.298  32.664804     5.6528      8.427   262.7856 2.6968e+01    15.3552      0.183      0.266    15.5260   999.0387 0.0000e+00
      0.187      0.000     6.2923     87.810     40.297  32.663649     5.5588      8.422   262.7223 2.6982e+01    15.3813      0.183      0.265    15.5258   999.0387 0.0000e+00
      0.187      0.000     6.2515     87.355     40.252  32.627256     5.3889      8.417   262.5318 2.6940e+01    15.3779      0.183      0.265    15.5255   999.0388 0.0000e+00
      0.187      0.001     6.2079     87.007     40.225  32.605548     5.3066      8.412   262.3753 2.6801e+01    15.3802      0.184      0.266    15.5253   999.0388 0.0000e+00
      0.188      0.001     6.1642     86.740     40.207  32.591555     5.3092      8.409   262.2921 2.6664e+01    15.4087      0.184      0.267    15.5252   999.0388 0.0000e+00
      0.188      0.001     6.1224     86.535     40.199  32.584985     5.3427      8.406   262.1277 2.6617e+01    15.4937      0.184      0.267    15.5253   999.0388 0.0000e+00
      0.188      0.000     6.0913     86.377     40.205  32.589585     5.4170      8.402   261.9372 2.6685e+01    15.6538      0.185      0.268    15.5252   999.0388 0.0000e+00
      0.188 1.8614e-08     6.0680     86.272     40.198  32.583710     5.4622      8.398   261.7955 2.6806e+01    15.7717      0.184      0.267    15.5253   999.0388 0.0000e+00
      0.188 2.0475e-07     6.0493     86.197     40.190  32.577412     5.4722      8.394   261.7911 2.6891e+01    15.8048      0.184      0.267    15.5257   999.0387 0.0000e+00
      0.187 2.0475e-07     6.0358     86.103     40.189  32.576891     5.5470      8.390   261.7977 2.6879e+01    15.7257      0.184      0.266    15.5259   999.0387 0.0000e+00
      0.187 1.8614e-08     6.0243     85.974     40.190  32.577411     5.6821      8.385   261.6167 2.6831e+01    15.6019      0.183      0.266    15.5258   999.0387 0.0000e+00
      0.187 1.6921e-09     6.0172     85.802     40.197  32.583710     5.7528      8.381   261.4098 2.6814e+01    15.5860      0.184      0.266    15.5257   999.0387 0.0000e+00
      0.187 1.5360e-10     6.0143     85.588     40.204  32.589582     5.7523      8.378   261.2748 2.6812e+01    15.6321      0.184      0.267    15.5256   999.0387 0.0000e+00
      0.187 1.1440e-11     6.0072     85.355     40.199  32.584947     5.7366      8.376   261.1891 2.6853e+01    15.8971      0.184      0.266    15.5254   999.0388 0.0000e+00
      0.187 -2.672e-11     5.9988     85.095     40.207  32.591135     5.7189      8.373   261.1486 2.6910e+01    16.3975      0.184      0.267    15.5255   999.0387 0.0000e+00
      0.187 -3.078e-10     5.9868     84.794     40.219  32.600948     5.7114      8.368   261.1281 2.6904e+01    16.6682      0.183      0.266    15.5256   999.0387 0.0000e+00
      0.187 -3.387e-09     5.9707     84.479     40.189  32.576667     5.7066      8.365   261.1133 2.6889e+01    16.6792      0.183      0.266    15.5257   999.0387 0.0000e+00
      0.187 -3.726e-08     5.9548     84.149     40.158  32.551391     5.7037      8.363   261.0567 2.6891e+01    16.6626      0.184      0.266    15.5260   999.0387 0.0000e+00
      0.188 -4.098e-07     5.9378     83.759     40.155  32.549187     5.7202      8.360   260.9593 2.6894e+01    16.7616      0.184      0.267    15.5261   999.0387 0.0000e+00
      0.188      0.000     5.9155     83.354     40.156  32.550018     5.7492      8.358   260.8827 2.6943e+01    16.9592      0.184      0.267    15.5261   999.0387 0.0000e+00
      0.188      0.000     5.8925     82.992     40.170  32.561442     5.7687      8.357   260.8182 2.7026e+01    17.0195      0.184      0.266    15.5260   999.0387 0.0000e+00
      0.188     -0.001     5.8731     82.656     40.169  32.560392     5.7751      8.356   260.6964 2.7067e+01    16.9665      0.184      0.267    15.5258   999.0387 0.0000e+00
      0.188     -0.001     5.8434     82.323     40.141  32.537315     5.8085      8.355   260.6146 2.7007e+01    16.7121      0.184      0.267    15.5257   999.0387 0.0000e+00
      0.187     -0.001     5.8128     81.983     40.140  32.536275     5.8690      8.353   260.6035 2.6886e+01    16.2700      0.184      0.266    15.5256   999.0387 0.0000e+00
      0.187     -0.001     5.7895     81.643     40.154  32.547813     5.8907      8.352   260.5624 2.6851e+01    16.0122      0.183      0.265    15.5256   999.0387 0.0000e+00
      0.187     -0.001     5.7659     81.321     40.156  32.549893     5.8896      8.351   260.4611 2.6931e+01    15.9877      0.183      0.265    15.5253   999.0388 0.0000e+00
      0.186     -0.000     5.7432     81.036     40.171  32.561431     5.9504      8.350   260.3252 2.6979e+01    16.4333      0.183      0.265    15.5252   999.0388 0.0000e+00
      0.186      0.000     5.7194     80.779     40.170  32.560391     6.0625      8.348   260.2964 2.6949e+01    17.2377      0.183      0.265    15.5252   999.0388 0.0000e+00
      0.186      0.000     5.6952     80.519     40.141  32.537314     6.1261      8.345   260.2848 2.6891e+01    17.6509      0.183      0.265    15.5250   999.0388 0.0000e+00
      0.186      0.001     5.6719     80.267     40.141  32.536264     6.1306      8.344   260.1853 2.6853e+01    17.6937      0.183      0.265    15.5250   999.0388 0.0000e+00
      0.187      0.001     5.6521     80.017     40.155  32.547698     6.0906      8.344   260.1254 2.6828e+01    17.8536      0.183      0.266    15.5248   999.0389 0.0000e+00
      0.187      0.001     5.6363     79.782     40.156  32.548635     6.0237      8.343   260.0774 2.6771e+01    18.1752      0.184      0.266    15.5246   999.0389 0.0000e+00
      0.187      0.001     5.6164     79.586     40.156  32.547585     5.9983      8.340   259.9489 2.6715e+01    18.3700      0.184      0.266    15.5243   999.0389 0.0000e+00
      0.188      0.001     5.6000     79.392     40.142  32.535005     6.0088      8.337   259.7760 2.6684e+01    18.4063      0.184      0.267    15.5241   999.0389 0.0000e+00
      0.188      0.000     5.5823     79.174     40.129  32.523457     6.0037      8.334   259.6219 2.6684e+01    18.3855      0.184      0.267    15.5240   999.0390 0.0000e+00
      0.188 5.0344e-09     5.5638     78.940     40.144  32.534881     5.9185      8.333   259.4624 2.6679e+01    18.3803      0.185      0.268    15.5235   999.0390 0.0000e+00
      0.188 5.5378e-08     5.5527     78.724     40.159  32.546211     5.7767      8.330   259.3102 2.6644e+01    18.4742      0.184      0.267    15.5229   999.0391 0.0000e+00
      0.188 5.8407e-08     5.5394     78.539     40.144  32.533518     5.7108      8.328   259.2440 2.6617e+01    18.5699      0.184      0.267    15.5221   999.0393 0.0000e+00
      0.188 4.1659e-08     5.5244     78.371     40.114  32.508342     5.7291      8.327   259.2642 2.6597e+01    18.5874      0.184      0.267    15.5209   999.0394 0.0000e+00
      0.188 4.0362e-07     5.5071     78.207     40.099  32.495649     5.8762      8.324   259.2105 2.6578e+01    18.5221      0.184      0.267    15.5198   999.0396 0.0000e+00
      0.188      0.000     5.4913     78.038     40.114  32.506968     6.1371      8.322   259.0245 2.6590e+01    18.4360      0.184      0.267    15.5188   999.0398 0.0000e+00
      0.188      0.000     5.4798     77.851     40.129  32.518278     6.2819      8.320   258.8211 2.6625e+01    18.3982      0.185      0.268    15.5177   999.0400 0.0000e+00
      0.188      0.001     5.4680     77.657     40.114  32.505472     6.2928      8.317   258.6443 2.6646e+01    18.3605      0.184      0.267    15.5168   999.0401 0.0000e+00
      0.188      0.001     5.4570     77.478     40.082  32.479048     6.2517      8.315   257.6614 2.6667e+01    17.9798      0.184      0.267    15.5161   999.0402 0.0000e+00
      0.188      0.000     5.4457     77.308     40.050  32.452634     6.1741      8.316   256.6604 2.6710e+01    17.2690      0.184      0.266    15.5151   999.0404 0.0000e+00
      0.188     -0.001     5.4327     77.148     40.036  32.439953     6.1264      8.317   257.3813 2.6636e+01    16.8788      0.185      0.267    15.5141   999.0405 0.0000e+00
      0.188      0.002     5.4179     77.018     40.052  32.452635     6.1165      8.316   258.0320 2.6401e+01    16.8662      0.186      0.269    15.5132   999.0407 0.0000e+00
      0.188      0.008     5.4063     76.892     40.086  32.479049     6.0378      8.312   256.0110 2.6552e+01    16.9861      0.186      0.270    15.5124   999.0408 0.0000e+00
      0.185      0.019     5.3950     76.778     40.119  32.505472     5.8769      8.304   252.3036 2.7124e+01    17.1812      0.181      0.262    15.5116   999.0409 0.0000e+00
      0.186      0.034     5.3819     76.730     40.135  32.518277     5.7836      8.290   250.0310 2.6927e+01    17.2579      0.179      0.259    15.5102   999.0411 0.0000e+00
      0.195      0.052     5.3754     76.795     40.120  32.506948     5.7771      8.276   249.3548 2.5777e+01    17.2907      0.190      0.276    15.5088   999.0414 0.0000e+00
      0.212      0.071     5.3659     76.998     40.105  32.495420     5.8584      8.262   249.0326 2.3994e+01    17.6772      0.205      0.297    15.5080   999.0416 0.0000e+00
      0.237      0.089     5.3565     77.340     40.116  32.505815     6.0216      8.247   248.9741 2.1528e+01    18.2923      0.230      0.333    15.5079   999.0417 0.0000e+00
      0.267      0.104     5.3517     77.789     40.115  32.505701     6.1115      8.231   248.9919 1.9333e+01    18.5671      0.266      0.385    15.5080   999.0419 0.0000e+00
      0.296      0.112     5.3559     78.306     40.100  32.494049     6.1222      8.215   249.0762 1.7796e+01    18.5745      0.291      0.421    15.5079   999.0420 0.0000e+00
      0.326      0.112     5.3698     78.868     40.098  32.491845     6.1765      8.203   249.2191 1.6527e+01    18.5129      0.318      0.462    15.5091   999.0419 0.0000e+00
      0.359      0.106     5.3940     79.403     40.083  32.479056     6.2737      8.195   249.3419 1.5377e+01    18.3460      0.353      0.513    15.5111   999.0418 0.0000e+00
      0.389      0.097     5.4274     79.851     40.067  32.466345     6.3263      8.190   249.4423 1.4392e+01    18.2287      0.384      0.558    15.5124   999.0417 0.0000e+00
      0.413      0.087     5.4619     80.187     40.064  32.465077     6.3278      8.186   249.4865 1.3744e+01    18.2088      0.408      0.592    15.5125   999.0418 0.0000e+00
      0.431      0.076     5.5046     80.375     40.062  32.463724     6.3255      8.181   249.4463 1.3276e+01    18.1704      0.425      0.616    15.5116   999.0420 0.0000e+00
      0.446      0.065     5.5436     80.423     40.045  32.449993     6.3679      8.174   249.3870 1.2795e+01    17.6999      0.438      0.635    15.5109   999.0422 0.0000e+00
      0.461      0.056     5.5741     80.354     40.015  32.425970     6.4502      8.166   249.3711 1.2326e+01    16.8784      0.451      0.655    15.5115   999.0422 0.0000e+00
      0.475      0.051     5.5996     80.159     40.016  32.427115     6.4892      8.160   249.5127 1.1957e+01    16.4633      0.466      0.676    15.5123   999.0421 0.0000e+00
      0.487      0.051     5.6122     79.861     40.062  32.463827     6.4837      8.154   249.7218 1.1702e+01    16.4169      0.479      0.694    15.5126   999.0421 0.0000e+00
      0.497      0.054     5.6139     79.502     40.093  32.489088     6.5392      8.147   249.8343 1.1567e+01    16.5468      0.489      0.708    15.5131   999.0421 0.0000e+00
      0.507      0.059     5.6107     79.107     40.081  32.478706     6.6581      8.139   249.9272 1.1405e+01    16.8539      0.494      0.717    15.5136   999.0420 0.0000e+00
      0.522      0.063     5.5958     78.715     40.065  32.465213     6.7158      8.130   249.9844 1.0985e+01    17.0169      0.508      0.738    15.5142   999.0420 0.0000e+00
      0.544      0.064     5.5736     78.359     40.050  32.452865     6.6904      8.121   250.0103 1.0466e+01    16.9779      0.534      0.774    15.5142   999.0421 0.0000e+00
      0.565      0.064     5.5489     78.052     40.054  32.456328     6.4554      8.114   250.0676 1.0092e+01    16.5789      0.555      0.804    15.5130   999.0424 0.0000e+00
      0.583      0.059     5.5198     77.791     40.117  32.507087     6.0246      8.107   250.1606 9.8400e+00    15.8951      0.573      0.831    15.5122   999.0426 0.0000e+00
      0.598      0.052     5.4922     77.666     40.184  32.558905     5.7821      8.101   250.2751 9.6861e+00    15.5603      0.588      0.852    15.5117   999.0427 0.0000e+00
      0.608      0.045     5.4662     78.072     40.210  32.575165     5.7768      8.095   250.4192 9.6087e+00    15.5783      0.597      0.866    15.5117   999.0428 0.0000e+00
      0.615      0.043     5.4462     79.783     40.220  32.576747     5.9863      8.087   250.6122 9.5980e+00    15.6871      0.604      0.877    15.5118   999.0428 0.0000e+00
      0.621      0.046     5.4263     83.287     40.229  32.578027     6.3654      8.078   250.7163 9.5725e+00    15.8599      0.608      0.882    15.5121   999.0428 0.0000e+00
      0.630      0.052     5.4109     88.220     40.251  32.590637     6.5716      8.067   250.8168 9.4139e+00    15.9632      0.616      0.892    15.5099   999.0431 0.0000e+00
      0.644      0.058     5.4165     93.840     40.272  32.602282     6.5979      8.057   251.0537 9.1362e+00    15.9860      0.630      0.914    15.5026   999.0445 0.0000e+00
      0.664      0.064     5.5180     99.475     40.265  32.591887     6.5969      8.047   251.2568 8.7693e+00    15.9713      0.650      0.943    15.4944   999.0458 0.0000e+00
      0.686      0.066     5.7797    104.575     40.267  32.591876     6.5156      8.037   251.2938 8.4175e+00    15.9493      0.674      0.977    15.4867   999.0471 0.0000e+00
      0.706      0.064     6.1448    108.723     40.282  32.602146     6.3779      8.029   251.2432 8.1775e+00    15.9489      0.694      1.007    15.4801   999.0482 0.0000e+00
      0.721      0.059     6.5535    111.572     40.268  32.589141     6.3104      8.023   251.2467 8.0040e+00    15.9673      0.708      1.026    15.4736   999.0493 0.0000e+00
      0.734      0.054     6.9623    112.941     40.238  32.561555     6.3064      8.018   251.3367 7.8504e+00    16.0076      0.720      1.045    15.4673   999.0504 0.0000e+00
      0.744      0.050     7.3276    113.069     40.194  32.522449     6.2349      8.013   251.4714 7.6945e+00    15.9444      0.730      1.059    15.4655   999.0507 0.0000e+00
      0.754      0.050     7.6259    112.460     40.171  32.497065     6.0956      8.008   251.5841 7.5141e+00    15.7925      0.738      1.071    15.4651   999.0508 0.0000e+00
      0.766      0.053     7.8332    111.519     40.201  32.508482     6.0179      8.001   251.6672 7.3041e+00    15.7440      0.751      1.089    15.4624   999.0513 0.0000e+00
      0.780      0.057     7.9221    110.487     40.256  32.533544     5.9987      7.993   251.7878 7.0459e+00    15.7844      0.764      1.108    15.4584   999.0520 0.0000e+00
      0.796      0.061     7.9161    109.502     40.293  32.546218     5.9761      7.986   252.0101 6.7524e+00    16.0184      0.779      1.130    15.4542   999.0527 0.0000e+00
      0.813      0.063     7.8656    108.615     40.294  32.534785     5.9601      7.979   252.2038 6.4619e+00    16.4437      0.797      1.156    15.4477   999.0538 0.0000e+00
      0.832      0.064     7.7970    107.833     40.294  32.522217     5.9535      7.971   252.1510 6.2171e+00    16.6670      0.816      1.185    15.4315   999.0564 0.0000e+00
      0.849      0.063     7.7259    107.132     40.315  32.521171     5.9480      7.965   252.0604 6.0257e+00    16.6533      0.832      1.209    15.4039   999.0607 0.0000e+00
      0.864      0.061     7.6604    106.436     40.340  32.522110     5.8940      7.960   252.1400 5.8328e+00    16.5395      0.847      1.229    15.3793   999.0648 0.0000e+00
      0.879      0.058     7.5999    105.673     40.376  32.533548     5.7858      7.954   252.2530 5.6349e+00    16.3403      0.864      1.253    15.3692   999.0663 0.0000e+00
      0.894      0.056     7.5472    104.803     40.395  32.532521     5.7150      7.948   252.3945 5.4582e+00    16.2112      0.877      1.272    15.3560   999.0684 0.0000e+00
      0.908      0.055     7.5052    103.815     40.385  32.509676     5.6973      7.940   252.5597 5.3037e+00    16.1907      0.891      1.292    15.3299   999.0725 0.0000e+00
      0.920      0.055     7.4620    102.736     40.405  32.511151     5.6844      7.931   252.7019 5.1521e+00    16.2573      0.903      1.310    15.3050   999.0764 0.0000e+00
      0.934      0.057     7.4127    101.616     40.471  32.550341     5.6629      7.922   252.8235 4.9592e+00    16.3940      0.915      1.326    15.2837   999.0798 0.0000e+00
      0.949      0.060     7.3556    100.494     40.556  32.602739     5.6454      7.913   252.9120 4.7411e+00    16.4340      0.931      1.350    15.2638   999.0829 0.0000e+00
      0.964      0.063     7.2883     99.398     40.619  32.636978     5.6461      7.903   252.9973 4.5355e+00    16.3798      0.946      1.373    15.2454   999.0858 0.0000e+00
      0.980      0.064     7.2136     98.363     40.651  32.646992     5.6707      7.894   253.0798 4.3269e+00    16.3616      0.960      1.392    15.2277   999.0886 0.0000e+00
      0.998      0.064     7.1372     97.455     40.682  32.660336     5.8219      7.885   253.2228 4.1200e+00    16.1154      0.978      1.419    15.2100   999.0914 0.0000e+00
      1.017      0.062     7.0598     96.655     40.704  32.671377     6.0871      7.875   253.4346 3.9468e+00    15.5981      0.999      1.449    15.1923   999.0942 0.0000e+00
      1.034      0.058     6.9864     95.864     40.686  32.653566     6.2330      7.867   253.5760 3.8056e+00    15.3191      1.015      1.472    15.1712   999.0976 0.0000e+00
      1.049      0.053     6.9137     95.101     40.668  32.635361     6.2340      7.862   253.6416 3.6996e+00    15.2973      1.029      1.493    15.1493   999.1011 0.0000e+00
      1.061      0.048     6.8519     94.418     40.685  32.641638     6.1678      7.856   253.7117 3.6367e+00    15.3346      1.042      1.511    15.1348   999.1033 0.0000e+00
      1.070      0.046     6.8023     93.813     40.731  32.665997     6.0656      7.848   253.8208 3.5811e+00    15.4427      1.049      1.521    15.1278   999.1043 0.0000e+00
      1.079      0.046     6.7444     93.303     40.762  32.676025     6.0121      7.841   253.9288 3.5086e+00    15.5225      1.057      1.533    15.1246   999.1049 0.0000e+00
      1.089      0.048     6.6894     92.903     40.729  32.635945     6.0074      7.834   254.0713 3.4176e+00    15.5457      1.068      1.549    15.1214   999.1055 0.0000e+00
      1.102      0.052     6.6437     92.562     40.653  32.562147     6.0608      7.827   254.2533 3.2989e+00    15.8545      1.078      1.564    15.1137   999.1067 0.0000e+00
      1.117      0.056     6.6028     92.259     40.570  32.481795     6.1723      7.819   254.4079 3.1733e+00    16.5038      1.095      1.588    15.0982   999.1091 0.0000e+00
      1.133      0.059     6.5677     91.947     40.519  32.425937     6.2459      7.809   254.5639 3.0545e+00    16.8738      1.111      1.612    15.0777   999.1123 0.0000e+00
      1.149      0.060     6.5455     91.533     40.501  32.394447     6.2743      7.799   254.6772 2.9138e+00    16.8549      1.126      1.634    15.0605   999.1150 0.0000e+00
      1.166      0.060     6.5230     91.080     40.474  32.354863     6.3500      7.790   254.8311 2.7718e+00    16.4390      1.144      1.659    15.0459   999.1173 0.0000e+00
      1.181      0.060     6.5039     90.692     40.464  32.328074     6.4675      7.781   255.0481 2.6657e+00    15.6796      1.159      1.681    15.0287   999.1198 0.0000e+00
      1.194      0.061     6.4904     90.388     40.483  32.324369     6.5343      7.772   255.3223 2.5709e+00    15.2762      1.171      1.698    15.0105   999.1226 0.0000e+00
      1.208      0.063     6.4604     90.181     40.486  32.310044     6.5588      7.763   255.6513 2.4596e+00    15.2646      1.183      1.715    14.9890   999.1260 0.0000e+00
      1.223      0.065     6.4280     90.088     40.469  32.281771     6.6683      7.753   255.8430 2.3330e+00    15.0475      1.198      1.738    14.9660   999.1295 0.0000e+00
      1.242      0.067     6.4046     90.116     40.429  32.236352     6.8530      7.745   256.0054 2.2037e+00    14.6171      1.217      1.765    14.9436   999.1329 0.0000e+00
      1.262      0.068     6.3860     90.266     40.409  32.205096     6.9453      7.739   256.2375 2.0829e+00    14.4205      1.238      1.794    14.9190   999.1367 0.0000e+00
      1.281      0.066     6.3737     90.504     40.445  32.221137     6.9519      7.731   256.4126 1.9860e+00    14.4403      1.257      1.823    14.8972   999.1400 0.0000e+00
      1.298      0.062     6.3697     90.765     40.479  32.239903     6.9676      7.725   256.5741 1.9162e+00    14.3969      1.274      1.848    14.8810   999.1426 0.0000e+00
      1.313      0.058     6.3730     90.997     40.486  32.241610     7.1180      7.721   256.7273 1.8452e+00    14.1259      1.288      1.869    14.8649   999.1450 0.0000e+00
      1.325      0.055     6.3877     91.176     40.488  32.241769     7.3910      7.715   256.8888 1.7776e+00    13.7191      1.300      1.886    14.8444   999.1481 0.0000e+00
      1.337      0.053     6.4091     91.311     40.488  32.241815     7.5374      7.707   256.9775 1.7367e+00    13.5097      1.311      1.901    14.8267   999.1508 0.0000e+00
      1.349      0.052     6.4300     91.429     40.486  32.242170     7.5448      7.699   256.9393 1.6973e+00    13.4616      1.321      1.916    14.8173   999.1523 0.0000e+00
      1.364      0.052     6.4476     91.528     40.493  32.246072     7.4813      7.694   257.0291 1.6381e+00    13.2039      1.337      1.939    14.8135   999.1529 0.0000e+00
      1.380      0.051     6.4603     91.572     40.558  32.288985     7.3499      7.689   257.1168 1.5859e+00    12.7204      1.355      1.965    14.8114   999.1533 0.0000e+00
      1.393      0.050     6.4686     91.553     40.691  32.380254     7.2651      7.684   257.1390 1.5565e+00    12.4328      1.367      1.983    14.8121   999.1532 0.0000e+00
      1.405      0.047     6.4762     91.485     40.813  32.461129     7.2539      7.678   257.2972 1.5267e+00    12.3484      1.378      1.998    14.8167   999.1525 0.0000e+00
      1.416      0.044     6.4849     91.376     40.885  32.505282     7.2744      7.672   257.4814 1.4907e+00    11.7002      1.389      2.014    14.8168   999.1526 0.0000e+00
      1.426      0.043     6.4897     91.213     40.932  32.533320     7.3140      7.665   257.6450 1.4577e+00    10.4944      1.399      2.029    14.8059   999.1543 0.0000e+00
      1.436      0.044     6.4903     90.935     40.956  32.546279     7.3338      7.659   257.8132 1.4204e+00     9.8290      1.408      2.042    14.7853   999.1575 0.0000e+00
      1.447      0.046     6.4891     90.507     40.947  32.535035     7.3318      7.653   257.9652 1.3794e+00     9.7182      1.417      2.055    14.7627   999.1609 0.0000e+00
      1.458      0.049     6.4826     89.906     40.937  32.524290     7.4547      7.647   258.1070 1.3459e+00     9.4826      1.430      2.075    14.7461   999.1635 0.0000e+00
      1.470      0.054     6.4756     89.101     40.964  32.543277     7.7095      7.639   258.2366 1.3174e+00     9.1764      1.442      2.092    14.7361   999.1650 0.0000e+00
      1.484      0.059     6.4573     88.175     41.006  32.574223     7.8460      7.631   258.4136 1.2769e+00     9.0633      1.453      2.108    14.7296   999.1660 0.0000e+00
      1.501      0.061     6.4272     87.235     41.016  32.581147     7.8227      7.623   258.6127 1.2250e+00     8.9993      1.471      2.134    14.7246   999.1668 0.0000e+00
      1.519      0.061     6.3882     86.311     40.995  32.563529     7.4704      7.616   258.7522 1.1835e+00     8.2401      1.490      2.161    14.7210   999.1674 0.0000e+00
      1.538      0.059     6.3277     85.445     40.980  32.551584     6.8200      7.610   258.8092 1.1501e+00     6.8646      1.508      2.189    14.7178   999.1680 0.0000e+00
      1.554      0.056     6.2592     84.733     40.995  32.563653     6.4616      7.605   258.7855 1.1115e+00     6.0986      1.526      2.213    14.7147   999.1686 0.0000e+00
      1.566      0.051     6.1925     84.220     41.020  32.582531     6.4138      7.600   258.8102 1.0682e+00     6.0249      1.536      2.228    14.7133   999.1688 0.0000e+00
      1.576      0.048     6.1271     83.907     41.029  32.589455     6.3634      7.596   258.9354 1.0362e+00     6.0713      1.544      2.240    14.7129   999.1689 0.0000e+00
      1.586      0.047     6.0613     83.784     41.024  32.583905     5.9489      7.591   259.0947 1.0164e+00     6.1027      1.555      2.256    14.7124   999.1690 0.0000e+00
      1.597      0.048     6.0102     83.769     41.022  32.578885     5.1824      7.585   259.2742 9.8727e-01     6.0776      1.565      2.270    14.7123   999.1691 0.0000e+00
      1.609      0.050     5.9748     83.784     41.043  32.592212     4.7590      7.578   259.4707 9.5626e-01     6.0624      1.577      2.287    14.7117   999.1692 0.0000e+00
      1.622      0.053     5.9512     83.823     41.081  32.618118     4.6969      7.573   259.6631 9.4079e-01     6.0178      1.592      2.308    14.7115   999.1693 0.0000e+00
      1.637      0.055     5.9460     83.859     41.113  32.638254     4.5349      7.568   259.7080 9.2753e-01     5.8658      1.606      2.327    14.7103   999.1696 0.0000e+00
      1.652      0.057     5.9480     83.845     41.131  32.645284     4.2661      7.563   259.6699 8.9887e-01     5.6656      1.621      2.350    14.7063   999.1702 0.0000e+00
      1.666      0.059     5.9485     83.778     41.132  32.639645     4.1252      7.558   259.7181 8.7215e-01     5.5961      1.635      2.371    14.7016   999.1710 0.0000e+00
      1.681      0.059     5.9526     83.663     41.131  32.633523     4.1321      7.552   259.8605 8.5472e-01     5.6161      1.648      2.390    14.6966   999.1718 0.0000e+00
      1.696      0.058     5.9586     83.502     41.137  32.634720     4.2891      7.546   260.1014 8.3359e-01     5.5144      1.663      2.412    14.6894   999.1729 0.0000e+00
      1.712      0.056     5.9573     83.281     41.166  32.654122     4.5759      7.542   260.3080 8.1653e-01     5.3168      1.679      2.436    14.6809   999.1743 0.0000e+00
      1.728      0.053     5.9544     83.001     41.202  32.677722     4.7379      7.537   260.4658 8.0467e-01     5.1923      1.695      2.458    14.6728   999.1755 0.0000e+00
      1.742      0.049     5.9463     82.700     41.193  32.666199     4.7566      7.532   260.6320 7.8696e-01     5.1564      1.709      2.478    14.6660   999.1766 0.0000e+00
      1.753      0.044     5.9361     82.419     41.166  32.641720     4.7415      7.527   260.7686 7.5264e-01     5.0468      1.720      2.495    14.6621   999.1772 0.0000e+00
      1.762      0.040     5.9212     82.180     41.157  32.635596     4.7035      7.522   260.8272 7.2660e-01     4.8171      1.728      2.507    14.6588   999.1778 0.0000e+00
      1.771      0.037     5.9003     81.975     41.176  32.655622     4.6871      7.517   260.9105 7.2369e-01     4.6734      1.738      2.521    14.6529   999.1787 0.0000e+00
      1.779      0.037     5.8792     81.777     41.219  32.693477     4.6814      7.513   261.0866 7.1322e-01     4.6866      1.745      2.531    14.6456   999.1798 0.0000e+00
      1.786      0.039     5.8589     81.594     41.242  32.712524     4.4606      7.508   261.1505 6.9322e-01     4.7141      1.751      2.539    14.6409   999.1805 0.0000e+00
      1.796      0.042     5.8420     81.504     41.225  32.695532     4.0288      7.503   261.1660 6.8061e-01     4.6789      1.761      2.554    14.6426   999.1803 0.0000e+00
      1.808      0.045     5.8273     81.526     41.210  32.678406     3.7791      7.498   261.3607 6.6889e-01     4.6539      1.773      2.571    14.6503   999.1792 0.0000e+00
      1.822      0.048     5.8135     81.611     41.240  32.695832     3.7471      7.492   261.6117 6.4673e-01     4.6739      1.787      2.591    14.6561   999.1785 0.0000e+00
      1.836      0.050     5.7964     81.703     41.274  32.715832     3.7204      7.487   261.7060 6.2541e-01     4.6579      1.800      2.611    14.6568   999.1784 0.0000e+00
      1.849      0.052     5.7906     81.773     41.299  32.729830     3.4476      7.482   261.7260 6.0986e-01     4.5258      1.813      2.629    14.6531   999.1790 0.0000e+00
      1.861      0.053     5.7947     81.809     41.317  32.738158     2.9544      7.476   261.8531 6.0091e-01     4.3221      1.825      2.648    14.6461   999.1800 0.0000e+00
      1.874      0.055     5.8030     81.783     41.266  32.689596     2.6898      7.471   262.0381 6.0544e-01     4.2272      1.837      2.666    14.6375   999.1814 0.0000e+00
      1.888      0.057     5.8121     81.668     41.151  32.586888     2.6675      7.467   262.1562 6.0849e-01     4.2303      1.851      2.683    14.6280   999.1828 0.0000e+00
      1.903      0.059     5.8169     81.449     41.071  32.511699     2.6945      7.462   262.2489 5.9715e-01     4.2290      1.866      2.706    14.6219   999.1838 0.0000e+00
      1.919      0.060     5.8219     81.119     41.042  32.478544     2.7552      7.456   262.3848 5.7754e-01     4.2118      1.882      2.730    14.6161   999.1848 0.0000e+00
      1.936      0.060     5.8215     80.691     41.003  32.439849     2.7859      7.450   262.5089 5.5682e-01     4.1859      1.898      2.753    14.6062   999.1863 0.0000e+00
      1.952      0.058     5.8157     80.213     40.989  32.424612     2.7704      7.446   262.7169 5.4228e-01     4.1777      1.915      2.778    14.5914   999.1885 0.0000e+00
      1.967      0.055     5.8024     79.753     40.989  32.421231     2.6723      7.441   263.0072 5.3826e-01     4.1785      1.930      2.799    14.5752   999.1909 0.0000e+00
      1.981      0.051     5.7804     79.363     40.966  32.398966     2.5097      7.436   263.1792 5.3391e-01     4.1957      1.944      2.818    14.5624   999.1928 0.0000e+00
      1.993      0.047     5.7498     79.077     40.984  32.409246     2.4263      7.431   263.3335 5.1926e-01     4.2212      1.955      2.836    14.5530   999.1942 0.0000e+00
      2.003      0.045     5.7144     78.911     41.001  32.418599     2.4181      7.428   263.4964 4.9639e-01     4.2250      1.965      2.849    14.5480   999.1949 0.0000e+00
      2.013      0.045     5.6806     78.866     40.963  32.385120     2.4024      7.424   263.6002 4.8761e-01     4.1109      1.975      2.864    14.5458   999.1954 0.0000e+00
      2.023      0.047     5.6527     78.920     40.966  32.385215     2.3742      7.418   263.7279 4.9402e-01     3.8892      1.984      2.877    14.5410   999.1961 0.0000e+00
      2.033      0.052     5.6328     79.031     41.012  32.419745     2.3542      7.413   263.9220 4.8790e-01     3.7733      1.992      2.890    14.5345   999.1970 0.0000e+00
      2.047      0.056     5.6213     79.193     41.017  32.421846     2.3523      7.408   264.0540 4.7594e-01     3.7583      2.005      2.909    14.5296   999.1979 0.0000e+00
      2.064      0.059     5.6190     79.386     41.003  32.410620     2.3943      7.404   264.1200 4.6773e-01     3.6420      2.024      2.935    14.5259   999.1984 0.0000e+00
      2.083      0.059     5.6251     79.577     41.003  32.410941     2.4799      7.399   264.2897 4.5251e-01     3.4165      2.043      2.964    14.5228   999.1990 0.0000e+00
      2.100      0.057     5.6327     79.747     41.020  32.425723     2.5297      7.394   264.4705 4.3421e-01     3.2932      2.062      2.990    14.5206   999.1994 0.0000e+00
      2.115      0.052     5.6447     79.860     41.064  32.462427     2.5279      7.390   264.4993 4.2572e-01     3.2981      2.075      3.010    14.5191   999.1997 0.0000e+00
      2.126      0.046     5.6605     79.898     41.076  32.473966     2.5198      7.387   264.4667 4.3093e-01     3.3112      2.085      3.024    14.5182   999.1999 0.0000e+00
      2.135      0.040     5.6731     79.900     41.029  32.438312     2.4578      7.384   264.5914 4.3202e-01     3.4192      2.094      3.037    14.5187   999.1998 0.0000e+00
      2.145      0.037     5.6868     79.879     40.995  32.412116     2.3329      7.380   264.8028 4.1714e-01     3.6211      2.103      3.050    14.5200   999.1997 0.0000e+00
      2.153      0.035     5.6954     79.786     40.994  32.411076     2.2493      7.376   264.9574 4.0670e-01     3.7530      2.112      3.062    14.5228   999.1994 0.0000e+00
      2.159      0.035     5.6960     79.642     41.014  32.425735     2.2278      7.373   265.0842 4.0538e-01     3.8013      2.118      3.070    14.5260   999.1989 0.0000e+00
      2.168      0.036     5.6945     79.512     41.062  32.462428     2.2973      7.370   265.2178 4.0330e-01     3.7790      2.125      3.082    14.5282   999.1986 0.0000e+00
      2.179      0.038     5.6965     79.425     41.076  32.473954     2.4478      7.367   265.2818 4.0095e-01     3.7461      2.138      3.101    14.5287   999.1986 0.0000e+00
      2.189      0.042     5.6887     79.404     41.031  32.438176     2.5397      7.364   265.2557 3.9602e-01     3.7636      2.146      3.114    14.5276   999.1988 0.0000e+00
      2.198      0.048     5.6759     79.429     41.001  32.410608     2.5415      7.361   265.3329 3.9147e-01     3.7614      2.153      3.123    14.5266   999.1989 0.0000e+00
      2.209      0.053     5.6674     79.454     40.995  32.394476     2.4255      7.356   265.5271 3.8690e-01     3.7516      2.165      3.140    14.5242   999.1994 0.0000e+00
      2.223      0.058     5.6594     79.464     40.987  32.370030     2.2303      7.352   265.6245 3.7139e-01     3.7767      2.179      3.161    14.5245   999.1994 0.0000e+00
      2.241      0.062     5.6587     79.446     41.013  32.368859     2.1317      7.347   265.6497 3.5029e-01     3.8029      2.196      3.186    14.5275   999.1991 0.0000e+00
      2.261      0.063     5.6625     79.364     41.052  32.380284     2.1272      7.342   265.7461 3.3001e-01     3.8063      2.218      3.217    14.5237   999.1997 0.0000e+00
      2.279      0.062     5.6661     79.206     41.072  32.381232     2.1660      7.338   265.8435 3.1568e-01     3.7202      2.237      3.244    14.5104   999.2017 0.0000e+00
      2.294      0.058     5.6693     78.963     41.083  32.380298     2.2453      7.335   265.9669 3.1812e-01     3.5801      2.251      3.265    14.4861   999.2053 0.0000e+00
      2.307      0.053     5.6738     78.633     41.078  32.368978     2.2968      7.333   266.1194 3.3120e-01     3.5551      2.262      3.281    14.4566   999.2096 0.0000e+00
      2.320      0.047     5.6707     78.259     41.089  32.371279     2.3036      7.329   266.2254 3.3783e-01     3.5815      2.274      3.298    14.4322   999.2132 0.0000e+00
      2.332      0.042     5.6614     77.871     41.143  32.408107     2.3280      7.326   266.3880 3.2745e-01     3.5711      2.288      3.318    14.4156   999.2156 0.0000e+00
      2.342      0.038     5.6467     77.465     41.181  32.433492     2.3845      7.323   266.5370 3.1350e-01     3.5608      2.298      3.333    14.4041   999.2174 0.0000e+00
      2.351      0.035     5.6218     77.083     41.173  32.424360     2.4138      7.320   266.5636 3.1595e-01     3.5552      2.305      3.344    14.3953   999.2186 0.0000e+00
      2.358      0.034     5.5950     76.768     41.176  32.424608     2.4214      7.318   266.6236 3.1838e-01     3.5689      2.313      3.354    14.3880   999.2197 0.0000e+00
      2.365      0.035     5.5696     76.526     41.191  32.436490     2.4246      7.316   266.7468 3.0877e-01     3.5628      2.319      3.363    14.3808   999.2208 0.0000e+00
      2.373      0.038     5.5391     76.362     41.195  32.441097     2.3401      7.312   266.8488 3.0487e-01     3.5463      2.327      3.375    14.3755   999.2217 0.0000e+00
      2.382      0.042     5.5110     76.250     41.243  32.480318     2.1883      7.308   266.9957 3.1047e-01     3.5340      2.335      3.387    14.3709   999.2223 0.0000e+00
      2.394      0.044     5.4896     76.164     41.307  32.529943     2.1148      7.305   267.1466 3.1513e-01     3.5128      2.346      3.404    14.3684   999.2227 0.0000e+00
      2.409      0.043     5.4711     76.107     41.314  32.533416     2.1100      7.302   267.2108 3.1183e-01     3.5517      2.363      3.427    14.3690   999.2228 0.0000e+00
      2.424      0.040     5.4603     76.068     41.304  32.522306     2.0614      7.299   267.2563 3.0898e-01     3.6104      2.378      3.449    14.3716   999.2224 0.0000e+00
      2.435      0.035     5.4530     76.038     41.306  32.522534     1.9783      7.296   267.3524 3.0754e-01     3.5999      2.390      3.466    14.3743   999.2221 0.0000e+00
      2.441      0.032     5.4462     76.001     41.324  32.536173     1.9378      7.294   267.5128 2.9644e-01     3.5564      2.395      3.473    14.3726   999.2224 0.0000e+00
      2.444      0.032     5.4430     75.916     41.359  32.560281     1.9353      7.290   267.7327 2.8726e-01     3.5434      2.397      3.477    14.3698   999.2228 0.0000e+00
      2.448      0.037     5.4413     75.781     41.373  32.560177     1.9490      7.285   267.9453 2.9033e-01     3.6066      2.400      3.481    14.3658   999.2233 0.0000e+00
      2.455      0.045     5.4388     75.619     41.361  32.534899     1.9732      7.280   268.0193 2.9260e-01     3.6973      2.405      3.488    14.3631   999.2238 0.0000e+00
      2.469      0.054     5.4385     75.423     41.346  32.508478     1.9852      7.276   268.0244 2.8714e-01     3.7228      2.417      3.506    14.3646   999.2237 0.0000e+00
      2.489      0.060     5.4320     75.198     41.344  32.494548     1.9899      7.272   268.0931 2.7613e-01     3.7182      2.439      3.538    14.3635   999.2240 0.0000e+00
      2.510      0.062     5.4227     74.951     41.355  32.493386     2.0294      7.267   268.2477 2.6423e-01     3.6743      2.463      3.573    14.3490   999.2261 0.0000e+00
      2.529      0.062     5.4153     74.693     41.366  32.494416     2.1080      7.262   268.5173 2.5250e-01     3.5856      2.482      3.600    14.3252   999.2296 0.0000e+00
      2.543      0.062     5.4022     74.449     41.389  32.506995     2.1602      7.257   268.7721 2.5393e-01     3.5304      2.495      3.619    14.3071   999.2322 0.0000e+00
      2.554      0.064     5.3882     74.253     41.409  32.518544     2.1663      7.253   268.9181 2.7349e-01     3.4986      2.504      3.632    14.2937   999.2341 0.0000e+00
      2.564      0.068     5.3714     74.089     41.400  32.507125     2.0858      7.250   269.0782 2.7410e-01     3.4957      2.511      3.642    14.2817   999.2359 0.0000e+00
      2.580      0.072     5.3538     73.944     41.390  32.495849     1.9246      7.245   269.2457 2.4820e-01     3.5274      2.524      3.662    14.2722   999.2373 0.0000e+00
      2.605      0.074     5.3353     73.826     41.410  32.509115     1.8205      7.240   269.3946 2.3273e-01     3.5540      2.554      3.704    14.2658   999.2384 0.0000e+00
      2.633      0.074     5.3227     73.708     41.452  32.540610     1.7896      7.236   269.5877 2.3497e-01     3.5880      2.585      3.748    14.2613   999.2392 0.0000e+00
      2.656      0.070     5.3127     73.571     41.476  32.559335     1.7250      7.233   269.6872 2.3840e-01     3.6117      2.607      3.781    14.2558   999.2401 0.0000e+00
      2.671      0.063     5.3007     73.396     41.456  32.545132     1.6190      7.231   269.6516 2.3898e-01     3.5778      2.622      3.803    14.2514   999.2408 0.0000e+00
      2.681      0.055     5.2949     73.192     41.471  32.559275     1.5666      7.230   269.6733 2.2779e-01     3.5064      2.630      3.813    14.2499   999.2410 0.0000e+00
      2.690      0.050     5.2861     73.014     41.609  32.666877     1.5677      7.227   269.7783 2.0966e-01     3.4694      2.637      3.824    14.2476   999.2414 0.0000e+00
      2.701      0.049     5.2776     72.886     41.905  32.894205     1.5630      7.224   269.8886 2.0600e-01     3.4911      2.649      3.841    14.2458   999.2418 0.0000e+00
      2.713      0.051     5.2648     72.801     42.320  33.213607     1.5099      7.221   270.0602 2.1439e-01     3.5391      2.660      3.858    14.2492   999.2413 0.0000e+00
      2.727      0.055     5.2470     72.763     42.591  33.419028     1.4200      7.218   270.3042 2.1810e-01     3.5907      2.674      3.879    14.2537   999.2407 0.0000e+00
      2.743      0.058     5.2344     72.768     42.588  33.410552     1.3778      7.215   270.4303 2.0480e-01     3.5914      2.690      3.901    14.2532   999.2409 0.0000e+00
      2.759      0.059     5.2261     72.738     42.536  33.364972     1.3723      7.213   270.4668 1.8803e-01     3.5471      2.705      3.923    14.2463   999.2420 0.0000e+00
      2.776      0.060     5.2212     72.552     42.554  33.375645     1.3618      7.211   270.5725 1.8754e-01     3.4812      2.722      3.948    14.2372   999.2436 0.0000e+00
      2.791      0.060     5.2187     72.101     42.604  33.412669     1.3645      7.207   270.6760 1.9094e-01     3.3845      2.738      3.972    14.2288   999.2450 0.0000e+00
      2.804      0.061     5.2220     71.315     42.631  33.431832     1.3782      7.202   270.7711 1.9188e-01     3.2958      2.749      3.988    14.2215   999.2460 0.0000e+00
      2.818      0.064     5.2244     70.241     42.615  33.416947     1.3804      7.196   270.8630 1.8654e-01     3.2608      2.763      4.007    14.2162   999.2468 0.0000e+00
      2.834      0.066     5.2134     69.036     42.626  33.423085     1.3651      7.191   270.9265 1.7068e-01     3.2893      2.780      4.032    14.2126   999.2474 0.0000e+00
      2.852      0.068     5.1844     67.840     42.653  33.442572     1.3411      7.187   271.0222 1.5745e-01     3.3122      2.795      4.055    14.2101   999.2478 0.0000e+00
      2.871      0.071     5.1271     66.756     42.681  33.462171     1.3236      7.184   271.1596 1.4747e-01     3.3085      2.815      4.083    14.2074   999.2483 0.0000e+00
      2.891      0.073     5.0447     65.860     42.776  33.533129     1.3106      7.181   271.2980 1.5825e-01     3.3102      2.837      4.115    14.2045   999.2488 0.0000e+00
      2.909      0.073     4.9557     65.196     42.870  33.602403     1.2955      7.179   271.4906 1.8067e-01     3.3000      2.854      4.139    14.2019   999.2493 0.0000e+00
      2.927      0.071     4.8672     64.774     42.875  33.601630     1.2972      7.176   271.6815 1.7413e-01     3.2825      2.869      4.162    14.1992   999.2498 0.0000e+00
      2.946      0.067     4.7879     64.549     42.863  33.587247     1.3054      7.172   271.7132 1.6341e-01     3.2957      2.888      4.189    14.1967   999.2501 0.0000e+00
      2.965      0.061     4.7229     64.455     42.908  33.618885     1.2996      7.169   271.7020 1.6274e-01     3.2963      2.907      4.217    14.1937   999.2507 0.0000e+00
      2.981      0.054     4.6751     64.430     42.970  33.666830     1.2958      7.166   271.7181 1.5307e-01     3.2243      2.925      4.243    14.1886   999.2516 0.0000e+00
      2.995      0.047     4.6469     64.405     42.959  33.659225     1.2938      7.164   271.7356 1.4619e-01     3.1455      2.939      4.262    14.1813   999.2527 0.0000e+00
      3.004      0.042     4.6335     64.351     42.950  33.653865     1.2753      7.162   271.9133 1.4864e-01     3.1298      2.947      4.275    14.1749   999.2536 0.0000e+00
      3.010      0.038     4.6280     64.276     43.044  33.728963     1.2539      7.159   272.1465 1.5184e-01     3.1329      2.952      4.281    14.1714   999.2541 0.0000e+00
      3.017      0.037     4.6288     64.193     43.142  33.805648     1.2442      7.156   272.2317 1.5234e-01     3.1176      2.958      4.289    14.1710   999.2542 0.0000e+00
      3.026      0.038     4.6275     64.099     43.161  33.819466     1.2189      7.152   272.3412 1.5366e-01     3.1744      2.967      4.303    14.1718   999.2541 0.0000e+00
      3.037      0.040     4.6226     63.984     43.179  33.832569     1.1731      7.149   272.5246 1.5338e-01     3.2959      2.978      4.319    14.1751   999.2537 0.0000e+00
      3.050      0.045     4.6171     63.854     43.348  33.964070     1.1411      7.144   272.6412 1.4704e-01     3.3409      2.991      4.338    14.1778   999.2534 0.0000e+00
      3.061      0.050     4.6105     63.702     43.656  34.203582     1.1272      7.139   272.7187 1.4267e-01     3.3255      3.003      4.355    14.1765   999.2537 0.0000e+00
      3.072      0.054     4.6054     63.554     43.887  34.380225     1.1087      7.133   272.8597 1.4318e-01     3.3715      3.012      4.368    14.1747   999.2540 0.0000e+00
      3.085      0.055     4.5959     63.465     43.983  34.449699     1.0829      7.128   273.0556 1.4443e-01     3.4709      3.025      4.387    14.1732   999.2543 0.0000e+00
      3.102      0.054     4.5875     63.370     44.017  34.472369     1.0660      7.124   273.1089 1.4271e-01     3.5440      3.042      4.412    14.1731   999.2544 0.0000e+00
      3.121      0.052     4.5769     63.180     44.008  34.463929     1.0603      7.120   273.0730 1.3576e-01     3.5680      3.061      4.439    14.1722   999.2548 0.0000e+00
      3.136      0.049     4.5626     62.867     44.022  34.474575     1.1005      7.115   273.1383 1.3503e-01     3.4983      3.078      4.465    14.1661   999.2558 0.0000e+00
      3.146      0.048     4.5605     62.397     44.183  34.601092     1.1705      7.111   273.2099 1.4499e-01     3.3901      3.087      4.478    14.1586   999.2569 0.0000e+00
      3.153      0.048     4.5573     61.795     44.424  34.787739     1.1959      7.106   273.2513 1.4668e-01     3.3409      3.091      4.483    14.1537   999.2576 0.0000e+00
      3.161      0.050     4.5427     61.129     44.479  34.827254     1.1998      7.101   273.2080 1.3844e-01     3.3294      3.098      4.493    14.1524   999.2578 0.0000e+00
      3.174      0.054     4.5225     60.438     44.401  34.761527     1.2176      7.096   273.1162 1.3233e-01     3.3174      3.111      4.512    14.1533   999.2578 0.0000e+00
      3.191      0.059     4.4877     59.777     44.397  34.754651     1.2373      7.093   273.1738 1.2725e-01     3.2929      3.128      4.537    14.1543   999.2577 0.0000e+00
      3.209      0.063     4.4418     59.192     44.548  34.871054     1.2477      7.090   273.3027 1.2414e-01     3.2957      3.147      4.565    14.1528   999.2582 0.0000e+00
      3.228      0.064     4.3946     58.650     44.832  35.089976     1.2469      7.088   273.3837 1.2421e-01     3.3187      3.166      4.592    14.1467   999.2592 0.0000e+00
      3.245      0.062     4.3439     58.141     45.037  35.243655     1.2283      7.086   273.4648 1.2451e-01     3.3739      3.182      4.615    14.1409   999.2600 0.0000e+00
      3.260      0.059     4.2943     57.708     45.080  35.269366     1.1966      7.083   273.5949 1.2415e-01     3.4724      3.197      4.637    14.1377   999.2605 0.0000e+00
      3.274      0.055     4.2546     57.343     45.092  35.273899     1.1845      7.080   273.6666 1.2374e-01     3.5263      3.212      4.657    14.1360   999.2608 0.0000e+00
      3.288      0.050     4.2168     57.019     45.127  35.298455     1.1950      7.077   273.6432 1.2369e-01     3.5336      3.226      4.677    14.1331   999.2614 0.0000e+00
      3.300      0.044     4.1776     56.679     45.147  35.312381     1.2016      7.074   273.7425 1.2373e-01     3.5274      3.237      4.695    14.1244   999.2628 0.0000e+00
      3.311      0.037     4.1496     56.287     45.152  35.315334     1.2035      7.071   274.0065 1.2379e-01     3.4847      3.248      4.710    14.1139   999.2642 0.0000e+00
      3.321      0.030     4.1232     55.910     45.176  35.334159     1.2096      7.070   274.2541 1.2381e-01     3.4103      3.259      4.726    14.1086   999.2651 0.0000e+00
      3.328      0.025     4.1020     55.559     45.277  35.413055     1.2064      7.069   274.2406 1.2382e-01     3.3485      3.265      4.736    14.1067   999.2654 0.0000e+00
      3.332      0.020     4.0806     55.217     45.478  35.571085     1.1996      7.067   274.0157 1.2382e-01     3.3279      3.268      4.739    14.1046   999.2657 0.0000e+00
      3.334      0.016     4.0477     54.902     45.671  35.721575     1.2136      7.065   273.8587 1.2382e-01     3.3254      3.269      4.742    14.1031   999.2659 0.0000e+00
      3.337      0.014     4.0217     54.637     45.738  35.772782     1.2447      7.064   273.7187 1.2383e-01     3.3184      3.272      4.746    14.1032   999.2659 0.0000e+00
      3.341      0.013     3.9972     54.437     45.705  35.745917     1.2639      7.062   273.6133 1.2378e-01     3.3075      3.276      4.752    14.1039   999.2659 0.0000e+00
      3.346      0.013     3.9713     54.285     45.664  35.714108     1.2553      7.060   273.6168 1.2375e-01     3.3252      3.281      4.759    14.1049   999.2659 0.0000e+00
      3.350      0.012     3.9485     54.127     45.652  35.705553     1.2013      7.059   273.5896 1.2379e-01     3.4349      3.285      4.764    14.1050   999.2660 0.0000e+00
      3.352      0.011     3.9291     53.936     45.652  35.705948     1.1141      7.057   273.5421 1.2378e-01     3.5520      3.287      4.767    14.1027   999.2664 0.0000e+00
      3.354      0.010     3.9148     53.711     45.669  35.718887     1.0674      7.055   273.5580 1.2375e-01     3.5611      3.289      4.771    14.1006   999.2666 0.0000e+00
      3.357      0.009     3.9060     53.449     45.691  35.735056     1.0707      7.053   273.6101 1.2374e-01     3.5125      3.292      4.774    14.1012   999.2665 0.0000e+00
      3.359      0.008     3.8953     53.198     45.662  35.711021     1.1187      7.052   273.5698 1.2371e-01     3.4558      3.294      4.777    14.1021   999.2664 0.0000e+00
      3.360      0.007     3.8806     53.001     45.545  35.618697     1.2060      7.051   273.4145 1.2368e-01     3.3989      3.295      4.780    14.1030   999.2662 0.0000e+00
      3.362      0.006     3.8658     52.863     45.402  35.507367     1.2503      7.050   273.4535 1.2364e-01     3.3494      3.297      4.782    14.1037   999.2662 0.0000e+00
      3.364      0.005     3.8450     52.802     45.319  35.443957     1.2478      7.049   273.7834 1.2364e-01     3.3169      3.299      4.784    14.1017   999.2666 0.0000e+00
      3.365      0.004     3.8256     52.824     45.289  35.423247     1.2798      7.047   273.8756 1.2367e-01     3.3006      3.299      4.785    14.0993   999.2668 0.0000e+00
      3.365      0.003     3.8123     52.904     45.236  35.383910     1.3415      7.047   273.7081 1.2386e-01     3.2835      3.300      4.786    14.0992   999.2667 0.0000e+00
      3.366      0.003     3.8012     52.954     45.190  35.349160     1.3695      7.047   273.6516 1.2408e-01     3.2740      3.301      4.787    14.1001   999.2666 0.0000e+00
      3.367 -9.990e-29     3.7967 -9.990e-29 -9.990e-29 -9.990e-29 -9.990e-29 -9.990e-29 -9.990e-29 1.2395e-01 -9.990e-29      3.302      4.789    14.1017   999.2663 0.0000e+00
      3.368 -9.990e-29     3.7982 -9.990e-29 -9.990e-29 -9.990e-29 -9.990e-29 -9.990e-29 -9.990e-29 1.2376e-01 -9.990e-29      3.302      4.790    14.1037   999.2660 0.0000e+00
      3.368 -9.990e-29     3.8061 -9.990e-29 -9.990e-29 -9.990e-29 -9.990e-29 -9.990e-29 -9.990e-29 1.2376e-01 -9.990e-29      3.302      4.790    14.1071   999.2656 0.0000e+00
      3.368 -9.990e-29     3.8133 -9.990e-29 -9.990e-29 -9.990e-29 -9.990e-29 -9.990e-29 -9.990e-29 1.2379e-01 -9.990e-29      3.303      4.791    14.1099   999.2652 0.0000e+00
