* Sea-Bird SBE19plus  Data File:
* FileName = C:\DATA\103019_fcr_0004.hex
* Software version 2.8.0.119 SB_Terminal.dll
* Temperature SN = 7809
* Conductivity SN = 7809
* System UpLoad Time = Oct 30 2019 15:28:51
* <ApplicationData>
* <Seaterm232>
* <SoftwareVersion>2.8.0.119</SoftwareVersion>
* <BuildDate>07-Nov-2018</BuildDate>
* </Seaterm232>
* </ApplicationData>
* cast   4 30 Oct 2019 10:44:20 samples 2160 to 2845, avg = 1, stop = mag switch
# nquan = 16
# nvalues = 583                         
# units = specified
# name 0 = depFM: Depth [fresh water, m]
# name 1 = dz/dtM: Descent Rate [m/s]
# name 2 = sbeox0ML/L: Oxygen, SBE 43 [ml/l]
# name 3 = sbeox0PS: Oxygen, SBE 43 [% saturation]
# name 4 = specc: Specific Conductance [uS/cm]
# name 5 = c0uS/cm: Conductivity [uS/cm]
# name 6 = flECO-AFL: Fluorescence, WET Labs ECO-AFL/FL [mg/m^3]
# name 7 = ph: pH
# name 8 = orp: Oxidation Reduction Potential [mV]
# name 9 = par/sat/log: PAR/Logarithmic, Satlantic
# name 10 = turbWETntu0: Turbidity, WET Labs ECO [NTU]
# name 11 = prdM: Pressure, Strain Gauge [db]
# name 12 = prdE: Pressure, Strain Gauge [psi]
# name 13 = tv290C: Temperature [ITS-90, deg C]
# name 14 = density00: Density [density, kg/m^3]
# name 15 = flag:  0.000e+00
# span 0 =     -0.518,      5.523       
# span 1 =     -0.013,      0.284       
# span 2 =     3.7670,     7.8354       
# span 3 =     51.965,    111.589       
# span 4 =      2.447,     49.315       
# span 5 =   1.958793,  38.218102       
# span 6 =    -0.1386,     5.9978       
# span 7 =      6.737,      7.746       
# span 8 =   254.5781,   312.1042       
# span 9 = 1.2354e-01, 1.1694e+02       
# span 10 =    -0.5551,    16.8514      
# span 11 =     -0.510,      5.417      
# span 12 =     -0.740,      7.857      
# span 13 =    13.7363,    15.4439      
# span 14 =   999.0513,   999.3278      
# span 15 = 0.0000e+00, 0.0000e+00      
# interval = seconds: 0.25
# start_time = Oct 30 2019 10:44:20 [Instrument's time stamp, header]
# bad_flag = -9.990e-29
# <Sensors count="9" >
#   <sensor Channel="1" >
#     <!-- Count, Temperature -->
#     <TemperatureSensor SensorID="58" >
#       <SerialNumber>7809</SerialNumber>
#       <CalibrationDate>24-Mar-19</CalibrationDate>
#       <A0>1.21792325e-003</A0>
#       <A1>2.81669265e-004</A1>
#       <A2>-1.60333336e-006</A2>
#       <A3>1.98414625e-007</A3>
#       <Slope>1.00000000</Slope>
#       <Offset>0.0000</Offset>
#     </TemperatureSensor>
#   </sensor>
#   <sensor Channel="2" >
#     <!-- Frequency 0, Conductivity -->
#     <ConductivitySensor SensorID="3" >
#       <SerialNumber>7809</SerialNumber>
#       <CalibrationDate>24-Mar-19</CalibrationDate>
#       <UseG_J>1</UseG_J>
#       <!-- Cell const and series R are applicable only for wide range sensors. -->
#       <SeriesR>0.0000</SeriesR>
#       <CellConst>2000.0000</CellConst>
#       <ConductivityType>0</ConductivityType>
#       <Coefficients equation="0" >
#         <A>0.00000000e+000</A>
#         <B>0.00000000e+000</B>
#         <C>0.00000000e+000</C>
#         <D>0.00000000e+000</D>
#         <M>0.0</M>
#         <CPcor>-9.57000000e-008</CPcor>
#       </Coefficients>
#       <Coefficients equation="1" >
#         <G>-1.00589325e+000</G>
#         <H>1.26816302e-001</H>
#         <I>-1.51560448e-004</I>
#         <J>2.67137274e-005</J>
#         <CPcor>-9.57000000e-008</CPcor>
#         <CTcor>3.2500e-006</CTcor>
#         <!-- WBOTC not applicable unless ConductivityType = 1. -->
#         <WBOTC>0.00000000e+000</WBOTC>
#       </Coefficients>
#       <Slope>1.00000000</Slope>
#       <Offset>0.00000</Offset>
#     </ConductivitySensor>
#   </sensor>
#   <sensor Channel="3" >
#     <!-- Count, Pressure, Strain Gauge -->
#     <PressureSensor SensorID="46" >
#       <SerialNumber>7809</SerialNumber>
#       <CalibrationDate>11-Mar-19</CalibrationDate>
#       <PA0>4.56561833e-002</PA0>
#       <PA1>4.85095118e-004</PA1>
#       <PA2>-2.88327090e-012</PA2>
#       <PTEMPA0>-5.48784562e+001</PTEMPA0>
#       <PTEMPA1>5.53756816e+001</PTEMPA1>
#       <PTEMPA2>-5.86727098e-001</PTEMPA2>
#       <PTCA0>5.25246745e+005</PTCA0>
#       <PTCA1>1.22304214e+001</PTCA1>
#       <PTCA2>-3.56745036e-001</PTCA2>
#       <PTCB0>2.51668750e+001</PTCB0>
#       <PTCB1>3.75000000e-004</PTCB1>
#       <PTCB2>0.00000000e+000</PTCB2>
#       <Offset>0.000000</Offset>
#     </PressureSensor>
#   </sensor>
#   <sensor Channel="4" >
#     <!-- A/D voltage 0, Oxygen, SBE 43 -->
#     <OxygenSensor SensorID="38" >
#       <SerialNumber>0434</SerialNumber>
#       <CalibrationDate>13-Apr-19</CalibrationDate>
#       <Use2007Equation>1</Use2007Equation>
#       <CalibrationCoefficients equation="0" >
#         <!-- Coefficients for Owens-Millard equation. -->
#         <Boc>0.0000</Boc>
#         <Soc>0.0000e+000</Soc>
#         <offset>0.0000</offset>
#         <Pcor>0.00e+000</Pcor>
#         <Tcor>0.0000</Tcor>
#         <Tau>0.0</Tau>
#       </CalibrationCoefficients>
#       <CalibrationCoefficients equation="1" >
#         <!-- Coefficients for Sea-Bird equation - SBE calibration in 2007 and later. -->
#         <Soc>4.2007e-001</Soc>
#         <offset>-0.6109</offset>
#         <A>-4.3656e-003</A>
#         <B> 1.7017e-004</B>
#         <C>-2.5341e-006</C>
#         <D0> 2.5826e+000</D0>
#         <D1> 1.92634e-004</D1>
#         <D2>-4.64803e-002</D2>
#         <E> 3.6000e-002</E>
#         <Tau20> 1.1800</Tau20>
#         <H1>-3.3000e-002</H1>
#         <H2> 5.0000e+003</H2>
#         <H3> 1.4500e+003</H3>
#       </CalibrationCoefficients>
#     </OxygenSensor>
#   </sensor>
#   <sensor Channel="5" >
#     <!-- A/D voltage 1, PAR/Logarithmic, Satlantic -->
#     <PARLog_SatlanticSensor SensorID="76" >
#       <SerialNumber>1122</SerialNumber>
#       <CalibrationDate>08-May-2019</CalibrationDate>
#       <a0>9.7456e-001</a0>
#       <a1>8.1640e-001</a1>
#       <Im>1.3589e+000</Im>
#       <Multiplier>1.0000e+000</Multiplier>
#     </PARLog_SatlanticSensor>
#   </sensor>
#   <sensor Channel="6" >
#     <!-- A/D voltage 2, pH -->
#     <pH_Sensor SensorID="43" >
#       <SerialNumber>0363</SerialNumber>
#       <CalibrationDate>15-Apr-19</CalibrationDate>
#       <Slope>4.5952</Slope>
#       <Offset>2.5370</Offset>
#     </pH_Sensor>
#   </sensor>
#   <sensor Channel="7" >
#     <!-- A/D voltage 3, Oxidation Reduction Potential -->
#     <OxidationReductionPotentialSensor SensorID="41" >
#       <SerialNumber>0363</SerialNumber>
#       <CalibrationDate>15-Apr-19</CalibrationDate>
#       <B>2.499480</B>
#       <M>-0.496195</M>
#       <Offset>0.0</Offset>
#     </OxidationReductionPotentialSensor>
#   </sensor>
#   <sensor Channel="8" >
#     <!-- A/D voltage 4, Fluorometer, WET Labs ECO-AFL/FL -->
#     <FluoroWetlabECO_AFL_FL_Sensor SensorID="20" >
#       <SerialNumber>FLNTURT-2496</SerialNumber>
#       <CalibrationDate>08-May-2019</CalibrationDate>
#       <ScaleFactor>5.00000000e+001</ScaleFactor>
#       <!-- Dark output -->
#       <Vblank>0.0550</Vblank>
#     </FluoroWetlabECO_AFL_FL_Sensor>
#   </sensor>
#   <sensor Channel="9" >
#     <!-- A/D voltage 5, Turbidity Meter, WET Labs, ECO-NTU -->
#     <TurbidityMeter SensorID="67" >
#       <SerialNumber>FLNTURT-2496</SerialNumber>
#       <CalibrationDate>08-May-2019</CalibrationDate>
#       <ScaleFactor>189.000000</ScaleFactor>
#       <!-- Dark output -->
#       <DarkVoltage>0.071000</DarkVoltage>
#     </TurbidityMeter>
#   </sensor>
# </Sensors>
# datcnv_date = Oct 30 2019 15:31:58, 7.26.7.129 [datcnv_vars = 15]
# datcnv_in = C:\DATA\103019_fcr30.hex C:\DATA\SBE19plusV2_7809.xmlcon
# datcnv_skipover = 0
# datcnv_ox_hysteresis_correction = yes
# datcnv_ox_tau_correction = yes
# filter_date = Oct 30 2019 15:32:26, 7.26.7.129
# filter_in = C:\DATA\103019_fcr30.cnv
# filter_low_pass_tc_A = 0.030
# filter_low_pass_tc_B = 0.150
# filter_low_pass_A_vars = sbeox0ML/L prdM prdE tv290C density00
# filter_low_pass_B_vars = depFM dz/dtM sbeox0PS specc c0uS/cm flECO-AFL ph orp par/sat/log turbWETntu0
# alignctd_date = Oct 30 2019 15:32:46, 7.26.7.129
# alignctd_in = C:\DATA\103019_fcr30.cnv
# alignctd_adv = dz/dtM 1.000, sbeox0PS 1.000, specc 1.000, c0uS/cm 1.000, flECO-AFL 1.000, ph 1.000, orp 1.000, turbWETntu0 1.000                                                                                                   
# file_type = ascii
*END*
     -0.518 1.6653e-10     6.6402     94.192      2.447   1.958793    -0.1355      6.924   254.5781 4.6236e+01    -0.2843     -0.508     -0.737    15.0196   999.1018 0.0000e+00
     -0.518 1.8319e-09     6.6413     94.230      2.890   2.313318    -0.1277      6.914   266.6770 4.7502e+01    -0.2799     -0.508     -0.737    15.0196   999.1018 0.0000e+00
     -0.518 2.0151e-08     6.6416     94.255      3.211   2.570486    -0.1322      6.911   274.9366 4.5152e+01    -0.3174     -0.509     -0.738    15.0193   999.1019 0.0000e+00
     -0.517 2.2166e-07     6.6401     94.270      3.323   2.660275    -0.1372      6.910   279.3313 4.1699e+01    -0.3764     -0.507     -0.735    15.0191   999.1019 0.0000e+00
     -0.517 5.7547e-07     6.6433     94.269      3.217   2.575170    -0.1277      6.910   282.2146 4.0591e+01    -0.4360     -0.506     -0.735    15.0189   999.1021 0.0000e+00
     -0.518      0.000     6.6469     94.254      2.955   2.365266    -0.1298      6.913   284.2441 4.0998e+01    -0.4809     -0.508     -0.737    15.0188   999.1022 0.0000e+00
     -0.518      0.000     6.6478     94.234      2.686   2.150070    -0.1364      6.918   287.4361 4.3748e+01    -0.5260     -0.508     -0.736    15.0186   999.1022 0.0000e+00
     -0.518      0.001     6.6496     94.239      2.816   2.254425    -0.1303      6.943   294.0514 4.9447e+01    -0.5551     -0.508     -0.736    15.0186   999.1023 0.0000e+00
     -0.518      0.006     6.6490     94.244      6.825   5.464607    -0.1333      7.051   303.8295 5.5247e+01    -0.5384     -0.508     -0.736    15.0182   999.1023 0.0000e+00
     -0.518      0.023     6.6486     94.223     18.692  14.976696    -0.1386      7.256   311.4495 6.1605e+01    -0.4877     -0.509     -0.738    15.0184   999.1022 0.0000e+00
     -0.518      0.054     6.6452     94.221     32.372  25.966089    -0.1157      7.459   312.1042 7.3018e+01    -0.2693     -0.507     -0.735    15.0176   999.1023 0.0000e+00
     -0.516      0.099     6.6464     94.229     39.024  31.350477     0.1174      7.589   308.5618 8.7798e+01     2.0038     -0.510     -0.740    15.0186   999.1021 0.0000e+00
     -0.498      0.153     6.6496     94.234     40.228  32.376397     0.5474      7.665   304.6686 1.0094e+02     6.1848     -0.503     -0.730    15.0166   999.1024 0.0000e+00
     -0.448      0.208     6.6429     94.257     40.355  32.532346     0.7991      7.711   302.0291 1.1080e+02     8.4992     -0.448     -0.650    15.0232   999.1059 0.0000e+00
     -0.373      0.254     6.6364     94.278     40.310  32.538031     0.9238      7.735   300.8245 1.1674e+02     8.8814     -0.368     -0.535    15.0793   999.1038 0.0000e+00
     -0.287      0.281     6.6255     94.330     40.240  32.508650     1.9343      7.744   300.0849 1.1694e+02    10.4776     -0.284     -0.412    15.1623   999.0929 0.0000e+00
     -0.196      0.284     6.6131     94.502     40.203  32.494439     3.7749      7.746   299.1948 1.0540e+02    13.3465     -0.191     -0.276    15.2385   999.0815 0.0000e+00
     -0.111      0.266     6.6064     94.797     40.190  32.493148     4.7812      7.742   298.0636 8.6613e+01    14.9260     -0.101     -0.146    15.3101   999.0710 0.0000e+00
     -0.044      0.235     6.6001     95.207     40.183  32.493039     4.8768      7.734   297.0771 7.3482e+01    15.0903     -0.035     -0.051    15.3639   999.0629 0.0000e+00
      0.004      0.198     6.5949     95.775     40.179  32.493133     4.9131      7.725   296.3880 6.1300e+01    15.0703      0.006      0.009    15.3947   999.0584 0.0000e+00
      0.041      0.158     6.6051     96.412     40.177  32.494286     4.9600      7.716   295.6684 4.6447e+01    14.9792      0.040      0.058    15.4119   999.0558 0.0000e+00
      0.076      0.121     6.6266     96.947     40.191  32.506988     4.9841      7.706   294.7424 3.8141e+01    14.9067      0.074      0.108    15.4218   999.0544 0.0000e+00
      0.107      0.090     6.6499     97.278     40.206  32.519783     4.9875      7.697   293.7964 3.4628e+01    14.8817      0.108      0.156    15.4280   999.0536 0.0000e+00
      0.129      0.065     6.6925     97.344     40.207  32.522071     4.9835      7.687   293.0063 3.0803e+01    14.9070      0.132      0.191    15.4325   999.0530 0.0000e+00
      0.137      0.044     6.7423     97.128     40.222  32.534649     4.9188      7.678   292.3308 2.9295e+01    14.8195      0.137      0.199    15.4355   999.0526 0.0000e+00
      0.137      0.027     6.7806     96.632     40.234  32.544948     4.7870      7.671   291.5651 3.0295e+01    14.5769      0.133      0.193    15.4373   999.0523 0.0000e+00
      0.138      0.014     6.8057     95.870     40.203  32.519670     4.7072      7.665   290.8036 3.0969e+01    14.4316      0.135      0.195    15.4384   999.0521 0.0000e+00
      0.142      0.007     6.8103     94.908     40.157  32.482853     4.6999      7.660   290.0926 3.0916e+01    14.4071      0.140      0.203    15.4394   999.0520 0.0000e+00
      0.144      0.005     6.7946     93.818     40.154  32.480564     4.6900      7.654   289.3366 3.1247e+01    14.4114      0.142      0.206    15.4398   999.0519 0.0000e+00
      0.144      0.005     6.7607     92.654     40.169  32.491997     4.6652      7.648   288.7176 3.1794e+01    14.4176      0.141      0.205    15.4400   999.0519 0.0000e+00
      0.144      0.004     6.7047     91.472     40.172  32.494172     4.6516      7.645   288.2001 3.2012e+01    14.4170      0.140      0.204    15.4405   999.0518 0.0000e+00
      0.146      0.003     6.6357     90.308     40.187  32.506855     4.6551      7.642   287.6401 3.1837e+01    14.4366      0.143      0.208    15.4411   999.0517 0.0000e+00
      0.148      0.001     6.5585     89.176     40.202  32.518422     4.7337      7.639   287.1094 3.1532e+01    14.5232      0.146      0.212    15.4415   999.0517 0.0000e+00
      0.149      0.000     6.4756     88.120     40.188  32.507102     4.8908      7.636   286.6010 3.1535e+01    14.6449      0.146      0.212    15.4408   999.0518 0.0000e+00
      0.148     -0.001     6.3920     87.213     40.176  32.496917     4.9862      7.633   286.0532 3.1715e+01    14.6631      0.145      0.211    15.4400   999.0519 0.0000e+00
      0.146     -0.001     6.3111     86.501     40.207  32.522195     4.9939      7.630   285.4761 3.1937e+01    14.6123      0.143      0.208    15.4398   999.0519 0.0000e+00
      0.145      0.000     6.2310     85.991     40.252  32.558900     4.9148      7.627   284.8720 3.2173e+01    14.4897      0.142      0.206    15.4398   999.0519 0.0000e+00
      0.144      0.001     6.1545     85.647     40.253  32.559940     4.7757      7.625   284.4274 3.2161e+01    14.2938      0.141      0.205    15.4398   999.0519 0.0000e+00
      0.144      0.004     6.0906     85.457     40.221  32.534774     4.7070      7.622   284.1449 3.1932e+01    14.2108      0.141      0.205    15.4399   999.0519 0.0000e+00
      0.146      0.007     6.0398     85.399     40.188  32.508474     4.6993      7.618   283.7790 3.1652e+01    14.2075      0.142      0.207    15.4401   999.0519 0.0000e+00
      0.149      0.010     6.0065     85.454     40.172  32.495792     4.6914      7.614   283.4454 3.1229e+01    14.1884      0.146      0.212    15.4403   999.0519 0.0000e+00
      0.152      0.012     5.9815     85.618     40.188  32.508351     4.6904      7.609   283.2086 3.0664e+01    14.2418      0.149      0.216    15.4406   999.0519 0.0000e+00
      0.156      0.013     5.9693     85.933     40.218  32.533401     4.6957      7.604   282.8945 3.0040e+01    14.3612      0.153      0.222    15.4410   999.0518 0.0000e+00
      0.160      0.013     5.9656     86.481     40.232  32.544825     4.6949      7.600   282.4870 2.9430e+01    14.4192      0.157      0.227    15.4416   999.0517 0.0000e+00
      0.163      0.012     5.9693     87.281     40.200  32.519555     4.6978      7.597   282.0668 2.9040e+01    14.3866      0.160      0.232    15.4420   999.0517 0.0000e+00
      0.166      0.009     5.9807     88.289     40.154  32.481717     4.7747      7.593   281.6863 2.8837e+01    14.1310      0.163      0.236    15.4422   999.0517 0.0000e+00
      0.169      0.004     5.9987     89.422     40.137  32.468091     4.9130      7.587   281.3282 2.8687e+01    13.7206      0.166      0.241    15.4426   999.0516 0.0000e+00
      0.171      0.000     6.0377     90.595     40.153  32.481717     4.9915      7.582   281.0067 2.8726e+01    13.5542      0.169      0.245    15.4429   999.0516 0.0000e+00
      0.171     -0.005     6.0940     91.764     40.200  32.519555     5.0040      7.578   280.7241 2.9117e+01    13.6263      0.169      0.243    15.4431   999.0516 0.0000e+00
      0.167     -0.009     6.1668     92.875     40.231  32.544824     4.9775      7.575   280.4065 2.9758e+01    13.8718      0.164      0.237    15.4433   999.0515 0.0000e+00
      0.162     -0.012     6.2486     93.840     40.216  32.533389     4.9150      7.573   280.1778 3.0312e+01    14.2278      0.158      0.229    15.4433   999.0515 0.0000e+00
      0.158     -0.013     6.3311     94.623     40.185  32.508224     4.8713      7.569   280.0233 3.0637e+01    14.3921      0.155      0.225    15.4433   999.0514 0.0000e+00
      0.156     -0.012     6.4135     95.248     40.168  32.494396     4.8653      7.564   279.7431 3.1023e+01    14.3833      0.152      0.221    15.4433   999.0515 0.0000e+00
      0.153     -0.010     6.4943     95.739     40.167  32.493130     4.8855      7.560   279.3717 3.1648e+01    14.3831      0.150      0.216    15.4435   999.0514 0.0000e+00
      0.149     -0.006     6.5629     96.137     40.167  32.492912     4.9170      7.558   279.0600 3.2209e+01    14.3893      0.146      0.211    15.4438   999.0513 0.0000e+00
      0.147     -0.002     6.6158     96.460     40.165  32.491758     4.9335      7.555   278.8137 3.2508e+01    14.3607      0.143      0.208    15.4439   999.0513 0.0000e+00
      0.146      0.003     6.6599     96.693     40.150  32.479181     4.9285      7.552   278.5451 3.2534e+01    14.3980      0.142      0.207    15.4438   999.0513 0.0000e+00
      0.148      0.008     6.6925     96.842     40.136  32.467757     4.9360      7.548   278.3073 3.2053e+01    14.6431      0.145      0.209    15.4437   999.0513 0.0000e+00
      0.152      0.014     6.7199     96.952     40.152  32.480553     4.9629      7.545   278.0897 3.1141e+01    14.9647      0.149      0.216    15.4437   999.0513 0.0000e+00
      0.156      0.019     6.7433     97.019     40.185  32.506977     4.9767      7.543   277.8936 3.0299e+01    15.1075      0.154      0.224    15.4437   999.0514 0.0000e+00
      0.161      0.021     6.7599     97.013     40.218  32.533401     4.9814      7.540   277.7424 2.9504e+01    15.0910      0.157      0.227    15.4435   999.0514 0.0000e+00
      0.167      0.021     6.7681     96.960     40.235  32.546197     5.0015      7.538   277.5523 2.8374e+01    14.9302      0.163      0.236    15.4433   999.0515 0.0000e+00
      0.175      0.016     6.7757     96.830     40.221  32.534773     5.0385      7.535   277.3153 2.7075e+01    14.6377      0.172      0.250    15.4433   999.0515 0.0000e+00
      0.183      0.009     6.7832     96.566     40.206  32.522197     5.0551      7.529   277.0278 2.6128e+01    14.4704      0.181      0.262    15.4429   999.0516 0.0000e+00
      0.187      0.002     6.7798     96.201     40.205  32.521053     5.0469      7.524   276.7439 2.6025e+01    14.4480      0.186      0.269    15.4426   999.0517 0.0000e+00
      0.184     -0.004     6.7778     95.788     40.204  32.520938     5.0432      7.520   276.5494 2.6908e+01    14.4328      0.183      0.265    15.4422   999.0518 0.0000e+00
      0.176     -0.008     6.7713     95.370     40.204  32.520815     5.0445      7.516   276.4834 2.8151e+01    14.4178      0.172      0.249    15.4415   999.0518 0.0000e+00
      0.168     -0.009     6.7512     94.987     40.202  32.519565     5.0550      7.514   276.4628 2.8963e+01    14.3977      0.163      0.235    15.4407   999.0519 0.0000e+00
      0.166     -0.006     6.7243     94.647     40.186  32.505823     5.0654      7.512   276.2997 2.9193e+01    14.3858      0.161      0.233    15.4406   999.0519 0.0000e+00
      0.168     -0.001     6.6946     94.339     40.157  32.481593     5.0488      7.509   275.9740 2.8978e+01    14.4058      0.165      0.239    15.4409   999.0519 0.0000e+00
      0.171      0.003     6.6639     94.108     40.156  32.480448     5.0018      7.507   275.7087 2.8483e+01    14.5408      0.168      0.243    15.4410   999.0519 0.0000e+00
      0.173      0.004     6.6370     94.004     40.170  32.491977     4.9570      7.505   275.6722 2.7968e+01    14.7401      0.170      0.247    15.4411   999.0519 0.0000e+00
      0.175      0.003     6.6146     94.011     40.172  32.494066     4.9407      7.503   275.7057 2.7625e+01    14.8164      0.172      0.249    15.4405   999.0520 0.0000e+00
      0.175      0.000     6.5915     94.072     40.187  32.505698     4.9422      7.502   275.5972 2.7694e+01    14.8084      0.172      0.250    15.4395   999.0521 0.0000e+00
      0.174     -0.002     6.5735     94.149     40.187  32.505697     4.9668      7.501   275.3058 2.8071e+01    14.8073      0.171      0.248    15.4392   999.0522 0.0000e+00
      0.172     -0.002     6.5670     94.204     40.173  32.494055     5.0138      7.499   275.0219 2.8395e+01    14.8348      0.169      0.244    15.4390   999.0522 0.0000e+00
      0.171     -0.002     6.5694     94.185     40.170  32.491853     5.0498      7.497   274.9182 2.8656e+01    14.8789      0.168      0.243    15.4391   999.0522 0.0000e+00
      0.170     -0.001     6.5742     94.055     40.155  32.479073     5.0645      7.496   274.9126 2.8875e+01    14.8821      0.167      0.242    15.4392   999.0522 0.0000e+00
      0.170      0.001     6.5804     93.777     40.140  32.466467     5.0880      7.495   274.7825 2.8960e+01    14.9066      0.166      0.240    15.4391   999.0522 0.0000e+00
      0.170      0.002     6.5861     93.344     40.141  32.466353     5.1348      7.493   274.5499 2.8831e+01    14.9773      0.166      0.241    15.4390   999.0522 0.0000e+00
      0.171      0.002     6.5849     92.771     40.156  32.477691     5.1705      7.492   274.4226 2.8477e+01    15.0493      0.169      0.243    15.4387   999.0522 0.0000e+00
      0.173      0.001     6.5776     92.102     40.156  32.476631     5.1809      7.491   274.3616 2.8206e+01    15.1215      0.171      0.248    15.4385   999.0523 0.0000e+00
      0.174      0.000     6.5580     91.398     40.128  32.453545     5.1737      7.491   274.3287 2.8293e+01    15.1296      0.171      0.249    15.4382   999.0523 0.0000e+00
      0.173     -0.001     6.5275     90.680     40.128  32.452391     5.1356      7.490   274.2835 2.8598e+01    15.0819      0.171      0.247    15.4374   999.0524 0.0000e+00
      0.172     -0.001     6.4869     89.949     40.142  32.462679     5.0760      7.489   274.1595 2.8875e+01    15.0688      0.169      0.244    15.4363   999.0526 0.0000e+00
      0.170     -0.002     6.4378     89.221     40.129  32.451017     5.0431      7.489   274.0332 2.8995e+01    15.1028      0.167      0.242    15.4349   999.0528 0.0000e+00
      0.170     -0.002     6.3889     88.520     40.114  32.438306     5.0497      7.489   273.9615 2.8775e+01    15.1327      0.167      0.242    15.4333   999.0530 0.0000e+00
      0.171     -0.003     6.3390     87.895     40.112  32.435913     5.0863      7.487   273.8942 2.8349e+01    14.9705      0.168      0.243    15.4321   999.0532 0.0000e+00
      0.171     -0.005     6.2873     87.374     40.096  32.422086     5.1392      7.483   273.9085 2.8108e+01    14.6164      0.169      0.245    15.4313   999.0534 0.0000e+00
      0.170     -0.008     6.2366     86.887     40.067  32.398046     5.1692      7.478   273.9616 2.8005e+01    14.4234      0.168      0.244    15.4305   999.0535 0.0000e+00
      0.168     -0.010     6.1863     86.396     40.069  32.399084     5.1711      7.473   273.8479 2.8186e+01    14.4071      0.165      0.239    15.4296   999.0536 0.0000e+00
      0.164     -0.010     6.1404     85.916     40.114  32.434644     5.1274      7.469   273.7388 2.8985e+01    13.9610      0.162      0.233    15.4285   999.0538 0.0000e+00
      0.159     -0.005     6.1082     85.467     40.130  32.447223     5.0483      7.465   273.6748 2.9976e+01    13.0934      0.157      0.227    15.4274   999.0539 0.0000e+00
      0.153      0.003     6.0747     85.082     40.102  32.424251     5.0033      7.462   273.3326 3.0586e+01    12.6339      0.148      0.215    15.4264   999.0540 0.0000e+00
      0.152      0.017     6.0394     84.784     40.086  32.410737     5.0000      7.458   271.4938 3.1027e+01    12.6981      0.145      0.210    15.4259   999.0541 0.0000e+00
      0.160      0.037     6.0061     84.583     40.086  32.410747     5.0339      7.454   268.3056 3.1724e+01    13.6736      0.156      0.226    15.4249   999.0543 0.0000e+00
      0.171      0.057     5.9733     84.513     40.102  32.424376     5.0927      7.450   266.2751 3.2107e+01    15.4162      0.169      0.244    15.4240   999.0545 0.0000e+00
      0.186      0.075     5.9462     84.625     40.132  32.448595     5.1215      7.448   265.6140 3.0673e+01    16.3327      0.177      0.256    15.4235   999.0546 0.0000e+00
      0.211      0.088     5.9254     84.899     40.133  32.449739     5.1225      7.448   265.1301 2.7380e+01    16.3977      0.202      0.292    15.4225   999.0548 0.0000e+00
      0.244      0.095     5.9109     85.253     40.118  32.438201     5.1823      7.448   264.7259 2.4064e+01    16.5307      0.243      0.352    15.4228   999.0550 0.0000e+00
      0.273      0.098     5.9033     85.637     40.114  32.436017     5.2987      7.448   264.5129 2.1596e+01    16.7607      0.270      0.391    15.4238   999.0550 0.0000e+00
      0.296      0.098     5.9120     86.066     40.098  32.423333     5.3590      7.448   264.5336 1.9671e+01    16.8514      0.289      0.419    15.4235   999.0552 0.0000e+00
      0.319      0.094     5.9340     86.602     40.083  32.411766     5.3560      7.448   264.6318 1.8036e+01    16.8407      0.314      0.455    15.4239   999.0552 0.0000e+00
      0.340      0.088     5.9597     87.247     40.097  32.423085     5.3582      7.448   264.6678 1.6606e+01    16.8283      0.333      0.484    15.4250   999.0551 0.0000e+00
      0.362      0.083     5.9863     87.934     40.110  32.433260     5.5242      7.447   264.7105 1.5407e+01    16.5047      0.353      0.513    15.4257   999.0551 0.0000e+00
      0.386      0.077     6.0138     88.630     40.079  32.407867     5.8374      7.447   264.8043 1.4389e+01    15.9102      0.379      0.549    15.4263   999.0551 0.0000e+00
      0.408      0.070     6.0505     89.300     40.033  32.369904     5.9978      7.446   264.8550 1.3634e+01    15.6052      0.403      0.584    15.4268   999.0552 0.0000e+00
      0.426      0.062     6.0992     89.847     40.015  32.355018     5.9816      7.445   264.8071 1.3214e+01    15.5369      0.420      0.609    15.4270   999.0552 0.0000e+00
      0.438      0.054     6.1470     90.190     40.016  32.354799     5.7977      7.444   264.7411 1.2873e+01    15.2155      0.429      0.622    15.4267   999.0553 0.0000e+00
      0.449      0.046     6.1959     90.306     40.032  32.367263     5.4731      7.443   264.9179 1.2518e+01    14.7012      0.439      0.637    15.4261   999.0554 0.0000e+00
      0.459      0.043     6.2461     90.180     40.048  32.378791     5.2997      7.441   265.2248 1.2250e+01    14.4314      0.451      0.654    15.4258   999.0555 0.0000e+00
      0.468      0.046     6.2867     89.835     40.035  32.367261     5.2872      7.439   265.3541 1.2061e+01    14.4113      0.460      0.667    15.4253   999.0556 0.0000e+00
      0.475      0.051     6.3107     89.387     40.021  32.354780     5.2443      7.437   265.3631 1.1921e+01    14.5238      0.465      0.674    15.4244   999.0558 0.0000e+00
      0.485      0.055     6.3194     88.923     40.022  32.354802     5.1623      7.436   265.3338 1.1609e+01    14.7429      0.470      0.683    15.4234   999.0560 0.0000e+00
      0.505      0.056     6.3117     88.488     40.037  32.367525     5.1201      7.435   265.2581 1.1052e+01    14.8641      0.493      0.715    15.4220   999.0563 0.0000e+00
      0.528      0.053     6.2828     88.107     40.055  32.381685     5.1161      7.434   265.2218 1.0609e+01    14.8424      0.520      0.754    15.4207   999.0566 0.0000e+00
      0.546      0.048     6.2500     87.763     40.076  32.399097     5.0956      7.433   265.3247 1.0441e+01    14.7101      0.536      0.778    15.4193   999.0569 0.0000e+00
      0.556      0.042     6.2172     87.435     40.141  32.451124     5.0635      7.432   265.3842 1.0451e+01    14.5097      0.547      0.794    15.4182   999.0571 0.0000e+00
      0.560      0.036     6.1853     87.203     40.206  32.503047     5.0566      7.430   265.3377 1.0567e+01    14.4189      0.550      0.798    15.4178   999.0572 0.0000e+00
      0.562      0.036     6.1597     87.401     40.229  32.519201     5.0734      7.428   265.3652 1.0676e+01    14.4641      0.549      0.797    15.4178   999.0572 0.0000e+00
      0.567      0.041     6.1367     88.586     40.236  32.519525     5.1192      7.425   265.4583 1.0684e+01    14.5979      0.554      0.803    15.4175   999.0574 0.0000e+00
      0.578      0.051     6.1128     91.073     40.231  32.506960     5.1857      7.422   265.6041 1.0598e+01    14.7584      0.565      0.820    15.4172   999.0575 0.0000e+00
      0.595      0.060     6.0894     94.600     40.227  32.494187     5.2187      7.419   265.7513 1.0408e+01    14.8317      0.581      0.843    15.4180   999.0574 0.0000e+00
      0.615      0.066     6.0865     98.639     40.235  32.491996     5.2223      7.416   265.7744 1.0106e+01    14.8607      0.602      0.873    15.4151   999.0579 0.0000e+00
      0.638      0.066     6.1586    102.664     40.226  32.480457     5.2208      7.414   265.7123 9.7650e+00    14.8466      0.626      0.908    15.4082   999.0591 0.0000e+00
      0.659      0.061     6.3449    106.223     40.231  32.481592     5.2097      7.413   265.7751 9.4972e+00    14.5962      0.648      0.940    15.3987   999.0608 0.0000e+00
      0.674      0.056     6.6074    109.009     40.264  32.505708     5.1916      7.412   265.9306 9.3782e+00    14.1927      0.663      0.963    15.3844   999.0630 0.0000e+00
      0.682      0.052     6.9040    110.816     40.284  32.518192     5.1751      7.410   265.9584 9.3158e+00    13.9656      0.670      0.971    15.3725   999.0649 0.0000e+00
      0.688      0.052     7.1991    111.589     40.274  32.505606     5.1758      7.409   265.9392 9.1713e+00    13.9483      0.673      0.976    15.3675   999.0657 0.0000e+00
      0.698      0.056     7.4545    111.503     40.248  32.480449     5.2781      7.407   266.0420 8.9403e+00    14.2456      0.683      0.992    15.3647   999.0662 0.0000e+00
      0.713      0.061     7.6557    110.898     40.238  32.467861     5.4663      7.405   266.1682 8.6464e+00    14.8068      0.699      1.012    15.3619   999.0667 0.0000e+00
      0.733      0.066     7.7851    110.108     40.262  32.480326     5.5701      7.404   266.1749 8.2690e+00    15.1297      0.718      1.040    15.3579   999.0674 0.0000e+00
      0.756      0.067     7.8354    109.331     40.302  32.504234     5.5881      7.403   266.1231 7.9046e+00    15.1356      0.742      1.077    15.3521   999.0684 0.0000e+00
      0.778      0.062     7.8210    108.639     40.310  32.503069     5.6315      7.403   266.1440 7.6398e+00    14.8775      0.764      1.108    15.3469   999.0693 0.0000e+00
      0.795      0.054     7.7701    108.004     40.269  32.466242     5.6966      7.402   266.2557 7.4698e+00    14.4339      0.780      1.132    15.3423   999.0700 0.0000e+00
      0.806      0.048     7.7120    107.361     40.239  32.439714     5.7162      7.401   266.3554 7.4068e+00    14.2299      0.793      1.149    15.3337   999.0714 0.0000e+00
      0.812      0.044     7.6578    106.706     40.239  32.436159     5.7029      7.398   266.4025 7.4039e+00    14.2454      0.797      1.156    15.3213   999.0733 0.0000e+00
      0.817      0.045     7.6116    106.041     40.230  32.423260     5.7614      7.396   266.4818 7.3511e+00    14.3929      0.799      1.160    15.3113   999.0750 0.0000e+00
      0.825      0.049     7.5711    105.359     40.225  32.410668     5.8869      7.394   266.6262 7.1583e+00    14.7343      0.805      1.169    15.3070   999.0757 0.0000e+00
      0.840      0.055     7.5251    104.699     40.239  32.410813     5.9544      7.391   266.7716 6.8304e+00    14.9327      0.821      1.191    15.3051   999.0761 0.0000e+00
      0.860      0.060     7.4796    104.068     40.268  32.425013     5.9537      7.389   266.8632 6.4949e+00    14.9235      0.843      1.223    15.3017   999.0767 0.0000e+00
      0.880      0.062     7.4352    103.449     40.471  32.582347     5.8606      7.387   266.8737 6.2454e+00    14.9177      0.865      1.254    15.2964   999.0776 0.0000e+00
      0.897      0.060     7.3871    102.871     40.657  32.726559     5.6873      7.386   266.8978 6.0561e+00    14.8963      0.881      1.278    15.2842   999.0795 0.0000e+00
      0.911      0.055     7.3433    102.368     40.482  32.582110     5.6010      7.385   266.9823 5.9056e+00    14.8617      0.894      1.296    15.2677   999.0821 0.0000e+00
      0.923      0.050     7.3020    101.932     40.287  32.422372     5.5970      7.384   267.0352 5.7761e+00    14.8594      0.905      1.312    15.2573   999.0838 0.0000e+00
      0.934      0.047     7.2582    101.542     40.238  32.381728     5.5710      7.382   267.0211 5.6456e+00    14.8684      0.917      1.328    15.2505   999.0850 0.0000e+00
      0.945      0.045     7.2176    101.215     40.193  32.344537     5.4162      7.382   266.9835 5.5332e+00    14.9367      0.928      1.346    15.2432   999.0862 0.0000e+00
      0.955      0.044     7.1838    100.960     40.209  32.353450     5.1549      7.382   267.0115 5.4295e+00    15.0635      0.937      1.359    15.2374   999.0870 0.0000e+00
      0.966      0.043     7.1546    100.769     40.226  32.362575     5.0132      7.380   267.0153 5.2955e+00    15.1234      0.946      1.372    15.2342   999.0875 0.0000e+00
      0.979      0.042     7.1264    100.641     40.190  32.327940     4.9944      7.378   266.9436 5.1606e+00    15.1037      0.960      1.393    15.2348   999.0876 0.0000e+00
      0.990      0.040     7.1028    100.540     40.185  32.315437     4.8843      7.378   267.0043 5.0636e+00    15.2190      0.973      1.411    15.2347   999.0875 0.0000e+00
      1.000      0.040     7.0872    100.424     40.228  32.338314     4.6786      7.378   267.1476 4.9668e+00    15.5339      0.981      1.423    15.2287   999.0885 0.0000e+00
      1.009      0.039     7.0733    100.279     40.258  32.350685     4.5716      7.376   267.2131 4.8468e+00    15.7651      0.989      1.435    15.2216   999.0897 0.0000e+00
      1.018      0.037     7.0670    100.089     40.255  32.338079     4.5698      7.375   267.2806 4.7252e+00    15.8191      0.998      1.447    15.2164   999.0904 0.0000e+00
      1.027      0.037     7.0629     99.870     40.231  32.312809     4.5530      7.375   267.3611 4.5957e+00    15.6953      1.006      1.459    15.2058   999.0921 0.0000e+00
      1.037      0.038     7.0562     99.641     40.220  32.298974     4.5067      7.375   267.4120 4.4699e+00    15.4483      1.018      1.475    15.1907   999.0945 0.0000e+00
      1.047      0.041     7.0498     99.393     40.227  32.297717     4.4780      7.373   267.4659 4.3713e+00    15.3228      1.028      1.491    15.1756   999.0968 0.0000e+00
      1.056      0.045     7.0378     99.139     40.243  32.297603     4.4749      7.371   267.4967 4.2691e+00    15.3250      1.035      1.502    15.1615   999.0990 0.0000e+00
      1.066      0.051     7.0224     98.906     40.267  32.297585     4.4604      7.369   267.5256 4.1449e+00    15.4749      1.044      1.515    15.1537   999.1003 0.0000e+00
      1.079      0.056     7.0080     98.690     40.296  32.297483     4.4252      7.366   267.6434 4.0004e+00    15.7588      1.057      1.534    15.1508   999.1008 0.0000e+00
      1.096      0.060     6.9911     98.463     40.323  32.296333     4.4043      7.364   267.8033 3.8315e+00    15.9059      1.073      1.557    15.1438   999.1019 0.0000e+00
      1.114      0.061     6.9746     98.172     40.331  32.283643     4.4162      7.363   267.9953 3.6560e+00    15.8765      1.092      1.584    15.1259   999.1047 0.0000e+00
      1.133      0.059     6.9624     97.786     40.335  32.270952     4.4648      7.361   268.1579 3.5069e+00    15.3059      1.112      1.614    15.1024   999.1083 0.0000e+00
      1.149      0.054     6.9519     97.326     40.352  32.269790     4.5409      7.357   268.2205 3.3912e+00    14.2178      1.128      1.638    15.0724   999.1130 0.0000e+00
      1.162      0.048     6.9426     96.825     40.369  32.269583     4.5815      7.356   268.3228 3.2977e+00    13.6001      1.139      1.652    15.0401   999.1180 0.0000e+00
      1.172      0.043     6.9264     96.318     40.379  32.268430     4.5749      7.355   268.4484 3.2298e+00    13.5068      1.149      1.666    15.0185   999.1213 0.0000e+00
      1.180      0.038     6.9008     95.863     40.364  32.255840     4.5647      7.353   268.5342 3.1723e+00    13.4503      1.158      1.679    15.0005   999.1241 0.0000e+00
      1.188      0.035     6.8703     95.472     40.343  32.244276     4.5878      7.351   268.5858 3.1022e+00    12.8513      1.164      1.688    14.9812   999.1269 0.0000e+00
      1.197      0.035     6.8373     95.134     40.352  32.255537     4.6299      7.349   268.5561 3.0261e+00    11.7049      1.173      1.702    14.9632   999.1297 0.0000e+00
      1.206      0.035     6.8012     94.892     40.371  32.265084     4.6403      7.347   268.6051 2.9575e+00    11.0598      1.183      1.715    14.9497   999.1319 0.0000e+00
      1.214      0.035     6.7684     94.765     40.357  32.232769     4.6175      7.346   268.8342 2.8955e+00    10.9832      1.190      1.726    14.9503   999.1318 0.0000e+00
      1.224      0.036     6.7414     94.699     40.332  32.182109     4.4755      7.344   269.0029 2.8274e+00    10.8435      1.201      1.740    14.9605   999.1302 0.0000e+00
      1.234      0.036     6.7139     94.624     40.343  32.160204     4.2154      7.343   269.0106 2.7592e+00    10.5513      1.211      1.756    14.9679   999.1292 0.0000e+00
      1.243      0.036     6.6967     94.494     40.372  32.158258     4.0645      7.342   269.0132 2.7022e+00    10.3672      1.218      1.767    14.9649   999.1297 0.0000e+00
      1.252      0.035     6.6935     94.280     40.391  32.158546     4.0467      7.340   269.1212 2.6319e+00    10.3209      1.227      1.779    14.9367   999.1339 0.0000e+00
      1.262      0.034     6.6972     93.993     40.403  32.163680     4.0529      7.339   269.1975 2.5561e+00    10.0249      1.237      1.794    14.8924   999.1406 0.0000e+00
      1.271      0.032     6.6990     93.680     40.395  32.156860     4.0617      7.336   269.1613 2.5043e+00     9.4749      1.246      1.807    14.8516   999.1468 0.0000e+00
      1.278      0.030     6.6951     93.355     40.371  32.139543     4.0576      7.334   269.1990 2.4599e+00     9.1771      1.254      1.818    14.8184   999.1517 0.0000e+00
      1.286      0.030     6.6831     93.053     40.379  32.144687     4.0547      7.333   269.3105 2.4136e+00     9.1772      1.262      1.829    14.8005   999.1544 0.0000e+00
      1.293      0.031     6.6601     92.834     40.399  32.155600     4.1312      7.332   269.4768 2.3749e+00     9.2139      1.268      1.839    14.7987   999.1547 0.0000e+00
      1.298      0.034     6.6389     92.734     40.393  32.144565     4.2800      7.329   269.7459 2.3382e+00     9.2269      1.273      1.847    14.7991   999.1546 0.0000e+00
      1.305      0.036     6.6146     92.747     40.391  32.138172     4.3631      7.327   269.9837 2.2889e+00     9.2371      1.278      1.854    14.8022   999.1542 0.0000e+00
      1.316      0.038     6.5905     92.827     40.401  32.141748     4.3639      7.325   270.1152 2.2157e+00     9.2718      1.288      1.870    14.8033   999.1541 0.0000e+00
      1.330      0.039     6.5766     92.956     40.386  32.124336     4.2813      7.324   270.1306 2.1387e+00     9.3518      1.305      1.893    14.7936   999.1556 0.0000e+00
      1.342      0.039     6.5693     93.106     40.383  32.118027     4.1355      7.322   270.1700 2.0772e+00     9.4501      1.319      1.913    14.7852   999.1569 0.0000e+00
      1.351      0.038     6.5739     93.218     40.400  32.128922     4.0573      7.320   270.3335 2.0290e+00     9.4770      1.326      1.923    14.7808   999.1576 0.0000e+00
      1.358      0.036     6.5799     93.289     40.398  32.129138     4.0470      7.318   270.4735 2.0030e+00     9.4473      1.332      1.932    14.7744   999.1586 0.0000e+00
      1.365      0.036     6.5900     93.332     40.383  32.120646     4.0462      7.316   270.5724 1.9916e+00     9.4179      1.338      1.941    14.7679   999.1596 0.0000e+00
      1.374      0.039     6.6047     93.343     40.348  32.089710     4.0296      7.313   270.6689 1.9576e+00     9.4176      1.346      1.952    14.7629   999.1603 0.0000e+00
      1.385      0.044     6.6120     93.308     40.341  32.072387     3.9943      7.311   270.7792 1.8958e+00     9.4444      1.357      1.968    14.7574   999.1613 0.0000e+00
      1.396      0.048     6.6171     93.256     40.399  32.101564     3.9750      7.309   270.8733 1.8364e+00     9.4468      1.369      1.985    14.7599   999.1610 0.0000e+00
      1.410      0.051     6.6179     93.240     40.451  32.125171     3.9698      7.307   270.9467 1.7833e+00     9.3806      1.382      2.003    14.7702   999.1594 0.0000e+00
      1.425      0.052     6.6203     93.230     40.444  32.103951     3.9572      7.306   271.0644 1.7348e+00     8.9720      1.397      2.026    14.7682   999.1599 0.0000e+00
      1.440      0.052     6.6197     93.157     40.450  32.098806     3.9439      7.304   271.1777 1.6928e+00     8.2754      1.414      2.051    14.7502   999.1626 0.0000e+00
      1.453      0.051     6.6168     92.999     40.491  32.126413     3.9389      7.302   271.1984 1.6535e+00     7.9055      1.425      2.067    14.7267   999.1661 0.0000e+00
      1.464      0.049     6.6201     92.733     40.484  32.120445     3.9315      7.299   271.2289 1.6164e+00     7.8422      1.436      2.083    14.7038   999.1696 0.0000e+00
      1.476      0.047     6.6249     92.324     40.444  32.090108     3.8120      7.297   271.3732 1.5718e+00     7.4765      1.448      2.101    14.6842   999.1725 0.0000e+00
      1.488      0.044     6.6216     91.813     40.428  32.076904     3.5768      7.296   271.4806 1.5364e+00     6.8269      1.458      2.116    14.6705   999.1746 0.0000e+00
      1.499      0.042     6.6110     91.254     40.444  32.087723     3.4461      7.294   271.5814 1.5194e+00     6.5097      1.470      2.132    14.6653   999.1754 0.0000e+00
      1.511      0.039     6.5948     90.693     40.457  32.093995     3.4371      7.293   271.7312 1.4989e+00     6.5256      1.482      2.149    14.6666   999.1752 0.0000e+00
      1.521      0.035     6.5626     90.188     40.454  32.089265     3.4241      7.292   271.8297 1.4771e+00     6.5267      1.493      2.165    14.6698   999.1747 0.0000e+00
      1.529      0.032     6.5253     89.799     40.460  32.093993     3.4019      7.291   271.8259 1.4545e+00     6.4911      1.500      2.175    14.6703   999.1748 0.0000e+00
      1.535      0.029     6.4849     89.544     40.454  32.087713     3.3938      7.289   271.7708 1.4350e+00     6.4550      1.506      2.183    14.6665   999.1754 0.0000e+00
      1.542      0.027     6.4448     89.381     40.441  32.076790     3.3864      7.287   271.8516 1.4237e+00     6.4511      1.512      2.193    14.6591   999.1765 0.0000e+00
      1.547      0.027     6.4074     89.270     40.452  32.088837     3.2779      7.287   272.0295 1.4099e+00     6.3127      1.517      2.201    14.6563   999.1768 0.0000e+00
      1.553      0.028     6.3789     89.237     40.471  32.106464     3.0786      7.287   272.2001 1.3958e+00     5.9948      1.523      2.209    14.6587   999.1765 0.0000e+00
      1.561      0.030     6.3625     89.277     40.465  32.099542     2.9621      7.286   272.3656 1.3828e+00     5.8191      1.531      2.219    14.6555   999.1771 0.0000e+00
      1.568      0.033     6.3532     89.334     40.434  32.068598     2.9448      7.283   272.4828 1.3646e+00     5.8263      1.538      2.230    14.6534   999.1773 0.0000e+00
      1.577      0.037     6.3430     89.428     40.419  32.049618     2.9571      7.281   272.5844 1.3379e+00     5.8198      1.546      2.242    14.6591   999.1766 0.0000e+00
      1.588      0.039     6.3386     89.558     40.444  32.060418     2.9890      7.280   272.6473 1.3088e+00     5.7412      1.556      2.257    14.6651   999.1758 0.0000e+00
      1.599      0.041     6.3464     89.675     40.475  32.072249     3.0190      7.279   272.6403 1.2831e+00     5.6294      1.567      2.274    14.6623   999.1763 0.0000e+00
      1.610      0.042     6.3486     89.758     40.486  32.065733     3.0241      7.276   272.6723 1.2571e+00     5.5490      1.578      2.289    14.6522   999.1778 0.0000e+00
      1.621      0.042     6.3571     89.813     40.480  32.045079     3.0160      7.274   272.6902 1.2351e+00     5.5234      1.590      2.306    14.6443   999.1790 0.0000e+00
      1.631      0.041     6.3695     89.843     40.457  32.012889     3.0598      7.273   272.6850 1.2207e+00     5.6140      1.599      2.320    14.6344   999.1806 0.0000e+00
      1.642      0.040     6.3804     89.847     40.445  31.993806     3.1555      7.271   272.7815 1.1948e+00     5.7598      1.609      2.333    14.6176   999.1830 0.0000e+00
      1.652      0.038     6.3888     89.819     40.465  32.004710     3.2107      7.271   272.9100 1.1569e+00     5.8122      1.621      2.351    14.5977   999.1860 0.0000e+00
      1.661      0.035     6.3953     89.742     40.488  32.017798     3.2157      7.271   273.0341 1.1393e+00     5.8212      1.630      2.364    14.5767   999.1891 0.0000e+00
      1.670      0.032     6.4007     89.612     40.505  32.025136     3.1810      7.270   273.1636 1.1316e+00     5.7377      1.638      2.375    14.5578   999.1919 0.0000e+00
      1.678      0.030     6.4019     89.441     40.521  32.029970     3.1201      7.267   273.2721 1.1127e+00     5.5234      1.647      2.388    14.5470   999.1935 0.0000e+00
      1.684      0.029     6.4017     89.220     40.506  32.012769     3.0956      7.265   273.3990 1.1018e+00     5.3932      1.653      2.396    14.5424   999.1942 0.0000e+00
      1.689      0.030     6.3968     88.934     40.501  32.007521     3.0841      7.265   273.5791 1.0993e+00     5.3756      1.656      2.402    14.5373   999.1949 0.0000e+00
      1.695      0.031     6.3882     88.609     40.524  32.029982     2.9808      7.264   273.7288 1.0875e+00     5.4420      1.662      2.411    14.5296   999.1961 0.0000e+00
      1.704      0.034     6.3773     88.269     40.515  32.030511     2.8175      7.261   273.8329 1.0586e+00     5.5740      1.670      2.423    14.5189   999.1977 0.0000e+00
      1.714      0.037     6.3643     87.918     40.486  32.013923     2.7393      7.259   273.9774 1.0290e+00     5.6279      1.680      2.437    14.5095   999.1991 0.0000e+00
      1.725      0.039     6.3427     87.608     40.492  32.019803     2.7205      7.257   274.0999 1.0138e+00     5.6016      1.691      2.453    14.5080   999.1994 0.0000e+00
      1.736      0.039     6.3176     87.402     40.518  32.038161     2.6065      7.257   274.1091 1.0104e+00     5.5186      1.702      2.470    14.5141   999.1985 0.0000e+00
      1.746      0.037     6.2929     87.298     40.534  32.045502     2.4111      7.256   274.0026 1.0105e+00     5.4104      1.712      2.484    14.5265   999.1967 0.0000e+00
      1.755      0.034     6.2646     87.281     40.545  32.045087     2.3088      7.255   273.9307 9.9405e-01     5.3749      1.722      2.497    14.5367   999.1953 0.0000e+00
      1.764      0.030     6.2402     87.332     40.544  32.033136     2.2971      7.252   274.0142 9.7933e-01     5.3849      1.730      2.509    14.5364   999.1954 0.0000e+00
      1.771      0.027     6.2270     87.393     40.548  32.027907     2.2871      7.251   274.1512 9.7496e-01     5.3667      1.738      2.520    14.5326   999.1960 0.0000e+00
      1.777      0.026     6.2206     87.410     40.578  32.045321     2.2827      7.250   274.2972 9.5410e-01     5.3186      1.744      2.529    14.5277   999.1967 0.0000e+00
      1.782      0.027     6.2207     87.334     40.594  32.053294     2.2797      7.248   274.4022 9.3595e-01     5.2955      1.749      2.535    14.5146   999.1986 0.0000e+00
      1.787      0.029     6.2290     87.128     40.609  32.060841     2.2763      7.247   274.3885 9.3354e-01     5.3161      1.752      2.541    14.4981   999.2010 0.0000e+00
      1.793      0.033     6.2357     86.803     40.631  32.073108     2.2856      7.247   274.3890 9.3142e-01     5.3387      1.758      2.550    14.4885   999.2025 0.0000e+00
      1.802      0.038     6.2388     86.378     40.643  32.074689     2.4001      7.246   274.4941 9.1804e-01     5.4046      1.768      2.564    14.4833   999.2033 0.0000e+00
      1.814      0.042     6.2356     85.870     40.663  32.079941     2.6033      7.243   274.6267 8.8254e-01     5.5231      1.778      2.579    14.4773   999.2042 0.0000e+00
      1.828      0.043     6.2210     85.330     40.663  32.073142     2.7049      7.241   274.7018 8.4465e-01     5.5926      1.792      2.599    14.4714   999.2052 0.0000e+00
      1.842      0.041     6.1977     84.818     40.645  32.055930     2.7090      7.241   274.7147 8.2649e-01     5.5889      1.808      2.622    14.4666   999.2059 0.0000e+00
      1.854      0.036     6.1688     84.319     40.655  32.062219     2.6970      7.241   274.7823 8.1478e-01     5.4452      1.820      2.640    14.4564   999.2074 0.0000e+00
      1.861      0.030     6.1336     83.826     40.690  32.085721     2.6721      7.240   274.9172 8.0693e-01     5.1983      1.826      2.648    14.4413   999.2096 0.0000e+00
      1.866      0.025     6.0930     83.351     40.699  32.086242     2.6594      7.238   275.0553 8.0810e-01     5.0952      1.830      2.654    14.4315   999.2111 0.0000e+00
      1.870      0.022     6.0588     82.876     40.684  32.068510     2.6559      7.237   275.1616 8.0362e-01     5.1156      1.835      2.662    14.4296   999.2114 0.0000e+00
      1.874      0.022     6.0233     82.455     40.679  32.061692     2.5952      7.237   275.2559 7.9240e-01     5.1175      1.838      2.666    14.4298   999.2113 0.0000e+00
      1.878      0.024     5.9869     82.140     40.684  32.067262     2.4810      7.235   275.3351 7.7588e-01     5.1180      1.842      2.670    14.4241   999.2122 0.0000e+00
      1.885      0.026     5.9572     81.900     40.685  32.072407     2.4278      7.233   275.3442 7.6094e-01     5.1221      1.848      2.680    14.4144   999.2136 0.0000e+00
      1.894      0.028     5.9215     81.716     40.663  32.060442     2.4285      7.231   275.3665 7.5516e-01     5.1011      1.857      2.694    14.4073   999.2147 0.0000e+00
      1.904      0.029     5.8893     81.587     40.645  32.049519     2.4463      7.231   275.4326 7.4749e-01     4.9952      1.867      2.708    14.4038   999.2153 0.0000e+00
      1.913      0.029     5.8693     81.518     40.667  32.067260     2.4958      7.230   275.5420 7.4495e-01     4.8250      1.877      2.722    14.4050   999.2151 0.0000e+00
      1.919      0.028     5.8510     81.513     40.690  32.084567     2.5238      7.229   275.6555 7.4425e-01     4.7140      1.882      2.729    14.4116   999.2141 0.0000e+00
      1.924      0.028     5.8372     81.587     40.670  32.068395     2.5249      7.227   275.6870 7.4244e-01     4.6694      1.886      2.734    14.4194   999.2131 0.0000e+00
      1.930      0.029     5.8267     81.718     40.664  32.062112     2.5264      7.226   275.6636 7.5031e-01     4.6467      1.893      2.746    14.4248   999.2123 0.0000e+00
      1.937      0.031     5.8223     81.841     40.683  32.072054     2.4552      7.223   275.7172 7.4337e-01     4.6354      1.900      2.756    14.4242   999.2124 0.0000e+00
      1.946      0.034     5.8216     81.944     40.680  32.061672     2.3140      7.222   275.8188 7.1663e-01     4.6318      1.907      2.765    14.4208   999.2130 0.0000e+00
      1.956      0.038     5.8265     82.020     40.694  32.063500     2.2407      7.221   275.8607 6.9343e-01     4.6358      1.918      2.781    14.4221   999.2128 0.0000e+00
      1.966      0.041     5.8397     82.060     40.747  32.094137     2.2458      7.219   275.9643 6.7498e-01     4.6508      1.928      2.796    14.4218   999.2129 0.0000e+00
      1.977      0.044     5.8479     82.055     40.789  32.114794     2.3062      7.217   276.1251 6.6248e-01     4.6164      1.937      2.810    14.4141   999.2141 0.0000e+00
      1.989      0.046     5.8575     81.968     40.815  32.122863     2.4082      7.216   276.2564 6.6064e-01     4.4823      1.950      2.828    14.4038   999.2156 0.0000e+00
      2.001      0.046     5.8642     81.768     40.835  32.128227     2.4552      7.215   276.3479 6.6054e-01     4.3731      1.962      2.846    14.3940   999.2171 0.0000e+00
      2.014      0.046     5.8686     81.462     40.830  32.116180     2.4497      7.213   276.3700 6.4841e-01     4.3776      1.974      2.863    14.3802   999.2191 0.0000e+00
      2.026      0.045     5.8721     81.081     40.821  32.104116     2.3942      7.212   276.3529 6.2880e-01     4.4706      1.988      2.883    14.3627   999.2217 0.0000e+00
      2.037      0.043     5.8684     80.634     40.834  32.109272     2.2870      7.210   276.3987 6.1425e-01     4.5802      1.998      2.898    14.3478   999.2239 0.0000e+00
      2.047      0.042     5.8563     80.140     40.848  32.115052     2.2287      7.207   276.5797 5.9996e-01     4.6220      2.007      2.911    14.3339   999.2260 0.0000e+00
      2.057      0.039     5.8335     79.615     40.848  32.110533     2.2273      7.205   276.7349 5.9056e-01     4.6149      2.018      2.926    14.3243   999.2274 0.0000e+00
      2.067      0.037     5.8077     79.076     40.861  32.118089     2.2348      7.205   276.8121 5.9105e-01     4.5933      2.028      2.941    14.3197   999.2281 0.0000e+00
      2.077      0.036     5.7756     78.592     40.895  32.142954     2.2408      7.204   276.9116 5.8377e-01     4.5239      2.037      2.955    14.3141   999.2289 0.0000e+00
      2.086      0.036     5.7401     78.187     40.917  32.157320     2.2397      7.202   276.9910 5.6720e-01     4.4315      2.046      2.968    14.3057   999.2302 0.0000e+00
      2.093      0.037     5.7047     77.831     40.932  32.164870     2.2386      7.198   277.0842 5.6166e-01     4.3948      2.053      2.978    14.2996   999.2311 0.0000e+00
      2.102      0.038     5.6626     77.511     40.944  32.170767     2.2540      7.197   277.2640 5.6646e-01     4.4071      2.059      2.987    14.2979   999.2313 0.0000e+00
      2.112      0.040     5.6277     77.226     40.942  32.165166     2.2861      7.196   277.4437 5.5516e-01     4.4162      2.070      3.003    14.2968   999.2315 0.0000e+00
      2.123      0.041     5.6010     76.985     40.945  32.160605     2.2975      7.194   277.5363 5.3197e-01     4.4071      2.083      3.021    14.2928   999.2322 0.0000e+00
      2.135      0.040     5.5762     76.800     40.978  32.179073     2.2876      7.192   277.6092 5.3321e-01     4.3951      2.093      3.036    14.2855   999.2332 0.0000e+00
      2.148      0.036     5.5535     76.660     41.005  32.198060     2.2800      7.189   277.7230 5.4635e-01     4.3686      2.107      3.056    14.2834   999.2337 0.0000e+00
      2.159      0.032     5.5333     76.519     41.003  32.199798     2.2490      7.187   277.8799 5.4038e-01     4.2838      2.120      3.073    14.2806   999.2342 0.0000e+00
      2.165      0.032     5.5171     76.373     40.996  32.200098     2.1981      7.186   278.0425 5.3174e-01     4.2216      2.125      3.082    14.2687   999.2359 0.0000e+00
      2.167      0.035     5.5049     76.261     40.992  32.201687     2.1680      7.183   278.1409 5.3368e-01     4.2062      2.126      3.084    14.2576   999.2374 0.0000e+00
      2.169      0.041     5.4973     76.209     41.015  32.219008     2.1632      7.180   278.2088 5.2616e-01     4.1639      2.125      3.082    14.2552   999.2378 0.0000e+00
      2.179      0.048     5.4866     76.199     41.022  32.219152     2.1572      7.177   278.3474 5.0706e-01     4.1688      2.133      3.094    14.2604   999.2371 0.0000e+00
      2.199      0.054     5.4735     76.204     41.012  32.203420     2.1294      7.175   278.4406 4.8947e-01     4.2326      2.156      3.128    14.2692   999.2360 0.0000e+00
      2.221      0.056     5.4637     76.219     41.045  32.219170     2.1053      7.173   278.5613 4.7070e-01     4.2471      2.180      3.162    14.2765   999.2350 0.0000e+00
      2.239      0.056     5.4610     76.259     41.059  32.219186     2.0988      7.171   278.8604 4.6597e-01     4.2129      2.199      3.189    14.2758   999.2351 0.0000e+00
      2.252      0.051     5.4619     76.315     41.051  32.203598     2.0684      7.168   279.0458 4.7139e-01     4.1474      2.210      3.206    14.2688   999.2362 0.0000e+00
      2.261      0.046     5.4635     76.340     41.084  32.221072     2.0147      7.166   279.0819 4.6262e-01     4.0450      2.218      3.217    14.2586   999.2377 0.0000e+00
      2.269      0.041     5.4657     76.294     41.116  32.240072     1.9870      7.166   279.2111 4.5186e-01     3.9906      2.224      3.226    14.2451   999.2398 0.0000e+00
      2.278      0.041     5.4699     76.171     41.126  32.242936     1.9858      7.164   279.3173 4.4834e-01     3.9808      2.234      3.239    14.2315   999.2417 0.0000e+00
      2.289      0.042     5.4775     75.989     41.146  32.255690     1.9738      7.162   279.3331 4.3994e-01     3.9263      2.245      3.256    14.2198   999.2433 0.0000e+00
      2.300      0.043     5.4812     75.756     41.165  32.267356     1.9457      7.161   279.4013 4.2562e-01     3.8243      2.255      3.271    14.2095   999.2449 0.0000e+00
      2.312      0.044     5.4791     75.471     41.154  32.257067     1.9325      7.160   279.4548 4.0876e-01     3.7629      2.267      3.287    14.2014   999.2461 0.0000e+00
      2.325      0.043     5.4703     75.180     41.156  32.258212     1.9267      7.159   279.4634 3.9893e-01     3.7410      2.281      3.308    14.1963   999.2469 0.0000e+00
      2.336      0.042     5.4570     74.943     41.186  32.281194     1.8590      7.156   279.5058 3.9936e-01     3.7239      2.292      3.324    14.1926   999.2474 0.0000e+00
      2.347      0.039     5.4417     74.756     41.187  32.281091     1.7455      7.154   279.5369 3.9930e-01     3.7523      2.301      3.337    14.1892   999.2480 0.0000e+00
      2.357      0.037     5.4202     74.612     41.157  32.256964     1.6905      7.153   279.4951 4.0235e-01     3.7892      2.312      3.354    14.1873   999.2483 0.0000e+00
      2.365      0.036     5.3963     74.532     41.139  32.243322     1.6885      7.152   279.5162 4.0096e-01     3.8096      2.319      3.365    14.1871   999.2483 0.0000e+00
      2.372      0.036     5.3810     74.533     41.137  32.243063     1.6863      7.151   279.7063 3.9425e-01     3.8022      2.325      3.373    14.1865   999.2486 0.0000e+00
      2.381      0.037     5.3676     74.581     41.148  32.253829     1.6820      7.149   279.9009 3.8824e-01     3.7654      2.334      3.384    14.1848   999.2488 0.0000e+00
      2.391      0.037     5.3568     74.617     41.137  32.246580     1.6791      7.147   279.9767 3.7380e-01     3.7576      2.344      3.399    14.1837   999.2489 0.0000e+00
      2.403      0.037     5.3502     74.642     41.100  32.218878     1.6776      7.147   280.0204 3.5775e-01     3.7736      2.356      3.417    14.1839   999.2490 0.0000e+00
      2.414      0.036     5.3507     74.661     41.120  32.236184     1.6810      7.146   279.9991 3.5150e-01     3.7624      2.368      3.435    14.1862   999.2487 0.0000e+00
      2.423      0.035     5.3568     74.676     41.156  32.265444     1.7292      7.145   279.9761 3.5508e-01     3.6878      2.377      3.447    14.1897   999.2483 0.0000e+00
      2.430      0.033     5.3576     74.686     41.142  32.255362     1.8186      7.144   280.0870 3.5899e-01     3.5597      2.383      3.456    14.1914   999.2481 0.0000e+00
      2.437      0.032     5.3600     74.713     41.124  32.241205     1.8684      7.144   280.1360 3.5864e-01     3.4921      2.390      3.467    14.1921   999.2479 0.0000e+00
      2.445      0.032     5.3605     74.779     41.101  32.221194     1.8632      7.143   280.1372 3.5595e-01     3.5258      2.398      3.478    14.1944   999.2477 0.0000e+00
      2.453      0.032     5.3616     74.851     41.084  32.203784     1.8077      7.141   280.2745 3.5153e-01     3.5404      2.406      3.490    14.1961   999.2475 0.0000e+00
      2.462      0.033     5.3621     74.901     41.113  32.221082     1.7179      7.139   280.4193 3.4297e-01     3.5058      2.414      3.501    14.1965   999.2475 0.0000e+00
      2.471      0.035     5.3621     74.932     41.140  32.239964     1.6792      7.139   280.4254 3.3676e-01     3.5002      2.423      3.514    14.1976   999.2474 0.0000e+00
      2.479      0.035     5.3692     74.958     41.144  32.241692     1.6952      7.139   280.4336 3.4206e-01     3.5058      2.430      3.525    14.1956   999.2477 0.0000e+00
      2.488      0.035     5.3755     74.987     41.147  32.241975     1.7297      7.138   280.5189 3.3890e-01     3.4423      2.439      3.538    14.1887   999.2486 0.0000e+00
      2.498      0.035     5.3800     74.997     41.153  32.243375     1.7755      7.138   280.5964 3.2482e-01     3.3220      2.451      3.554    14.1812   999.2498 0.0000e+00
      2.507      0.035     5.3821     74.967     41.178  32.258616     1.8063      7.138   280.5964 3.2249e-01     3.2641      2.460      3.567    14.1782   999.2503 0.0000e+00
      2.516      0.036     5.3832     74.905     41.235  32.299335     1.8166      7.137   280.6049 3.2737e-01     3.2992      2.467      3.578    14.1792   999.2501 0.0000e+00
      2.525      0.036     5.3865     74.828     41.310  32.354930     1.8134      7.135   280.7851 3.2756e-01     3.3861      2.476      3.591    14.1769   999.2505 0.0000e+00
      2.533      0.036     5.3888     74.737     41.402  32.423123     1.8022      7.133   280.9684 3.1609e-01     3.4955      2.483      3.602    14.1707   999.2514 0.0000e+00
      2.542      0.036     5.3868     74.635     41.490  32.489241     1.7930      7.132   281.0149 2.9572e-01     3.5405      2.492      3.614    14.1659   999.2522 0.0000e+00
      2.553      0.037     5.3820     74.519     41.533  32.519743     1.7972      7.131   281.0880 2.8898e-01     3.5370      2.505      3.632    14.1624   999.2528 0.0000e+00
      2.563      0.037     5.3775     74.359     41.559  32.538064     1.8014      7.130   281.2509 2.9601e-01     3.5518      2.515      3.647    14.1575   999.2535 0.0000e+00
      2.572      0.038     5.3712     74.128     41.621  32.583829     1.7573      7.129   281.3497 2.9935e-01     3.5558      2.522      3.657    14.1525   999.2542 0.0000e+00
      2.580      0.039     5.3642     73.828     41.682  32.628850     1.6797      7.128   281.3354 2.9529e-01     3.5192      2.530      3.670    14.1493   999.2548 0.0000e+00
      2.590      0.039     5.3570     73.460     41.697  32.638177     1.6347      7.126   281.3368 2.8384e-01     3.4695      2.540      3.684    14.1466   999.2552 0.0000e+00
      2.601      0.039     5.3470     73.006     41.693  32.633142     1.6292      7.124   281.4525 2.6889e-01     3.4799      2.551      3.700    14.1438   999.2557 0.0000e+00
      2.612      0.039     5.3303     72.484     41.694  32.631426     1.6564      7.123   281.6154 2.6221e-01     3.5136      2.562      3.716    14.1407   999.2562 0.0000e+00
      2.622      0.038     5.3087     71.939     41.679  32.617425     1.7035      7.122   281.7581 2.6453e-01     3.4832      2.571      3.730    14.1375   999.2567 0.0000e+00
      2.632      0.037     5.2840     71.407     41.646  32.590777     1.7308      7.121   281.8869 2.6013e-01     3.4741      2.582      3.745    14.1344   999.2572 0.0000e+00
      2.641      0.035     5.2509     70.922     41.611  32.563075     1.7441      7.120   281.8820 2.5575e-01     3.5333      2.591      3.757    14.1311   999.2577 0.0000e+00
      2.649      0.034     5.2121     70.521     41.576  32.536329     1.8120      7.120   281.7859 2.6154e-01     3.6413      2.597      3.767    14.1283   999.2581 0.0000e+00
      2.657      0.034     5.1727     70.222     41.556  32.521239     1.9193      7.119   281.8434 2.5748e-01     3.7973      2.606      3.781    14.1260   999.2584 0.0000e+00
      2.666      0.035     5.1337     70.043     41.538  32.507548     1.9671      7.117   282.0614 2.4619e-01     3.9123      2.615      3.792    14.1242   999.2587 0.0000e+00
      2.674      0.036     5.0976     69.982     41.527  32.497715     1.9650      7.115   282.2697 2.4821e-01     3.9831      2.622      3.803    14.1237   999.2589 0.0000e+00
      2.684      0.038     5.0687     70.027     41.568  32.529268     1.9189      7.114   282.3833 2.4903e-01     4.0306      2.632      3.817    14.1244   999.2588 0.0000e+00
      2.694      0.040     5.0461     70.155     41.623  32.571750     1.8254      7.111   282.4028 2.4271e-01     4.0281      2.642      3.832    14.1265   999.2585 0.0000e+00
      2.705      0.042     5.0335     70.338     41.617  32.567126     1.7624      7.109   282.4193 2.3037e-01     3.9847      2.652      3.847    14.1276   999.2584 0.0000e+00
      2.717      0.042     5.0297     70.564     41.578  32.536819     1.7380      7.107   282.4966 2.1861e-01     3.9332      2.664      3.864    14.1257   999.2587 0.0000e+00
      2.729      0.041     5.0333     70.799     41.559  32.522619     1.7044      7.106   282.5632 2.2314e-01     3.8968      2.676      3.881    14.1237   999.2591 0.0000e+00
      2.739      0.040     5.0441     71.000     41.558  32.522349     1.6595      7.104   282.6227 2.2150e-01     3.8069      2.686      3.895    14.1229   999.2593 0.0000e+00
      2.749      0.039     5.0566     71.157     41.573  32.533560     1.6365      7.103   282.6993 2.0803e-01     3.6976      2.696      3.910    14.1235   999.2592 0.0000e+00
      2.758      0.037     5.0739     71.277     41.571  32.531240     1.6346      7.101   282.8006 2.0339e-01     3.6895      2.706      3.924    14.1248   999.2590 0.0000e+00
      2.767      0.036     5.0922     71.357     41.526  32.494307     1.6451      7.099   282.9014 2.0971e-01     3.7095      2.713      3.934    14.1249   999.2591 0.0000e+00
      2.775      0.036     5.1068     71.388     41.495  32.467768     1.6694      7.098   282.8863 2.1991e-01     3.6444      2.721      3.946    14.1252   999.2591 0.0000e+00
      2.785      0.035     5.1173     71.384     41.493  32.464210     1.6856      7.097   282.9616 2.2795e-01     3.5576      2.731      3.961    14.1256   999.2591 0.0000e+00
      2.794      0.035     5.1264     71.370     41.479  32.451279     1.6842      7.096   283.2086 2.2985e-01     3.5111      2.740      3.975    14.1238   999.2593 0.0000e+00
      2.802      0.035     5.1330     71.358     41.464  32.438348     1.6791      7.094   283.3782 2.2262e-01     3.4756      2.748      3.986    14.1214   999.2598 0.0000e+00
      2.812      0.035     5.1349     71.339     41.460  32.434781     1.7099      7.093   283.4634 2.1286e-01     3.4242      2.758      4.000    14.1195   999.2600 0.0000e+00
      2.820      0.035     5.1344     71.347     41.428  32.408148     1.7705      7.092   283.5506 2.1194e-01     3.3482      2.767      4.013    14.1171   999.2604 0.0000e+00
      2.828      0.037     5.1326     71.412     41.381  32.370177     1.8060      7.091   283.6590 2.1073e-01     3.2782      2.773      4.021    14.1144   999.2608 0.0000e+00
      2.836      0.040     5.1335     71.503     41.366  32.356437     1.8089      7.090   283.7411 2.0283e-01     3.2656      2.781      4.034    14.1128   999.2610 0.0000e+00
      2.846      0.044     5.1305     71.592     41.385  32.368944     1.7887      7.088   283.7683 2.0163e-01     3.2942      2.790      4.047    14.1120   999.2612 0.0000e+00
      2.857      0.048     5.1301     71.693     41.420  32.394471     1.7608      7.087   283.8160 1.9835e-01     3.2959      2.801      4.061    14.1103   999.2615 0.0000e+00
      2.872      0.052     5.1365     71.822     41.445  32.411234     1.7487      7.087   283.9744 1.9173e-01     3.2864      2.816      4.084    14.1084   999.2618 0.0000e+00
      2.887      0.054     5.1443     71.972     41.490  32.444704     1.7379      7.086   284.1340 1.9217e-01     3.3100      2.833      4.108    14.1064   999.2621 0.0000e+00
      2.901      0.055     5.1502     72.145     41.621  32.545309     1.6829      7.084   284.1972 1.9665e-01     3.3188      2.846      4.128    14.1037   999.2626 0.0000e+00
      2.915      0.054     5.1568     72.323     41.791  32.675706     1.6030      7.081   284.3087 2.0928e-01     3.2944      2.859      4.147    14.1013   999.2630 0.0000e+00
      2.930      0.052     5.1678     72.468     41.891  32.752082     1.5694      7.081   284.4497 2.0948e-01     3.2778      2.873      4.167    14.0987   999.2635 0.0000e+00
      2.944      0.050     5.1774     72.564     41.919  32.770679     1.5633      7.080   284.5256 1.9328e-01     3.2819      2.888      4.187    14.0961   999.2639 0.0000e+00
      2.955      0.048     5.1913     72.608     41.926  32.773639     1.5464      7.079   284.5380 1.9043e-01     3.3110      2.898      4.203    14.0937   999.2643 0.0000e+00
      2.967      0.045     5.2052     72.535     41.945  32.787867     1.5388      7.078   284.5139 1.8910e-01     3.3347      2.909      4.220    14.0909   999.2648 0.0000e+00
      2.979      0.042     5.2171     72.288     41.980  32.815786     1.5487      7.077   284.5784 1.7176e-01     3.3397      2.921      4.239    14.0882   999.2652 0.0000e+00
      2.989      0.040     5.2227     71.874     42.031  32.857347     1.5622      7.076   284.7153 1.5801e-01     3.3382      2.931      4.252    14.0852   999.2658 0.0000e+00
      2.998      0.039     5.2292     71.329     42.099  32.909606     1.5628      7.075   284.7917 1.6327e-01     3.3173      2.940      4.264    14.0812   999.2664 0.0000e+00
      3.008      0.037     5.2261     70.734     42.142  32.939942     1.5213      7.075   284.8133 1.7794e-01     3.2842      2.950      4.279    14.0794   999.2667 0.0000e+00
      3.017      0.034     5.2067     70.156     42.185  32.970277     1.4602      7.074   284.8058 1.7427e-01     3.2975      2.959      4.291    14.0818   999.2664 0.0000e+00
      3.027      0.032     5.1773     69.638     42.255  33.022538     1.4402      7.072   284.7873 1.5569e-01     3.3468      2.969      4.304    14.0848   999.2660 0.0000e+00
      3.035      0.030     5.1345     69.203     42.310  33.064117     1.4432      7.071   284.7615 1.5055e-01     3.3230      2.979      4.319    14.0832   999.2664 0.0000e+00
      3.041      0.028     5.0912     68.842     42.348  33.092220     1.4267      7.071   284.7515 1.5526e-01     3.2721      2.982      4.325    14.0788   999.2670 0.0000e+00
      3.047      0.027     5.0486     68.532     42.370  33.108480     1.3974      7.070   284.8387 1.6237e-01     3.2890      2.988      4.333    14.0751   999.2675 0.0000e+00
      3.053      0.026     5.0112     68.277     42.404  33.133780     1.3831      7.068   285.0415 1.6383e-01     3.2985      2.995      4.344    14.0718   999.2681 0.0000e+00
      3.060      0.026     4.9802     68.069     42.419  33.144271     1.3848      7.066   285.2242 1.5286e-01     3.2881      3.001      4.353    14.0690   999.2685 0.0000e+00
      3.067      0.027     4.9558     67.874     42.375  33.108395     1.3917      7.065   285.2412 1.5244e-01     3.3271      3.008      4.362    14.0679   999.2687 0.0000e+00
      3.075      0.027     4.9327     67.684     42.342  33.080786     1.4058      7.065   285.2474 1.6749e-01     3.3440      3.016      4.373    14.0672   999.2688 0.0000e+00
      3.082      0.027     4.9143     67.514     42.324  33.064306     1.4165      7.064   285.3854 1.7208e-01     3.3284      3.023      4.384    14.0657   999.2691 0.0000e+00
      3.089      0.028     4.9014     67.378     42.291  33.036052     1.4257      7.063   285.5321 1.6377e-01     3.3348      3.030      4.394    14.0647   999.2693 0.0000e+00
      3.095      0.032     4.8871     67.272     42.239  32.993025     1.4214      7.061   285.6445 1.5714e-01     3.3225      3.036      4.403    14.0633   999.2694 0.0000e+00
      3.100      0.038     4.8736     67.195     42.154  32.924840     1.3906      7.059   285.7118 1.5640e-01     3.3113      3.039      4.409    14.0606   999.2699 0.0000e+00
      3.108      0.045     4.8608     67.145     42.056  32.846263     1.3660      7.054   285.6578 1.5722e-01     3.2982      3.045      4.417    14.0577   999.2703 0.0000e+00
      3.121      0.051     4.8519     67.129     42.006  32.804513     1.3664      7.051   285.6799 1.5587e-01     3.2619      3.058      4.436    14.0550   999.2707 0.0000e+00
      3.139      0.055     4.8441     67.160     42.006  32.800813     1.3611      7.050   285.8924 1.5132e-01     3.2661      3.078      4.465    14.0524   999.2712 0.0000e+00
      3.158      0.057     4.8394     67.261     42.011  32.801518     1.3360      7.050   286.0772 1.4389e-01     3.3156      3.098      4.493    14.0502   999.2715 0.0000e+00
      3.175      0.056     4.8356     67.420     42.029  32.813036     1.3234      7.049   286.1068 1.3867e-01     3.3365      3.114      4.517    14.0475   999.2719 0.0000e+00
      3.188      0.053     4.8347     67.613     42.031  32.813148     1.3214      7.047   286.1648 1.3992e-01     3.3228      3.127      4.536    14.0435   999.2725 0.0000e+00
      3.199      0.049     4.8365     67.872     42.021  32.802867     1.3032      7.046   286.3478 1.4727e-01     3.3138      3.137      4.551    14.0393   999.2732 0.0000e+00
      3.209      0.046     4.8442     68.203     42.040  32.815656     1.2685      7.045   286.4273 1.4928e-01     3.2927      3.146      4.562    14.0357   999.2737 0.0000e+00
      3.219      0.045     4.8581     68.556     42.074  32.840852     1.2392      7.044   286.4371 1.4178e-01     3.2645      3.156      4.577    14.0329   999.2742 0.0000e+00
      3.231      0.045     4.8700     68.883     42.091  32.853651     1.2349      7.043   286.4662 1.3958e-01     3.2673      3.169      4.596    14.0304   999.2746 0.0000e+00
      3.243      0.047     4.8888     69.179     42.077  32.843476     1.2424      7.043   286.4353 1.4546e-01     3.2934      3.180      4.612    14.0279   999.2750 0.0000e+00
      3.254      0.049     4.9145     69.424     42.078  32.844755     1.2436      7.042   286.4937 1.5018e-01     3.3189      3.190      4.627    14.0256   999.2753 0.0000e+00
      3.266      0.049     4.9420     69.584     42.110  32.869114     1.2500      7.041   286.6563 1.5306e-01     3.3460      3.203      4.645    14.0238   999.2756 0.0000e+00
      3.280      0.049     4.9647     69.662     42.134  32.884144     1.2581      7.041   286.6800 1.4862e-01     3.3592      3.217      4.665    14.0236   999.2758 0.0000e+00
      3.294      0.049     4.9867     69.664     42.160  32.899555     1.2541      7.040   286.6940 1.3983e-01     3.3473      3.231      4.686    14.0243   999.2757 0.0000e+00
      3.307      0.048     5.0057     69.604     42.202  32.928521     1.2549      7.039   286.8258 1.4123e-01     3.2675      3.243      4.703    14.0255   999.2756 0.0000e+00
      3.318      0.047     5.0163     69.501     42.273  32.980507     1.2670      7.039   286.8968 1.4086e-01     3.1473      3.253      4.718    14.0254   999.2757 0.0000e+00
      3.329      0.046     5.0230     69.378     42.490  33.147333     1.2702      7.037   286.9511 1.3192e-01     3.1071      3.264      4.735    14.0206   999.2764 0.0000e+00
      3.340      0.046     5.0231     69.267     42.927  33.485942     1.2594      7.035   287.0520 1.2682e-01     3.1091      3.275      4.751    14.0141   999.2774 0.0000e+00
      3.352      0.047     5.0188     69.169     43.382  33.837919     1.2574      7.034   287.1696 1.2681e-01     3.1063      3.287      4.768    14.0097   999.2781 0.0000e+00
      3.363      0.049     5.0115     69.053     43.643  34.039414     1.2634      7.031   287.3409 1.2734e-01     3.1055      3.298      4.783    14.0062   999.2786 0.0000e+00
      3.376      0.050     5.0018     68.901     43.782  34.145158     1.2544      7.029   287.4884 1.2559e-01     3.0674      3.310      4.801    14.0024   999.2792 0.0000e+00
      3.390      0.052     4.9938     68.669     43.890  34.227930     1.2437      7.028   287.5761 1.2389e-01     3.0383      3.325      4.822    13.9993   999.2799 0.0000e+00
      3.404      0.055     4.9889     68.247     43.958  34.278591     1.2380      7.026   287.6278 1.2378e-01     3.1148      3.338      4.841    13.9968   999.2804 0.0000e+00
      3.418      0.058     4.9806     67.574     44.005  34.313421     1.2203      7.022   287.6828 1.2372e-01     3.2378      3.352      4.860    13.9941   999.2810 0.0000e+00
      3.432      0.060     4.9702     66.663     44.031  34.331726     1.2029      7.019   287.8108 1.2386e-01     3.2806      3.364      4.879    13.9918   999.2814 0.0000e+00
      3.447      0.061     4.9578     65.542     44.006  34.309503     1.1933      7.016   287.8844 1.2543e-01     3.2715      3.379      4.901    13.9896   999.2819 0.0000e+00
      3.464      0.060     4.9294     64.282     43.995  34.298602     1.1728      7.013   287.8844 1.2681e-01     3.2914      3.397      4.927    13.9874   999.2823 0.0000e+00
      3.482      0.057     4.8794     62.982     44.034  34.326848     1.1465      7.011   287.8969 1.2539e-01     3.3250      3.415      4.953    13.9850   999.2826 0.0000e+00
      3.499      0.054     4.8146     61.764     44.045  34.333678     1.1346      7.008   287.9491 1.2386e-01     3.3504      3.433      4.979    13.9822   999.2832 0.0000e+00
      3.511      0.049     4.7316     60.780     44.027  34.317726     1.1327      7.006   288.0861 1.2368e-01     3.3685      3.444      4.996    13.9792   999.2836 0.0000e+00
      3.520      0.045     4.6383     60.094     44.037  34.324367     1.1326      7.004   288.3485 1.2362e-01     3.3469      3.451      5.005    13.9764   999.2840 0.0000e+00
      3.529      0.043     4.5429     59.693     44.072  34.350501     1.1342      7.002   288.7128 1.2361e-01     3.3192      3.460      5.018    13.9739   999.2845 0.0000e+00
      3.540      0.042     4.4491     59.545     44.112  34.379843     1.1345      7.000   288.9641 1.2367e-01     3.3282      3.471      5.035    13.9719   999.2848 0.0000e+00
      3.551      0.043     4.3778     59.608     44.173  34.425262     1.1355      6.998   288.9776 1.2374e-01     3.3243      3.482      5.051    13.9706   999.2850 0.0000e+00
      3.562      0.045     4.3288     59.815     44.214  34.455389     1.1377      6.996   288.9621 1.2378e-01     3.3051      3.493      5.066    13.9690   999.2853 0.0000e+00
      3.573      0.045     4.3010     60.095     44.179  34.426774     1.1356      6.995   289.1206 1.2377e-01     3.2926      3.504      5.082    13.9671   999.2857 0.0000e+00
      3.585      0.044     4.2911     60.355     44.141  34.396606     1.1359      6.993   289.2590 1.2375e-01     3.2719      3.515      5.098    13.9651   999.2859 0.0000e+00
      3.598      0.043     4.2981     60.523     44.156  34.407971     1.1411      6.992   289.2594 1.2378e-01     3.2842      3.529      5.118    13.9631   999.2863 0.0000e+00
      3.610      0.041     4.3148     60.635     44.194  34.437244     1.1382      6.990   289.2973 1.2375e-01     3.3092      3.542      5.137    13.9613   999.2867 0.0000e+00
      3.618      0.040     4.3369     60.730     44.271  34.496677     1.1174      6.988   289.3733 1.2366e-01     3.2807      3.548      5.147    13.9592   999.2869 0.0000e+00
      3.626      0.040     4.3599     60.793     44.347  34.555360     1.0898      6.986   289.4036 1.2373e-01     3.2671      3.555      5.157    13.9585   999.2870 0.0000e+00
      3.636      0.040     4.3687     60.804     44.375  34.575568     1.0729      6.984   289.4049 1.2399e-01     3.3081      3.566      5.173    13.9589   999.2871 0.0000e+00
      3.646      0.041     4.3762     60.777     44.429  34.614071     1.0703      6.983   289.4751 1.2412e-01     3.3507      3.576      5.186    13.9581   999.2872 0.0000e+00
      3.657      0.044     4.3839     60.747     44.549  34.703543     1.1187      6.980   289.6510 1.2392e-01     3.3552      3.586      5.201    13.9573   999.2874 0.0000e+00
      3.669      0.048     4.3890     60.716     44.719  34.832278     1.2068      6.978   289.8109 1.2370e-01     3.3298      3.598      5.219    13.9574   999.2875 0.0000e+00
      3.681      0.051     4.3900     60.660     44.893  34.964689     1.2426      6.976   289.8597 1.2365e-01     3.3062      3.610      5.236    13.9557   999.2878 0.0000e+00
      3.694      0.054     4.3866     60.573     44.988  35.035126     1.2310      6.973   289.8967 1.2369e-01     3.2991      3.622      5.254    13.9517   999.2884 0.0000e+00
      3.709      0.056     4.3851     60.454     45.009  35.049233     1.1876      6.971   290.0864 1.2375e-01     3.3099      3.636      5.275    13.9468   999.2892 0.0000e+00
      3.724      0.059     4.3844     60.313     45.040  35.071783     1.1072      6.968   290.3461 1.2375e-01     3.3061      3.652      5.297    13.9422   999.2900 0.0000e+00
      3.739      0.060     4.3807     60.164     45.100  35.117363     1.0656      6.965   290.4557 1.2373e-01     3.3181      3.668      5.320    13.9384   999.2906 0.0000e+00
      3.754      0.060     4.3745     59.992     45.152  35.156042     1.0656      6.962   290.5510 1.2375e-01     3.3572      3.682      5.340    13.9353   999.2912 0.0000e+00
      3.770      0.058     4.3665     59.806     45.158  35.158632     1.0645      6.960   290.7236 1.2377e-01     3.3530      3.696      5.361    13.9330   999.2915 0.0000e+00
      3.788      0.053     4.3551     59.655     45.147  35.148681     1.0612      6.960   290.8228 1.2371e-01     3.2999      3.715      5.388    13.9312   999.2919 0.0000e+00
      3.803      0.049     4.3455     59.526     45.167  35.162654     1.0512      6.958   290.8892 1.2359e-01     3.2723      3.731      5.412    13.9294   999.2922 0.0000e+00
      3.813      0.046     4.3339     59.371     45.218  35.200642     1.0565      6.955   290.9233 1.2354e-01     3.3133      3.740      5.424    13.9270   999.2926 0.0000e+00
      3.821      0.045     4.3177     59.208     45.253  35.227167     1.0812      6.953   290.9775 1.2358e-01     3.3698      3.747      5.435    13.9247   999.2930 0.0000e+00
      3.830      0.045     4.3077     59.077     45.258  35.229486     1.0902      6.951   291.1151 1.2362e-01     3.4646      3.755      5.446    13.9230   999.2932 0.0000e+00
      3.840      0.049     4.3010     58.973     45.259  35.228669     1.0790      6.950   291.2956 1.2367e-01     3.5736      3.763      5.458    13.9217   999.2935 0.0000e+00
      3.853      0.053     4.2886     58.868     45.246  35.217285     1.0669      6.948   291.4395 1.2370e-01     3.5736      3.777      5.479    13.9204   999.2937 0.0000e+00
      3.869      0.056     4.2756     58.755     45.250  35.218786     1.0655      6.946   291.4785 1.2372e-01     3.5310      3.794      5.503    13.9190   999.2940 0.0000e+00
      3.887      0.057     4.2666     58.660     45.286  35.246823     1.0972      6.944   291.5091 1.2378e-01     3.4842      3.812      5.529    13.9175   999.2943 0.0000e+00
      3.904      0.055     4.2605     58.601     45.357  35.302397     1.1544      6.943   291.5507 1.2386e-01     3.4008      3.830      5.555    13.9159   999.2946 0.0000e+00
      3.918      0.052     4.2533     58.589     45.462  35.382959     1.1859      6.941   291.5513 1.2387e-01     3.3420      3.843      5.574    13.9139   999.2949 0.0000e+00
      3.928      0.048     4.2440     58.598     45.562  35.459249     1.1824      6.939   291.5167 1.2377e-01     3.2981      3.853      5.588    13.9125   999.2952 0.0000e+00
      3.938      0.046     4.2372     58.602     45.652  35.526627     1.1562      6.938   291.5628 1.2369e-01     3.2622      3.861      5.601    13.9121   999.2953 0.0000e+00
      3.949      0.044     4.2319     58.613     45.703  35.562904     1.1109      6.936   291.7639 1.2369e-01     3.2685      3.872      5.616    13.9126   999.2953 0.0000e+00
      3.961      0.043     4.2320     58.613     45.730  35.580515     1.0777      6.935   291.9695 1.2369e-01     3.3088      3.884      5.633    13.9126   999.2954 0.0000e+00
      3.974      0.042     4.2344     58.563     45.775  35.612612     1.0753      6.934   292.1566 1.2372e-01     3.3239      3.896      5.652    13.9103   999.2958 0.0000e+00
      3.985      0.042     4.2335     58.461     45.805  35.633630     1.0653      6.933   292.3054 1.2375e-01     3.3530      3.910      5.671    13.9069   999.2964 0.0000e+00
      3.994      0.042     4.2354     58.307     45.821  35.644220     1.0339      6.930   292.3056 1.2374e-01     3.4642      3.918      5.683    13.9028   999.2970 0.0000e+00
      4.002      0.043     4.2375     58.122     45.866  35.677185     1.0165      6.928   292.3305 1.2371e-01     3.5215      3.924      5.691    13.8989   999.2975 0.0000e+00
      4.011      0.045     4.2333     57.945     45.917  35.714842     1.0112      6.928   292.4340 1.2370e-01     3.4885      3.933      5.704    13.8962   999.2980 0.0000e+00
      4.023      0.048     4.2265     57.783     45.924  35.718692     1.0052      6.927   292.5256 1.2375e-01     3.4914      3.945      5.720    13.8941   999.2983 0.0000e+00
      4.038      0.051     4.2155     57.635     45.932  35.723742     1.0300      6.926   292.6639 1.2381e-01     3.6875      3.960      5.743    13.8921   999.2987 0.0000e+00
      4.053      0.052     4.2002     57.509     45.998  35.775896     1.0943      6.924   292.7290 1.2382e-01     4.0242      3.976      5.766    13.8899   999.2991 0.0000e+00
      4.067      0.051     4.1883     57.386     46.083  35.841506     1.1326      6.922   292.7111 1.2375e-01     4.1872      3.989      5.785    13.8875   999.2995 0.0000e+00
      4.081      0.047     4.1769     57.263     46.137  35.882306     1.1284      6.920   292.7906 1.2369e-01     4.1825      4.002      5.804    13.8851   999.3000 0.0000e+00
      4.094      0.041     4.1652     57.134     46.147  35.888376     1.1130      6.918   292.8308 1.2369e-01     4.1318      4.016      5.824    13.8839   999.3001 0.0000e+00
      4.104      0.036     4.1575     56.998     46.183  35.914900     1.0939      6.917   292.7664 1.2367e-01     4.0327      4.026      5.839    13.8849   999.3000 0.0000e+00
      4.112      0.033     4.1483     56.880     46.308  36.012579     1.0883      6.917   292.7866 1.2367e-01     3.9681      4.033      5.849    13.8852   999.3001 0.0000e+00
      4.117      0.033     4.1393     56.770     46.443  36.117316     1.0883      6.915   292.8163 1.2373e-01     3.9402      4.037      5.856    13.8832   999.3005 0.0000e+00
      4.122      0.036     4.1315     56.646     46.508  36.165715     1.0773      6.913   292.8678 1.2376e-01     3.9905      4.040      5.861    13.8810   999.3007 0.0000e+00
      4.130      0.041     4.1195     56.518     46.496  36.153454     1.0678      6.911   293.0649 1.2372e-01     4.1503      4.047      5.871    13.8803   999.3008 0.0000e+00
      4.141      0.046     4.1119     56.373     46.507  36.159483     1.0685      6.908   293.2211 1.2373e-01     4.2659      4.060      5.889    13.8803   999.3010 0.0000e+00
      4.156      0.051     4.1051     56.190     46.611  36.238599     1.0689      6.906   293.2067 1.2372e-01     4.2745      4.075      5.910    13.8803   999.3010 0.0000e+00
      4.172      0.053     4.0951     56.006     46.673  36.284884     1.0381      6.905   293.1493 1.2365e-01     4.2874      4.091      5.934    13.8790   999.3013 0.0000e+00
      4.188      0.052     4.0865     55.878     46.663  36.274809     0.9823      6.905   293.2158 1.2366e-01     4.3559      4.109      5.959    13.8750   999.3020 0.0000e+00
      4.203      0.048     4.0781     55.821     46.708  36.307194     0.9574      6.903   293.3219 1.2373e-01     4.4143      4.123      5.979    13.8712   999.3026 0.0000e+00
      4.214      0.043     4.0634     55.836     46.780  36.359079     0.9615      6.900   293.3149 1.2374e-01     4.4367      4.134      5.996    13.8704   999.3028 0.0000e+00
      4.222      0.038     4.0479     55.912     46.831  36.394350     0.9463      6.898   293.3883 1.2378e-01     4.4294      4.140      6.005    13.8687   999.3031 0.0000e+00
      4.230      0.036     4.0393     56.031     46.946  36.479758     0.9119      6.897   293.6938 1.2378e-01     4.3923      4.147      6.015    13.8649   999.3036 0.0000e+00
      4.237      0.039     4.0353     56.195     47.145  36.630048     0.8925      6.895   293.9964 1.2365e-01     4.3813      4.156      6.027    13.8631   999.3039 0.0000e+00
      4.244      0.044     4.0366     56.380     47.307  36.751568     0.8941      6.893   294.1220 1.2362e-01     4.4273      4.162      6.036    13.8597   999.3044 0.0000e+00
      4.254      0.052     4.0438     56.525     47.383  36.806505     0.8966      6.890   294.0935 1.2369e-01     4.4578      4.169      6.047    13.8536   999.3053 0.0000e+00
      4.268      0.058     4.0523     56.615     47.443  36.849959     0.9048      6.888   294.0826 1.2376e-01     4.4872      4.183      6.068    13.8494   999.3059 0.0000e+00
      4.288      0.061     4.0645     56.652     47.505  36.896109     0.9240      6.886   294.2483 1.2381e-01     4.5528      4.204      6.098    13.8457   999.3066 0.0000e+00
      4.309      0.061     4.0814     56.594     47.537  36.920167     0.9381      6.884   294.4618 1.2377e-01     4.5955      4.226      6.131    13.8404   999.3075 0.0000e+00
      4.327      0.058     4.0920     56.409     47.576  36.950416     0.9541      6.883   294.6863 1.2377e-01     4.6438      4.244      6.156    13.8358   999.3083 0.0000e+00
      4.342      0.052     4.0981     56.115     47.650  37.007941     0.9521      6.882   294.9830 1.2380e-01     4.7433      4.259      6.176    13.8326   999.3088 0.0000e+00
      4.352      0.046     4.1026     55.746     47.695  37.044418     0.9144      6.879   295.2095 1.2371e-01     4.8484      4.269      6.191    13.8302   999.3091 0.0000e+00
      4.359      0.042     4.1000     55.341     47.732  37.074078     0.8885      6.876   295.2735 1.2364e-01     4.8986      4.274      6.199    13.8289   999.3094 0.0000e+00
      4.367      0.041     4.0852     54.921     47.781  37.112654     0.8817      6.874   295.3267 1.2365e-01     4.9245      4.281      6.210    13.8287   999.3095 0.0000e+00
      4.377      0.042     4.0633     54.504     47.805  37.129982     0.8757      6.873   295.4227 1.2370e-01     4.9973      4.292      6.225    13.8300   999.3094 0.0000e+00
      4.388      0.044     4.0354     54.145     47.843  37.156634     0.8764      6.870   295.4891 1.2371e-01     5.0899      4.303      6.241    13.8311   999.3093 0.0000e+00
      4.401      0.046     4.0051     53.877     47.880  37.180994     0.8813      6.868   295.6124 1.2369e-01     5.1265      4.314      6.259    13.8317   999.3093 0.0000e+00
      4.414      0.046     3.9754     53.668     47.871  37.170607     0.8837      6.867   295.7090 1.2369e-01     5.1455      4.328      6.278    13.8333   999.3091 0.0000e+00
      4.426      0.045     3.9427     53.483     47.861  37.157998     0.8703      6.866   295.7105 1.2369e-01     5.2213      4.341      6.297    13.8326   999.3093 0.0000e+00
      4.438      0.043     3.9161     53.328     47.863  37.155491     0.8496      6.865   295.8024 1.2369e-01     5.3221      4.352      6.312    13.8282   999.3100 0.0000e+00
      4.448      0.040     3.8984     53.213     47.846  37.140281     0.8323      6.862   295.9595 1.2372e-01     5.3476      4.362      6.326    13.8242   999.3105 0.0000e+00
      4.458      0.037     3.8848     53.147     47.796  37.101054     0.8174      6.860   296.0615 1.2375e-01     5.3009      4.372      6.341    13.8209   999.3111 0.0000e+00
      4.467      0.033     3.8713     53.157     47.744  37.062053     0.8166      6.859   296.0892 1.2371e-01     5.3467      4.381      6.354    13.8154   999.3119 0.0000e+00
      4.476      0.029     3.8602     53.257     47.726  37.049577     0.8310      6.857   296.0365 1.2369e-01     5.4758      4.389      6.366    13.8105   999.3127 0.0000e+00
      4.483      0.028     3.8523     53.445     47.761  37.077161     0.8357      6.855   296.0269 1.2374e-01     5.5513      4.397      6.377    13.8086   999.3129 0.0000e+00
      4.488      0.031     3.8461     53.707     47.845  37.141666     0.8215      6.854   296.2313 1.2377e-01     5.5717      4.402      6.385    13.8081   999.3129 0.0000e+00
      4.493      0.037     3.8468     54.003     47.915  37.194744     0.8148      6.851   296.4436 1.2377e-01     5.5907      4.405      6.389    13.8097   999.3127 0.0000e+00
      4.499      0.044     3.8538     54.308     47.940  37.211113     0.8248      6.849   296.5281 1.2379e-01     5.6177      4.409      6.395    13.8119   999.3124 0.0000e+00
      4.512      0.051     3.8674     54.613     47.947  37.212623     0.8301      6.848   296.6512 1.2379e-01     5.6027      4.421      6.413    13.8114   999.3126 0.0000e+00
      4.531      0.056     3.8880     54.882     47.952  37.212988     0.8268      6.845   296.7276 1.2376e-01     5.5732      4.444      6.445    13.8111   999.3128 0.0000e+00
      4.551      0.058     3.9102     55.080     47.957  37.215528     0.8276      6.843   296.7632 1.2375e-01     5.5883      4.465      6.475    13.8115   999.3128 0.0000e+00
      4.568      0.057     3.9320     55.211     47.994  37.243332     0.8403      6.842   296.8232 1.2375e-01     5.7201      4.480      6.497    13.8075   999.3134 0.0000e+00
      4.581      0.055     3.9562     55.321     48.062  37.295258     0.8674      6.839   296.9362 1.2371e-01     5.9546      4.493      6.517    13.8019   999.3143 0.0000e+00
      4.591      0.052     3.9767     55.435     48.117  37.335548     0.8863      6.837   297.0978 1.2366e-01     6.0645      4.503      6.531    13.7988   999.3147 0.0000e+00
      4.601      0.050     3.9912     55.539     48.137  37.349609     0.8870      6.837   297.1428 1.2365e-01     6.0320      4.511      6.543    13.7973   999.3150 0.0000e+00
      4.614      0.050     3.9994     55.654     48.124  37.338310     0.8680      6.836   297.1353 1.2369e-01     6.1194      4.524      6.562    13.7967   999.3151 0.0000e+00
      4.629      0.050     4.0059     55.789     48.109  37.325881     0.8287      6.833   297.1793 1.2374e-01     6.3345      4.540      6.585    13.7953   999.3154 0.0000e+00
      4.644      0.051     4.0165     55.911     48.110  37.326283     0.8112      6.831   297.2452 1.2375e-01     6.4692      4.556      6.608    13.7930   999.3158 0.0000e+00
      4.657      0.052     4.0224     56.017     48.133  37.343178     0.8212      6.830   297.4155 1.2376e-01     6.5357      4.567      6.624    13.7914   999.3161 0.0000e+00
      4.668      0.052     4.0302     56.105     48.212  37.403193     0.7936      6.828   297.6892 1.2372e-01     6.7127      4.577      6.638    13.7905   999.3163 0.0000e+00
      4.680      0.053     4.0424     56.164     48.314  37.480623     0.7276      6.827   297.8873 1.2366e-01     7.0027      4.589      6.656    13.7898   999.3164 0.0000e+00
      4.693      0.055     4.0503     56.193     48.364  37.517661     0.7000      6.825   297.9174 1.2369e-01     7.1919      4.603      6.675    13.7890   999.3166 0.0000e+00
      4.708      0.059     4.0584     56.189     48.387  37.533628     0.7121      6.823   297.9679 1.2378e-01     7.2301      4.616      6.696    13.7884   999.3167 0.0000e+00
      4.724      0.062     4.0654     56.193     48.407  37.546716     0.7175      6.821   298.1531 1.2381e-01     7.2680      4.631      6.718    13.7874   999.3169 0.0000e+00
      4.741      0.062     4.0691     56.215     48.411  37.548947     0.7132      6.819   298.2649 1.2376e-01     7.3547      4.648      6.741    13.7860   999.3173 0.0000e+00
      4.759      0.062     4.0729     56.208     48.427  37.560606     0.7116      6.817   298.2871 1.2372e-01     7.4270      4.668      6.770    13.7838   999.3177 0.0000e+00
      4.776      0.059     4.0705     56.145     48.428  37.560731     0.7070      6.815   298.3348 1.2376e-01     7.4538      4.686      6.795    13.7810   999.3182 0.0000e+00
      4.791      0.055     4.0703     56.038     48.414  37.550460     0.6924      6.814   298.4120 1.2380e-01     7.3833      4.698      6.814    13.7787   999.3185 0.0000e+00
      4.804      0.051     4.0743     55.900     48.429  37.563375     0.6734      6.814   298.6184 1.2376e-01     7.2638      4.712      6.834    13.7776   999.3187 0.0000e+00
      4.815      0.048     4.0745     55.736     48.463  37.589929     0.6594      6.813   298.8512 1.2371e-01     7.2217      4.723      6.850    13.7768   999.3190 0.0000e+00
      4.825      0.047     4.0694     55.560     48.499  37.617610     0.6614      6.811   298.8169 1.2373e-01     7.2013      4.730      6.861    13.7765   999.3189 0.0000e+00
      4.835      0.048     4.0607     55.342     48.535  37.644155     0.6718      6.808   298.7205 1.2373e-01     7.1810      4.740      6.875    13.7776   999.3188 0.0000e+00
      4.848      0.049     4.0517     55.110     48.553  37.656965     0.6817      6.806   298.8895 1.2371e-01     7.2380      4.754      6.895    13.7784   999.3189 0.0000e+00
      4.861      0.051     4.0378     54.933     48.541  37.645540     0.6945      6.804   299.1405 1.2371e-01     7.3335      4.767      6.914    13.7786   999.3189 0.0000e+00
      4.875      0.053     4.0273     54.789     48.526  37.632972     0.6968      6.804   299.2604 1.2371e-01     7.3854      4.780      6.933    13.7785   999.3190 0.0000e+00
      4.890      0.053     4.0113     54.649     48.526  37.631954     0.6922      6.803   299.3059 1.2370e-01     7.4073      4.796      6.956    13.7777   999.3192 0.0000e+00
      4.904      0.052     3.9902     54.526     48.527  37.633224     0.6987      6.801   299.3470 1.2374e-01     7.4010      4.810      6.976    13.7758   999.3195 0.0000e+00
      4.916      0.052     3.9803     54.414     48.545  37.648333     0.7062      6.799   299.4130 1.2377e-01     7.3752      4.820      6.991    13.7736   999.3199 0.0000e+00
      4.929      0.052     3.9708     54.295     48.597  37.687688     0.7049      6.798   299.5011 1.2374e-01     7.3902      4.833      7.010    13.7723   999.3201 0.0000e+00
      4.942      0.053     3.9595     54.189     48.652  37.728186     0.7009      6.797   299.5526 1.2374e-01     7.4185      4.847      7.030    13.7717   999.3202 0.0000e+00
      4.954      0.055     3.9507     54.084     48.693  37.757125     0.7013      6.796   299.6057 1.2373e-01     7.4554      4.858      7.046    13.7724   999.3202 0.0000e+00
      4.967      0.056     3.9439     53.977     48.730  37.783673     0.7098      6.794   299.7131 1.2368e-01     7.5415      4.869      7.062    13.7737   999.3201 0.0000e+00
      4.984      0.056     3.9337     53.898     48.746  37.795254     0.7249      6.793   299.8180 1.2367e-01     7.6067      4.887      7.088    13.7733   999.3202 0.0000e+00
      5.002      0.054     3.9267     53.828     48.715  37.770188     0.7284      6.791   299.9271 1.2366e-01     7.6216      4.907      7.117    13.7705   999.3207 0.0000e+00
      5.016      0.051     3.9209     53.746     48.670  37.734517     0.7086      6.789   299.9996 1.2366e-01     7.6887      4.920      7.136    13.7669   999.3213 0.0000e+00
      5.028      0.046     3.9103     53.665     48.684  37.744818     0.6851      6.789   300.0065 1.2374e-01     7.8280      4.931      7.151    13.7649   999.3216 0.0000e+00
      5.039      0.041     3.9068     53.600     48.713  37.767786     0.6696      6.788   300.0107 1.2378e-01     7.8974      4.942      7.168    13.7635   999.3219 0.0000e+00
      5.047      0.036     3.9022     53.574     48.701  37.758316     0.6591      6.788   300.0501 1.2374e-01     7.8718      4.950      7.180    13.7622   999.3221 0.0000e+00
      5.054      0.032     3.8953     53.566     48.699  37.757276     0.6543      6.787   300.1388 1.2373e-01     7.8463      4.956      7.187    13.7618   999.3221 0.0000e+00
      5.063      0.029     3.8900     53.545     48.696  37.755206     0.6630      6.785   300.2230 1.2371e-01     7.8510      4.964      7.201    13.7619   999.3222 0.0000e+00
      5.070      0.029     3.8834     53.540     48.668  37.733288     0.6782      6.784   300.2944 1.2368e-01     7.8632      4.974      7.214    13.7620   999.3222 0.0000e+00
      5.075      0.034     3.8826     53.568     48.685  37.746173     0.6735      6.782   300.3997 1.2366e-01     7.8632      4.978      7.219    13.7621   999.3222 0.0000e+00
      5.080      0.043     3.8837     53.598     48.735  37.784049     0.6578      6.781   300.5496 1.2367e-01     7.8502      4.981      7.223    13.7624   999.3222 0.0000e+00
      5.089      0.053     3.8805     53.605     48.771  37.810376     0.6532      6.781   300.6441 1.2374e-01     7.8705      4.988      7.234    13.7626   999.3222 0.0000e+00
      5.104      0.061     3.8793     53.599     48.775  37.810567     0.6617      6.778   300.5961 1.2379e-01     7.9771      5.001      7.254    13.7628   999.3222 0.0000e+00
      5.126      0.066     3.8828     53.597     48.746  37.786348     0.6737      6.774   300.4854 1.2380e-01     8.0909      5.027      7.292    13.7633   999.3222 0.0000e+00
      5.151      0.066     3.8857     53.617     48.728  37.771469     0.6680      6.772   300.4234 1.2379e-01     8.1310      5.054      7.330    13.7623   999.3225 0.0000e+00
      5.171      0.064     3.8862     53.684     48.709  37.757619     0.6538      6.772   300.4489 1.2373e-01     8.1018      5.073      7.357    13.7597   999.3230 0.0000e+00
      5.184      0.059     3.8851     53.811     48.693  37.745840     0.6577      6.772   300.5369 1.2365e-01     8.0986      5.087      7.378    13.7570   999.3234 0.0000e+00
      5.193      0.055     3.8852     54.018     48.707  37.756009     0.6719      6.770   300.6265 1.2362e-01     8.1254      5.093      7.387    13.7549   999.3237 0.0000e+00
      5.202      0.053     3.8854     54.304     48.706  37.753606     0.6779      6.769   300.6712 1.2362e-01     8.0979      5.100      7.396    13.7538   999.3239 0.0000e+00
      5.215      0.053     3.8907     54.636     48.661  37.716788     0.6521      6.768   300.6471 1.2368e-01     8.1274      5.114      7.417    13.7541   999.3239 0.0000e+00
      5.231      0.053     3.8990     55.016     48.630  37.691710     0.6027      6.767   300.6797 1.2375e-01     8.2516      5.130      7.441    13.7556   999.3238 0.0000e+00
      5.249      0.053     3.9132     55.459     48.647  37.704300     0.5842      6.766   300.8076 1.2375e-01     8.3214      5.147      7.465    13.7558   999.3238 0.0000e+00
      5.265      0.051     3.9366     55.949     48.696  37.742064     0.6007      6.765   300.9017 1.2372e-01     8.3164      5.165      7.492    13.7536   999.3243 0.0000e+00
      5.277      0.048     3.9597     56.454     48.729  37.767436     0.6294      6.764   300.9582 1.2367e-01     8.3216      5.178      7.510    13.7514   999.3246 0.0000e+00
      5.285      0.045     3.9869     56.938     48.715  37.757163     0.6625      6.763   300.9747 1.2369e-01     8.3194      5.182      7.517    13.7502   999.3248 0.0000e+00
      5.294      0.041     4.0196     57.364     48.698  37.744811     0.6719      6.762   301.0143 1.2376e-01     8.2898      5.191      7.529    13.7494   999.3249 0.0000e+00
      5.305      0.040     4.0563     57.701     48.698  37.745041     0.6568      6.762   301.0929 1.2384e-01     8.2911      5.203      7.546    13.7492   999.3250 0.0000e+00
      5.317      0.040     4.0935     57.936     48.717  37.759947     0.6352      6.762   301.0648 1.2387e-01     8.3026      5.214      7.563    13.7493   999.3251 0.0000e+00
      5.327      0.041     4.1297     58.081     48.766  37.798092     0.6105      6.762   300.9323 1.2380e-01     8.2983      5.225      7.577    13.7500   999.3250 0.0000e+00
      5.336      0.043     4.1612     58.143     48.801  37.825373     0.6003      6.761   300.8677 1.2375e-01     8.3044      5.234      7.591    13.7506   999.3250 0.0000e+00
      5.346      0.044     4.1861     58.115     48.815  37.835881     0.5985      6.760   300.8859 1.2375e-01     8.3108      5.242      7.603    13.7511   999.3249 0.0000e+00
      5.358      0.045     4.2026     58.001     48.849  37.861668     0.5970      6.759   300.8945 1.2370e-01     8.3093      5.253      7.620    13.7515   999.3249 0.0000e+00
      5.371      0.048     4.2125     57.799     48.878  37.883245     0.5910      6.758   300.8863 1.2368e-01     8.2863      5.267      7.639    13.7517   999.3250 0.0000e+00
      5.383      0.052     4.2181     57.517     48.910  37.906329     0.5703      6.755   300.8723 1.2368e-01     8.2633      5.279      7.657    13.7518   999.3251 0.0000e+00
      5.395      0.056     4.2151     57.192     48.969  37.950339     0.5547      6.754   300.8974 1.2368e-01     8.2598      5.290      7.673    13.7512   999.3252 0.0000e+00
      5.409      0.060     4.2074     56.832     48.998  37.971016     0.5498      6.754   300.9320 1.2373e-01     8.2765      5.304      7.692    13.7502   999.3254 0.0000e+00
      5.425      0.061     4.1932     56.427     48.993  37.965892     0.5636      6.752   300.8603 1.2377e-01     8.2690      5.321      7.718    13.7492   999.3256 0.0000e+00
      5.443      0.060     4.1709     55.998     48.977  37.951857     0.5910      6.750   300.7179 1.2376e-01     8.1693      5.337      7.740    13.7479   999.3259 0.0000e+00
      5.461      0.056     4.1475     55.544     48.947  37.928275     0.5948      6.748   300.6737 1.2378e-01     8.0871      5.356      7.767    13.7465   999.3262 0.0000e+00
      5.478      0.049     4.1227     55.047     48.956  37.934683     0.5833      6.747   300.6702 1.2382e-01     8.0940      5.375      7.795    13.7448   999.3265 0.0000e+00
      5.491      0.040     4.0918     54.523     48.997  37.965856     0.5903      6.747   300.5893 1.2375e-01     8.1220      5.387      7.812    13.7428   999.3269 0.0000e+00
      5.498      0.030     4.0613     54.020     49.027  37.987792     0.6100      6.746   300.4693 1.2362e-01     8.1307      5.392      7.820    13.7414   999.3271 0.0000e+00
      5.502      0.021     4.0293     53.572     49.057  38.009467     0.6144      6.745   300.3383 1.2363e-01     8.1010      5.397      7.826    13.7408   999.3271 0.0000e+00
      5.505      0.014     3.9930     53.191     49.093  38.037491     0.6088      6.743   300.2962 1.2371e-01     8.0578      5.399      7.830    13.7402   999.3272 0.0000e+00
      5.507      0.009     3.9533     52.882     49.138  38.072715     0.6107      6.742   300.3041 1.2373e-01     8.0023      5.400      7.832    13.7397   999.3273 0.0000e+00
      5.509      0.006     3.9159     52.642     49.196  38.117962     0.6206      6.742   300.2626 1.2374e-01     7.9209      5.402      7.835    13.7385   999.3275 0.0000e+00
      5.510      0.006     3.8837     52.482     49.223  38.140216     0.6332      6.742   300.2236 1.2379e-01     7.8597      5.403      7.837    13.7369   999.3277 0.0000e+00
      5.511      0.005     3.8555     52.406     49.234  38.151349     0.6329      6.741   300.2635 1.2381e-01     7.8196      5.403      7.837    13.7363   999.3278 0.0000e+00
      5.512      0.005     3.8337     52.367     49.279  38.189084     0.6076      6.739   300.3139 1.2379e-01     7.8621      5.405      7.839    13.7367   999.3278 0.0000e+00
      5.513      0.005     3.8157     52.305     49.312  38.215597     0.5707      6.739   300.2311 1.2377e-01     8.0132      5.407      7.842    13.7377   999.3277 0.0000e+00
      5.515      0.005     3.8036     52.213     49.315  38.217997     0.5506      6.739   300.2084 1.2373e-01     8.1067      5.408      7.844    13.7389   999.3275 0.0000e+00
      5.516      0.005     3.7989     52.110     49.314  38.218102     0.5461      6.739   300.2975 1.2374e-01     8.1076      5.410      7.846    13.7417   999.3271 0.0000e+00
      5.517      0.005     3.7984     52.021     49.311  38.216873     0.5426      6.739   300.2765 1.2376e-01     8.0886      5.410      7.847    13.7453   999.3268 0.0000e+00
      5.518      0.004     3.7935     51.973     49.291  38.203139     0.5434      6.738   300.1270 1.2381e-01     8.0741      5.411      7.848    13.7460   999.3266 0.0000e+00
      5.519      0.004     3.7861     51.965     49.259  38.179006     0.5467      6.737   299.9522 1.2385e-01     8.0960      5.412      7.850    13.7451   999.3267 0.0000e+00
      5.520      0.003     3.7784     51.995     49.259  38.178995     0.5481      6.737   299.8837 1.2381e-01     8.1573      5.414      7.852    13.7457   999.3267 0.0000e+00
      5.521      0.003     3.7704     52.079     49.287  38.203014     0.5525      6.737   299.9016 1.2377e-01     8.1921      5.414      7.853    13.7482   999.3263 0.0000e+00
      5.522      0.003     3.7670     52.135     49.301  38.215501     0.5565      6.737   299.9102 1.2376e-01     8.1896      5.415      7.854    13.7495   999.3262 0.0000e+00
      5.522 -9.990e-29     3.7672 -9.990e-29 -9.990e-29 -9.990e-29 -9.990e-29 -9.990e-29 -9.990e-29 1.2378e-01 -9.990e-29      5.415      7.854    13.7494   999.3262 0.0000e+00
      5.523 -9.990e-29     3.7674 -9.990e-29 -9.990e-29 -9.990e-29 -9.990e-29 -9.990e-29 -9.990e-29 1.2376e-01 -9.990e-29      5.416      7.855    13.7498   999.3261 0.0000e+00
      5.523 -9.990e-29     3.7757 -9.990e-29 -9.990e-29 -9.990e-29 -9.990e-29 -9.990e-29 -9.990e-29 1.2369e-01 -9.990e-29      5.417      7.856    13.7525   999.3258 0.0000e+00
      5.523 -9.990e-29     3.7847 -9.990e-29 -9.990e-29 -9.990e-29 -9.990e-29 -9.990e-29 -9.990e-29 1.2366e-01 -9.990e-29      5.417      7.857    13.7552   999.3254 0.0000e+00
