* Sea-Bird SBE19plus  Data File:
* FileName = C:\DATA\103019_fcr_0005.hex
* Software version 2.8.0.119 SB_Terminal.dll
* Temperature SN = 7809
* Conductivity SN = 7809
* System UpLoad Time = Oct 30 2019 15:29:09
* <ApplicationData>
* <Seaterm232>
* <SoftwareVersion>2.8.0.119</SoftwareVersion>
* <BuildDate>07-Nov-2018</BuildDate>
* </Seaterm232>
* </ApplicationData>
* cast   5 30 Oct 2019 10:50:00 samples 2846 to 3456, avg = 1, stop = mag switch
# nquan = 16
# nvalues = 496                         
# units = specified
# name 0 = depFM: Depth [fresh water, m]
# name 1 = dz/dtM: Descent Rate [m/s]
# name 2 = sbeox0ML/L: Oxygen, SBE 43 [ml/l]
# name 3 = sbeox0PS: Oxygen, SBE 43 [% saturation]
# name 4 = specc: Specific Conductance [uS/cm]
# name 5 = c0uS/cm: Conductivity [uS/cm]
# name 6 = flECO-AFL: Fluorescence, WET Labs ECO-AFL/FL [mg/m^3]
# name 7 = ph: pH
# name 8 = orp: Oxidation Reduction Potential [mV]
# name 9 = par/sat/log: PAR/Logarithmic, Satlantic
# name 10 = turbWETntu0: Turbidity, WET Labs ECO [NTU]
# name 11 = prdM: Pressure, Strain Gauge [db]
# name 12 = prdE: Pressure, Strain Gauge [psi]
# name 13 = tv290C: Temperature [ITS-90, deg C]
# name 14 = density00: Density [density, kg/m^3]
# name 15 = flag:  0.000e+00
# span 0 =     -0.517,      6.654       
# span 1 =     -0.005,      0.282       
# span 2 =     4.1790,     7.8147       
# span 3 =     57.746,    111.075       
# span 4 =      2.611,     48.836       
# span 5 =   2.074889,  37.835755       
# span 6 =    -0.1352,     6.1083       
# span 7 =      6.691,      7.553       
# span 8 =   271.3459,   314.7367       
# span 9 = 1.2358e-01, 1.0160e+02       
# span 10 =    -0.5036,    19.2326      
# span 11 =     -0.507,      6.526      
# span 12 =     -0.735,      9.464      
# span 13 =    13.7287,    15.4025      
# span 14 =   999.0577,   999.3340      
# span 15 = 0.0000e+00, 0.0000e+00      
# interval = seconds: 0.25
# start_time = Oct 30 2019 10:50:00 [Instrument's time stamp, header]
# bad_flag = -9.990e-29
# <Sensors count="9" >
#   <sensor Channel="1" >
#     <!-- Count, Temperature -->
#     <TemperatureSensor SensorID="58" >
#       <SerialNumber>7809</SerialNumber>
#       <CalibrationDate>24-Mar-19</CalibrationDate>
#       <A0>1.21792325e-003</A0>
#       <A1>2.81669265e-004</A1>
#       <A2>-1.60333336e-006</A2>
#       <A3>1.98414625e-007</A3>
#       <Slope>1.00000000</Slope>
#       <Offset>0.0000</Offset>
#     </TemperatureSensor>
#   </sensor>
#   <sensor Channel="2" >
#     <!-- Frequency 0, Conductivity -->
#     <ConductivitySensor SensorID="3" >
#       <SerialNumber>7809</SerialNumber>
#       <CalibrationDate>24-Mar-19</CalibrationDate>
#       <UseG_J>1</UseG_J>
#       <!-- Cell const and series R are applicable only for wide range sensors. -->
#       <SeriesR>0.0000</SeriesR>
#       <CellConst>2000.0000</CellConst>
#       <ConductivityType>0</ConductivityType>
#       <Coefficients equation="0" >
#         <A>0.00000000e+000</A>
#         <B>0.00000000e+000</B>
#         <C>0.00000000e+000</C>
#         <D>0.00000000e+000</D>
#         <M>0.0</M>
#         <CPcor>-9.57000000e-008</CPcor>
#       </Coefficients>
#       <Coefficients equation="1" >
#         <G>-1.00589325e+000</G>
#         <H>1.26816302e-001</H>
#         <I>-1.51560448e-004</I>
#         <J>2.67137274e-005</J>
#         <CPcor>-9.57000000e-008</CPcor>
#         <CTcor>3.2500e-006</CTcor>
#         <!-- WBOTC not applicable unless ConductivityType = 1. -->
#         <WBOTC>0.00000000e+000</WBOTC>
#       </Coefficients>
#       <Slope>1.00000000</Slope>
#       <Offset>0.00000</Offset>
#     </ConductivitySensor>
#   </sensor>
#   <sensor Channel="3" >
#     <!-- Count, Pressure, Strain Gauge -->
#     <PressureSensor SensorID="46" >
#       <SerialNumber>7809</SerialNumber>
#       <CalibrationDate>11-Mar-19</CalibrationDate>
#       <PA0>4.56561833e-002</PA0>
#       <PA1>4.85095118e-004</PA1>
#       <PA2>-2.88327090e-012</PA2>
#       <PTEMPA0>-5.48784562e+001</PTEMPA0>
#       <PTEMPA1>5.53756816e+001</PTEMPA1>
#       <PTEMPA2>-5.86727098e-001</PTEMPA2>
#       <PTCA0>5.25246745e+005</PTCA0>
#       <PTCA1>1.22304214e+001</PTCA1>
#       <PTCA2>-3.56745036e-001</PTCA2>
#       <PTCB0>2.51668750e+001</PTCB0>
#       <PTCB1>3.75000000e-004</PTCB1>
#       <PTCB2>0.00000000e+000</PTCB2>
#       <Offset>0.000000</Offset>
#     </PressureSensor>
#   </sensor>
#   <sensor Channel="4" >
#     <!-- A/D voltage 0, Oxygen, SBE 43 -->
#     <OxygenSensor SensorID="38" >
#       <SerialNumber>0434</SerialNumber>
#       <CalibrationDate>13-Apr-19</CalibrationDate>
#       <Use2007Equation>1</Use2007Equation>
#       <CalibrationCoefficients equation="0" >
#         <!-- Coefficients for Owens-Millard equation. -->
#         <Boc>0.0000</Boc>
#         <Soc>0.0000e+000</Soc>
#         <offset>0.0000</offset>
#         <Pcor>0.00e+000</Pcor>
#         <Tcor>0.0000</Tcor>
#         <Tau>0.0</Tau>
#       </CalibrationCoefficients>
#       <CalibrationCoefficients equation="1" >
#         <!-- Coefficients for Sea-Bird equation - SBE calibration in 2007 and later. -->
#         <Soc>4.2007e-001</Soc>
#         <offset>-0.6109</offset>
#         <A>-4.3656e-003</A>
#         <B> 1.7017e-004</B>
#         <C>-2.5341e-006</C>
#         <D0> 2.5826e+000</D0>
#         <D1> 1.92634e-004</D1>
#         <D2>-4.64803e-002</D2>
#         <E> 3.6000e-002</E>
#         <Tau20> 1.1800</Tau20>
#         <H1>-3.3000e-002</H1>
#         <H2> 5.0000e+003</H2>
#         <H3> 1.4500e+003</H3>
#       </CalibrationCoefficients>
#     </OxygenSensor>
#   </sensor>
#   <sensor Channel="5" >
#     <!-- A/D voltage 1, PAR/Logarithmic, Satlantic -->
#     <PARLog_SatlanticSensor SensorID="76" >
#       <SerialNumber>1122</SerialNumber>
#       <CalibrationDate>08-May-2019</CalibrationDate>
#       <a0>9.7456e-001</a0>
#       <a1>8.1640e-001</a1>
#       <Im>1.3589e+000</Im>
#       <Multiplier>1.0000e+000</Multiplier>
#     </PARLog_SatlanticSensor>
#   </sensor>
#   <sensor Channel="6" >
#     <!-- A/D voltage 2, pH -->
#     <pH_Sensor SensorID="43" >
#       <SerialNumber>0363</SerialNumber>
#       <CalibrationDate>15-Apr-19</CalibrationDate>
#       <Slope>4.5952</Slope>
#       <Offset>2.5370</Offset>
#     </pH_Sensor>
#   </sensor>
#   <sensor Channel="7" >
#     <!-- A/D voltage 3, Oxidation Reduction Potential -->
#     <OxidationReductionPotentialSensor SensorID="41" >
#       <SerialNumber>0363</SerialNumber>
#       <CalibrationDate>15-Apr-19</CalibrationDate>
#       <B>2.499480</B>
#       <M>-0.496195</M>
#       <Offset>0.0</Offset>
#     </OxidationReductionPotentialSensor>
#   </sensor>
#   <sensor Channel="8" >
#     <!-- A/D voltage 4, Fluorometer, WET Labs ECO-AFL/FL -->
#     <FluoroWetlabECO_AFL_FL_Sensor SensorID="20" >
#       <SerialNumber>FLNTURT-2496</SerialNumber>
#       <CalibrationDate>08-May-2019</CalibrationDate>
#       <ScaleFactor>5.00000000e+001</ScaleFactor>
#       <!-- Dark output -->
#       <Vblank>0.0550</Vblank>
#     </FluoroWetlabECO_AFL_FL_Sensor>
#   </sensor>
#   <sensor Channel="9" >
#     <!-- A/D voltage 5, Turbidity Meter, WET Labs, ECO-NTU -->
#     <TurbidityMeter SensorID="67" >
#       <SerialNumber>FLNTURT-2496</SerialNumber>
#       <CalibrationDate>08-May-2019</CalibrationDate>
#       <ScaleFactor>189.000000</ScaleFactor>
#       <!-- Dark output -->
#       <DarkVoltage>0.071000</DarkVoltage>
#     </TurbidityMeter>
#   </sensor>
# </Sensors>
# datcnv_date = Oct 30 2019 15:31:59, 7.26.7.129 [datcnv_vars = 15]
# datcnv_in = C:\DATA\103019_fcr45.hex C:\DATA\SBE19plusV2_7809.xmlcon
# datcnv_skipover = 0
# datcnv_ox_hysteresis_correction = yes
# datcnv_ox_tau_correction = yes
# filter_date = Oct 30 2019 15:32:26, 7.26.7.129
# filter_in = C:\DATA\103019_fcr45.cnv
# filter_low_pass_tc_A = 0.030
# filter_low_pass_tc_B = 0.150
# filter_low_pass_A_vars = sbeox0ML/L prdM prdE tv290C density00
# filter_low_pass_B_vars = depFM dz/dtM sbeox0PS specc c0uS/cm flECO-AFL ph orp par/sat/log turbWETntu0
# alignctd_date = Oct 30 2019 15:32:46, 7.26.7.129
# alignctd_in = C:\DATA\103019_fcr45.cnv
# alignctd_adv = dz/dtM 1.000, sbeox0PS 1.000, specc 1.000, c0uS/cm 1.000, flECO-AFL 1.000, ph 1.000, orp 1.000, turbWETntu0 1.000                                                                                                   
# file_type = ascii
*END*
     -0.517      0.001     6.7324     95.046      2.611   2.074889    -0.1204      6.803   283.3373 2.6054e+01    -0.4572     -0.507     -0.735    14.7451   999.1430 0.0000e+00
     -0.517      0.001     6.7338     94.999      2.696   2.143079    -0.1282      6.801   287.7431 2.4802e+01    -0.4720     -0.507     -0.735    14.7446   999.1431 0.0000e+00
     -0.516      0.000     6.7351     94.890      2.944   2.340524    -0.1352      6.805   287.0913 2.5405e+01    -0.5036     -0.506     -0.734    14.7443   999.1430 0.0000e+00
     -0.516 8.1075e-08     6.7429     94.765      3.222   2.561204    -0.1097      6.809   286.0393 2.6793e+01    -0.4140     -0.506     -0.734    14.7442   999.1430 0.0000e+00
     -0.516 8.9182e-07     6.7453     94.565      3.343   2.656836    -0.0533      6.810   283.9720 2.9219e+01    -0.2085     -0.505     -0.733    14.7443   999.1430 0.0000e+00
     -0.516      0.000     6.7433     94.277      3.204   2.546296    -0.0173      6.812   280.7656 3.4834e+01    -0.0838     -0.506     -0.734    14.7440   999.1431 0.0000e+00
     -0.516      0.000     6.7307     93.973      2.976   2.365271    -0.0036      6.816   278.3308 4.4159e+01    -0.0526     -0.507     -0.735    14.7439   999.1432 0.0000e+00
     -0.516      0.001     6.7265     93.684      2.821   2.242351     0.0769      6.820   273.5486 5.4073e+01     0.1362     -0.506     -0.734    14.7437   999.1432 0.0000e+00
     -0.516      0.005     6.7128     93.432      2.928   2.327397     0.2198      6.844   273.0190 6.1047e+01     0.4948     -0.507     -0.735    14.7440   999.1433 0.0000e+00
     -0.516      0.016     6.6884     93.234      6.098   4.850970     0.2928      6.928   288.1887 6.6580e+01     0.6782     -0.506     -0.734    14.7433   999.1433 0.0000e+00
     -0.516      0.035     6.6679     93.084     14.782  11.775558     0.3105      7.069   307.6857 7.2391e+01     0.8131     -0.506     -0.734    14.7436   999.1431 0.0000e+00
     -0.512      0.064     6.6461     92.984     26.560  21.204158     0.4591      7.230   314.7367 7.6969e+01     2.3877     -0.506     -0.734    14.7422   999.1435 0.0000e+00
     -0.499      0.105     6.6277     92.939     36.155  28.933145     0.7282      7.365   312.9576 8.0334e+01     5.2637     -0.496     -0.719    14.7439   999.1430 0.0000e+00
     -0.471      0.154     6.6143     92.930     40.003  32.087601     0.8771      7.445   310.0931 8.5310e+01     6.8467     -0.466     -0.676    14.7404   999.1441 0.0000e+00
     -0.427      0.201     6.6005     92.936     40.355  32.444611     0.9583      7.494   308.1518 9.2344e+01     7.2705     -0.426     -0.618    14.7649   999.1433 0.0000e+00
     -0.364      0.242     6.5766     92.956     40.335  32.488276     1.7705      7.528   307.1229 9.8519e+01    10.3550     -0.367     -0.533    14.8720   999.1318 0.0000e+00
     -0.281      0.271     6.5569     93.055     40.283  32.488704     3.2676      7.548   306.6005 1.0160e+02    15.9574     -0.277     -0.402    14.9981   999.1173 0.0000e+00
     -0.195      0.282     6.5409     93.258     40.203  32.449834     4.0961      7.553   306.2238 9.9748e+01    19.0010     -0.185     -0.268    15.1041   999.1023 0.0000e+00
     -0.119      0.274     6.5293     93.558     40.122  32.399097     4.1922      7.550   305.8382 8.7571e+01    19.2326     -0.116     -0.169    15.2022   999.0874 0.0000e+00
     -0.047      0.245     6.5166     93.977     40.093  32.382947     4.4130      7.543   305.3795 6.5666e+01    18.6923     -0.045     -0.067    15.2780   999.0763 0.0000e+00
      0.020      0.203     6.5159     94.512     40.088  32.381488     4.8144      7.534   304.7215 4.6462e+01    17.6791      0.027      0.038    15.3290   999.0686 0.0000e+00
      0.072      0.157     6.5277     95.112     40.088  32.381461     5.0317      7.524   303.9054 3.6493e+01    17.1409      0.079      0.114    15.3585   999.0643 0.0000e+00
      0.103      0.113     6.5442     95.682     40.091  32.382624     5.0464      7.514   303.0838 3.3287e+01    17.0685      0.107      0.155    15.3750   999.0618 0.0000e+00
      0.115      0.073     6.5730     96.177     40.107  32.395543     5.0354      7.507   302.2727 3.3314e+01    17.0007      0.116      0.168    15.3842   999.0605 0.0000e+00
      0.120      0.041     6.6106     96.589     40.124  32.410742     4.9417      7.501   301.4979 3.2111e+01    16.6815      0.118      0.171    15.3865   999.0600 0.0000e+00
      0.123      0.021     6.6565     96.901     40.157  32.439473     4.7628      7.495   300.6842 2.9836e+01    16.1260      0.121      0.176    15.3837   999.0606 0.0000e+00
      0.124      0.011     6.6976     97.117     40.215  32.489088     4.6591      7.490   299.7486 3.0131e+01    15.8229      0.122      0.178    15.3813   999.0609 0.0000e+00
      0.124      0.007     6.7317     97.297     40.228  32.502953     4.6506      7.486   298.8748 3.2151e+01    15.7688      0.122      0.177    15.3812   999.0609 0.0000e+00
      0.125      0.006     6.7610     97.455     40.197  32.480190     4.6771      7.482   298.1211 3.3002e+01    15.6690      0.122      0.177    15.3837   999.0605 0.0000e+00
      0.127      0.005     6.7829     97.524     40.180  32.467717     4.7361      7.478   297.3468 3.2737e+01    15.5666      0.124      0.181    15.3876   999.0600 0.0000e+00
      0.130      0.004     6.7950     97.486     40.194  32.479058     4.7746      7.475   296.7403 3.2395e+01    15.5466      0.129      0.187    15.3915   999.0594 0.0000e+00
      0.132      0.002     6.8059     97.366     40.208  32.490388     4.7692      7.473   296.2946 3.2224e+01    15.5256      0.131      0.190    15.3951   999.0589 0.0000e+00
      0.132     -0.001     6.8203     97.171     40.192  32.477789     4.7579      7.471   295.6578 3.2046e+01    15.3454      0.131      0.190    15.3975   999.0586 0.0000e+00
      0.130     -0.003     6.8246     96.889     40.161  32.453653     4.7589      7.466   294.9767 3.1969e+01    15.0384      0.128      0.186    15.3987   999.0583 0.0000e+00
      0.128     -0.005     6.8209     96.467     40.159  32.452404     4.7649      7.462   294.5128 3.2329e+01    14.8620      0.125      0.181    15.3991   999.0582 0.0000e+00
      0.126     -0.005     6.8127     95.863     40.171  32.462685     4.7691      7.460   294.0929 3.2802e+01    14.8513      0.124      0.180    15.3993   999.0582 0.0000e+00
      0.125     -0.004     6.7985     95.098     40.158  32.451041     4.7407      7.458   293.5996 3.2991e+01    15.0725      0.123      0.178    15.3997   999.0581 0.0000e+00
      0.125     -0.002     6.7807     94.213     40.143  32.438539     4.6735      7.456   293.1084 3.3002e+01    15.5053      0.122      0.177    15.4004   999.0580 0.0000e+00
      0.125     -0.001     6.7527     93.272     40.143  32.438444     4.6325      7.454   292.6270 3.2977e+01    15.7255      0.122      0.177    15.4015   999.0578 0.0000e+00
      0.125     -0.001     6.7089     92.402     40.157  32.449888     4.6353      7.451   292.2534 3.2881e+01    15.7355      0.122      0.178    15.4025   999.0577 0.0000e+00
      0.126     -0.001     6.6546     91.729     40.157  32.449992     4.6207      7.449   291.9469 3.2761e+01    15.9216      0.123      0.179    15.4019   999.0577 0.0000e+00
      0.126     -0.001     6.5921     91.311     40.144  32.439700     4.5771      7.448   291.5021 3.2908e+01    16.2707      0.123      0.179    15.3998   999.0581 0.0000e+00
      0.125     -0.002     6.5227     91.148     40.159  32.452375     4.5494      7.447   291.0912 3.3225e+01    16.4500      0.123      0.178    15.3985   999.0583 0.0000e+00
      0.123     -0.003     6.4581     91.177     40.188  32.476310     4.5461      7.445   290.8507 3.3515e+01    16.4515      0.121      0.176    15.3987   999.0582 0.0000e+00
      0.122     -0.003     6.4101     91.283     40.187  32.475251     4.5466      7.442   290.5727 3.3878e+01    16.4526      0.120      0.174    15.3995   999.0581 0.0000e+00
      0.122     -0.003     6.3805     91.398     40.143  32.439577     4.5557      7.440   290.1393 3.4061e+01    16.3318      0.119      0.173    15.4003   999.0580 0.0000e+00
      0.121     -0.003     6.3702     91.505     40.126  32.425742     4.5781      7.439   289.6547 3.4056e+01    16.0401      0.119      0.172    15.4011   999.0579 0.0000e+00
      0.121     -0.002     6.3762     91.623     40.138  32.434897     4.5918      7.438   289.2732 3.4176e+01    15.8423      0.118      0.172    15.4016   999.0578 0.0000e+00
      0.120     -0.002     6.3849     91.796     40.124  32.423348     4.6088      7.436   288.9686 3.4276e+01    15.8083      0.117      0.170    15.4015   999.0578 0.0000e+00
      0.119     -0.002     6.3935     92.114     40.111  32.413030     4.8004      7.435   288.6382 3.4300e+01    15.6950      0.116      0.169    15.4009   999.0578 0.0000e+00
      0.119     -0.001     6.4002     92.641     40.141  32.437069     5.1486      7.433   288.3769 3.4295e+01    15.4546      0.116      0.169    15.4004   999.0579 0.0000e+00
      0.119     -0.000     6.4080     93.343     40.170  32.460156     5.3328      7.433   288.2174 3.4201e+01    15.3266      0.116      0.169    15.4002   999.0580 0.0000e+00
      0.119 -2.029e-08     6.4176     94.165     40.143  32.438328     5.3542      7.433   288.0000 3.4116e+01    15.3281      0.116      0.168    15.4000   999.0580 0.0000e+00
      0.119 -2.232e-07     6.4369     95.020     40.128  32.426998     5.4859      7.432   287.7273 3.4082e+01    15.2110      0.116      0.169    15.4000   999.0580 0.0000e+00
      0.119 -2.198e-07     6.4764     95.797     40.157  32.450083     5.7292      7.431   287.5022 3.4096e+01    14.9911      0.117      0.170    15.4002   999.0580 0.0000e+00
      0.119 2.0630e-08     6.5258     96.429     40.174  32.463608     5.8593      7.430   287.3427 3.4174e+01    14.8657      0.117      0.170    15.4001   999.0580 0.0000e+00
      0.118 4.4860e-07     6.5856     96.893     40.174  32.463600     5.8622      7.429   287.1759 3.4244e+01    14.8418      0.116      0.168    15.4001   999.0580 0.0000e+00
      0.118      0.000     6.6488     97.147     40.157  32.449980     5.8169      7.428   286.9474 3.4195e+01    15.0946      0.115      0.167    15.4002   999.0579 0.0000e+00
      0.118      0.000     6.7047     97.192     40.128  32.425856     5.7450      7.427   286.6456 3.4063e+01    15.6291      0.116      0.168    15.4004   999.0579 0.0000e+00
      0.118      0.001     6.7487     97.105     40.128  32.425761     5.7120      7.426   286.2804 3.4038e+01    15.9624      0.116      0.168    15.4004   999.0580 0.0000e+00
      0.119      0.002     6.7827     96.922     40.157  32.448836     5.7045      7.425   285.9727 3.4101e+01    16.0105      0.117      0.169    15.4003   999.0580 0.0000e+00
      0.119      0.003     6.8014     96.685     40.160  32.451011     5.6804      7.425   285.7642 3.4061e+01    15.9488      0.117      0.169    15.4006   999.0579 0.0000e+00
      0.120      0.003     6.8004     96.440     40.161  32.452050     5.5851      7.424   285.5669 3.3971e+01    15.8387      0.117      0.170    15.4002   999.0580 0.0000e+00
      0.121      0.003     6.7953     96.187     40.174  32.461405     5.4369      7.423   285.3077 3.3872e+01    15.8272      0.118      0.172    15.3992   999.0581 0.0000e+00
      0.122      0.002     6.7811     95.939     40.144  32.437185     5.3624      7.422   285.0394 3.3643e+01    15.8751      0.120      0.174    15.3991   999.0582 0.0000e+00
      0.123      0.001     6.7625     95.714     40.114  32.413050     5.3436      7.421   284.9041 3.3447e+01    15.8279      0.121      0.176    15.3991   999.0582 0.0000e+00
      0.123      0.000     6.7467     95.507     40.127  32.423442     5.2177      7.419   284.7911 3.3555e+01    15.8793      0.122      0.177    15.3985   999.0582 0.0000e+00
      0.122     -0.001     6.7283     95.312     40.142  32.435915     5.0017      7.418   284.6187 3.3855e+01    16.1349      0.121      0.174    15.3977   999.0584 0.0000e+00
      0.121     -0.001     6.7105     95.129     40.144  32.436936     4.8898      7.417   284.5405 3.4077e+01    16.2977      0.119      0.172    15.3973   999.0584 0.0000e+00
      0.120     -0.001     6.6950     94.965     40.144  32.435781     4.8970      7.416   284.4481 3.4136e+01    16.3070      0.118      0.171    15.3973   999.0584 0.0000e+00
      0.120      0.000     6.6807     94.801     40.128  32.421954     5.0898      7.416   284.1901 3.4019e+01    16.4768      0.118      0.171    15.3975   999.0584 0.0000e+00
      0.121 1.0168e-11     6.6670     94.591     40.097  32.396675     5.4432      7.415   283.9155 3.3815e+01    16.8428      0.119      0.173    15.3976   999.0584 0.0000e+00
      0.122 1.1185e-10     6.6544     94.387     40.082  32.383983     5.6321      7.414   283.7959 3.3716e+01    17.0621      0.120      0.174    15.3969   999.0585 0.0000e+00
      0.122 1.2303e-09     6.6421     94.229     40.097  32.395416     5.6491      7.412   283.6903 3.3735e+01    17.0636      0.120      0.175    15.3954   999.0587 0.0000e+00
      0.122 1.3534e-08     6.6347     94.077     40.113  32.407994     5.6405      7.411   283.4992 3.3804e+01    16.8940      0.120      0.174    15.3945   999.0588 0.0000e+00
      0.121 1.4887e-07     6.6170     93.950     40.114  32.409137     5.6150      7.412   283.3772 3.3936e+01    16.6170      0.119      0.173    15.3939   999.0590 0.0000e+00
      0.121 -2.237e-07     6.6005     93.850     40.114  32.409242     5.6005      7.412   283.2485 3.4076e+01    16.4673      0.119      0.173    15.3933   999.0590 0.0000e+00
      0.121     -0.000     6.5938     93.760     40.114  32.409262     5.6035      7.411   283.0611 3.4110e+01    16.4604      0.118      0.172    15.3931   999.0591 0.0000e+00
      0.121      0.000     6.5799     93.666     40.115  32.409367     5.5899      7.410   282.9176 3.4012e+01    16.5340      0.119      0.173    15.3931   999.0591 0.0000e+00
      0.122     -0.001     6.5721     93.521     40.117  32.410512     5.5485      7.408   282.8047 3.3912e+01    16.6362      0.120      0.174    15.3930   999.0591 0.0000e+00
      0.122     -0.001     6.5656     93.299     40.133  32.423108     5.5190      7.407   282.7287 3.3938e+01    16.6802      0.119      0.173    15.3927   999.0592 0.0000e+00
      0.121     -0.001     6.5590     93.018     40.148  32.434740     5.5281      7.408   282.6869 3.4098e+01    16.6717      0.119      0.173    15.3923   999.0592 0.0000e+00
      0.120     -0.001     6.5545     92.690     40.136  32.424231     5.6414      7.408   282.6431 3.4273e+01    16.5992      0.118      0.171    15.3917   999.0593 0.0000e+00
      0.120     -0.001     6.5451     92.312     40.135  32.422981     5.8317      7.407   282.5435 3.4297e+01    16.4922      0.117      0.170    15.3913   999.0593 0.0000e+00
      0.120     -0.000     6.5288     91.914     40.131  32.419624     5.9307      7.406   282.3427 3.4201e+01    16.4267      0.117      0.170    15.3908   999.0594 0.0000e+00
      0.120 2.9432e-08     6.5088     91.542     40.087  32.383639     5.9362      7.406   282.1088 3.4111e+01    16.4302      0.117      0.170    15.3901   999.0595 0.0000e+00
      0.120 3.2376e-07     6.4864     91.180     40.070  32.368639     5.9152      7.405   281.9523 3.4064e+01    16.4694      0.118      0.172    15.3896   999.0596 0.0000e+00
      0.120      0.000     6.4594     90.791     40.067  32.365185     5.6944      7.404   281.8266 3.4016e+01    16.7695      0.118      0.171    15.3891   999.0597 0.0000e+00
      0.121      0.000     6.4297     90.396     40.040  32.341881     5.2952      7.403   281.6224 3.4028e+01    17.3705      0.119      0.172    15.3884   999.0598 0.0000e+00
      0.121      0.001     6.4042     90.001     40.040  32.340707     5.0775      7.402   281.3763 3.4231e+01    17.7064      0.119      0.173    15.3875   999.0599 0.0000e+00
      0.120      0.003     6.3815     89.585     40.054  32.350994     5.0389      7.400   281.1730 3.4491e+01    17.6844      0.118      0.171    15.3863   999.0601 0.0000e+00
      0.120      0.005     6.3525     89.165     40.040  32.339333     4.9149      7.397   281.0577 3.4423e+01    17.4325      0.117      0.170    15.3846   999.0604 0.0000e+00
      0.120      0.007     6.3248     88.745     40.025  32.326642     4.7051      7.392   281.0144 3.3646e+01    16.9875      0.117      0.169    15.3830   999.0606 0.0000e+00
      0.124      0.007     6.2994     88.314     40.023  32.324467     4.5914      7.387   280.9942 3.2371e+01    16.7280      0.121      0.176    15.3816   999.0608 0.0000e+00
      0.129      0.007     6.2685     87.896     40.011  32.313032     4.5812      7.382   280.8983 3.1385e+01    16.6871      0.126      0.185    15.3808   999.0610 0.0000e+00
      0.132      0.010     6.2393     87.506     40.016  32.315312     4.6163      7.377   280.7155 3.1198e+01    16.5261      0.129      0.188    15.3805   999.0611 0.0000e+00
      0.132      0.019     6.2109     87.131     40.061  32.352026     4.6951      7.372   280.3337 3.1375e+01    16.2234      0.130      0.188    15.3800   999.0611 0.0000e+00
      0.131      0.034     6.1798     86.796     40.091  32.376172     4.7446      7.368   278.4332 3.1812e+01    16.0421      0.129      0.187    15.3786   999.0613 0.0000e+00
      0.132      0.050     6.1501     86.543     40.062  32.353409     4.7809      7.363   275.1165 3.1924e+01    16.0385      0.124      0.181    15.3766   999.0616 0.0000e+00
      0.146      0.067     6.1244     86.391     40.034  32.330645     5.0301      7.359   273.0121 2.9899e+01    16.2121      0.137      0.198    15.3747   999.0620 0.0000e+00
      0.176      0.083     6.0972     86.367     40.064  32.354770     5.4609      7.356   272.5199 2.6645e+01    16.5030      0.172      0.249    15.3739   999.0623 0.0000e+00
      0.210      0.099     6.0720     86.442     40.108  32.391266     5.6893      7.353   272.2634 2.4345e+01    16.6710      0.210      0.304    15.3745   999.0624 0.0000e+00
      0.237      0.110     6.0550     86.550     40.107  32.391153     5.7098      7.353   271.8890 2.2920e+01    16.7036      0.236      0.342    15.3753   999.0624 0.0000e+00
      0.258      0.114     6.0423     86.693     40.061  32.353398     5.7272      7.354   271.5214 2.1152e+01    16.7010      0.249      0.362    15.3750   999.0624 0.0000e+00
      0.286      0.110     6.0415     86.894     40.014  32.315540     5.8301      7.355   271.3459 1.8844e+01    16.7379      0.277      0.402    15.3749   999.0626 0.0000e+00
      0.321      0.105     6.0499     87.162     40.013  32.314178     6.0093      7.356   271.4026 1.6839e+01    16.8542      0.316      0.459    15.3761   999.0626 0.0000e+00
      0.355      0.102     6.0561     87.485     40.040  32.336930     6.1083      7.356   271.6037 1.5595e+01    16.9604      0.351      0.510    15.3770   999.0627 0.0000e+00
      0.380      0.098     6.0654     87.805     40.040  32.336795     6.0993      7.355   271.7991 1.5085e+01    17.0066      0.377      0.547    15.3767   999.0628 0.0000e+00
      0.397      0.092     6.0800     88.131     40.010  32.312544     5.8648      7.354   271.8723 1.4728e+01    16.8222      0.388      0.563    15.3760   999.0629 0.0000e+00
      0.414      0.082     6.0976     88.522     39.992  32.297564     5.4318      7.354   271.8867 1.4128e+01    16.4354      0.403      0.585    15.3764   999.0629 0.0000e+00
      0.437      0.072     6.1236     88.987     39.974  32.282585     5.1995      7.354   271.8865 1.3458e+01    16.2618      0.429      0.622    15.3770   999.0630 0.0000e+00
      0.462      0.063     6.1449     89.450     39.945  32.258347     5.1884      7.353   271.9563 1.2975e+01    16.2639      0.456      0.660    15.3772   999.0631 0.0000e+00
      0.480      0.057     6.1656     89.819     39.948  32.258349     5.2633      7.350   272.1280 1.2866e+01    15.9685      0.474      0.688    15.3770   999.0632 0.0000e+00
      0.490      0.054     6.1928     90.069     39.983  32.282608     5.4029      7.347   272.2425 1.2981e+01    15.4102      0.483      0.700    15.3765   999.0633 0.0000e+00
      0.494      0.054     6.2273     90.192     40.004  32.297817     5.4715      7.345   272.2221 1.3069e+01    15.1182      0.484      0.702    15.3767   999.0633 0.0000e+00
      0.500      0.056     6.2635     90.210     40.024  32.315316     5.4601      7.343   272.1389 1.2870e+01    15.1247      0.486      0.705    15.3763   999.0633 0.0000e+00
      0.516      0.060     6.2889     90.176     40.087  32.367257     5.3690      7.342   272.0970 1.2241e+01    15.3252      0.503      0.729    15.3716   999.0641 0.0000e+00
      0.541      0.064     6.3082     90.095     40.150  32.418150     5.2102      7.341   272.1456 1.1552e+01    15.7082      0.533      0.772    15.3656   999.0653 0.0000e+00
      0.564      0.066     6.3166     90.031     40.158  32.422974     5.1276      7.340   272.2104 1.1100e+01    15.9534      0.556      0.806    15.3644   999.0655 0.0000e+00
      0.582      0.065     6.3153     90.319     40.166  32.425586     5.1151      7.340   272.1919 1.0821e+01    15.9960      0.573      0.831    15.3660   999.0653 0.0000e+00
      0.596      0.061     6.3132     91.460     40.201  32.449724     5.0238      7.340   272.1804 1.0645e+01    15.7645      0.586      0.849    15.3673   999.0652 0.0000e+00
      0.606      0.059     6.3081     93.721     40.221  32.460970     4.8564      7.339   272.3290 1.0423e+01    15.2511      0.593      0.861    15.3682   999.0652 0.0000e+00
      0.618      0.062     6.2952     96.921     40.196  32.434633     4.7654      7.337   272.5261 1.0144e+01    14.9337      0.606      0.880    15.3667   999.0654 0.0000e+00
      0.633      0.069     6.3003    100.531     40.146  32.385124     4.7554      7.335   272.5841 9.8584e+00    14.9093      0.620      0.899    15.3618   999.0663 0.0000e+00
      0.651      0.077     6.3734    103.987     40.141  32.370031     4.7268      7.334   272.6014 9.4423e+00    15.1200      0.636      0.922    15.3553   999.0674 0.0000e+00
      0.675      0.084     6.5380    106.970     40.166  32.379053     4.6622      7.333   272.7353 8.8970e+00    15.5479      0.660      0.957    15.3486   999.0685 0.0000e+00
      0.701      0.089     6.7773    109.280     40.166  32.367278     4.6078      7.331   272.9116 8.3595e+00    15.7897      0.688      0.998    15.3423   999.0696 0.0000e+00
      0.726      0.090     7.0485    110.684     40.164  32.354567     4.5892      7.331   272.9266 7.8901e+00    15.7827      0.714      1.035    15.3324   999.0713 0.0000e+00
      0.749      0.088     7.2987    111.075     40.175  32.352267     4.5931      7.330   272.9167 7.4394e+00    15.7579      0.735      1.066    15.3172   999.0737 0.0000e+00
      0.771      0.083     7.5135    110.590     40.173  32.339463     4.7335      7.328   273.0500 6.9973e+00    15.7199      0.757      1.098    15.3013   999.0763 0.0000e+00
      0.792      0.078     7.6855    109.507     40.169  32.326658     5.0040      7.326   273.1610 6.6084e+00    15.6502      0.777      1.127    15.2876   999.0785 0.0000e+00
      0.810      0.075     7.7894    108.116     40.177  32.324360     5.1584      7.326   273.2256 6.2701e+00    15.6040      0.795      1.153    15.2746   999.0806 0.0000e+00
      0.827      0.075     7.8147    106.618     40.170  32.311669     5.1863      7.324   273.2300 5.9796e+00    15.5870      0.812      1.177    15.2604   999.0828 0.0000e+00
      0.844      0.075     7.7758    105.107     40.165  32.300122     5.2808      7.321   273.2142 5.7187e+00    15.7392      0.827      1.200    15.2460   999.0851 0.0000e+00
      0.863      0.075     7.6943    103.675     40.189  32.311661     5.4424      7.318   273.2926 5.4387e+00    16.0686      0.845      1.227    15.2332   999.0871 0.0000e+00
      0.884      0.074     7.5926    102.406     40.213  32.324249     5.5275      7.316   273.4029 5.1435e+00    16.2597      0.867      1.258    15.2236   999.0887 0.0000e+00
      0.905      0.072     7.4884    101.361     40.223  32.325394     5.5381      7.315   273.4294 4.8810e+00    16.2473      0.890      1.290    15.2156   999.0901 0.0000e+00
      0.925      0.069     7.3805    100.563     40.231  32.325490     5.5281      7.314   273.4411 4.6760e+00    16.1807      0.908      1.317    15.2062   999.0916 0.0000e+00
      0.940      0.065     7.2797     99.991     40.239  32.325395     5.5015      7.312   273.4583 4.5171e+00    16.1748      0.923      1.338    15.1960   999.0932 0.0000e+00
      0.955      0.061     7.1904     99.617     40.245  32.324241     5.4853      7.309   273.4658 4.3726e+00    16.2093      0.937      1.357    15.1870   999.0947 0.0000e+00
      0.970      0.058     7.1172     99.366     40.238  32.311541     5.4617      7.306   273.6181 4.2329e+00    16.1713      0.951      1.379    15.1792   999.0959 0.0000e+00
      0.985      0.058     7.0638     99.179     40.232  32.298746     5.2853      7.304   273.7502 4.0999e+00    15.9453      0.966      1.402    15.1716   999.0972 0.0000e+00
      0.998      0.058     7.0242     99.054     40.239  32.296448     4.9835      7.301   273.8590 3.9669e+00    15.5736      0.978      1.421    15.1638   999.0984 0.0000e+00
      1.012      0.057     7.0016     98.958     40.233  32.283758     4.8299      7.299   274.0730 3.8084e+00    15.3480      0.991      1.436    15.1559   999.0997 0.0000e+00
      1.028      0.057     6.9880     98.871     40.226  32.272221     4.8238      7.297   274.1866 3.6386e+00    15.3151      1.007      1.462    15.1473   999.1011 0.0000e+00
      1.044      0.058     6.9739     98.816     40.246  32.283862     4.8224      7.297   274.2011 3.5090e+00    15.3064      1.025      1.487    15.1373   999.1027 0.0000e+00
      1.058      0.061     6.9694     98.791     40.272  32.297584     4.8308      7.296   274.2472 3.4049e+00    15.2431      1.037      1.504    15.1265   999.1044 0.0000e+00
      1.072      0.064     6.9646     98.762     40.306  32.311203     4.8559      7.293   274.3137 3.2964e+00    15.1391      1.050      1.522    15.1162   999.1060 0.0000e+00
      1.087      0.067     6.9582     98.734     40.343  32.321589     4.8744      7.291   274.4025 3.1609e+00    15.0979      1.064      1.544    15.1088   999.1072 0.0000e+00
      1.105      0.071     6.9548     98.675     40.335  32.296217     4.8806      7.290   274.5467 3.0084e+00    15.1055      1.083      1.571    15.1054   999.1078 0.0000e+00
      1.125      0.073     6.9556     98.520     40.309  32.258248     4.8098      7.288   274.6816 2.8684e+00    14.8701      1.103      1.600    15.0993   999.1088 0.0000e+00
      1.146      0.074     6.9559     98.286     40.309  32.243245     4.6599      7.287   274.7431 2.7278e+00    14.4154      1.122      1.627    15.0812   999.1117 0.0000e+00
      1.167      0.073     6.9568     97.927     40.324  32.241728     4.5773      7.285   274.7735 2.5972e+00    14.1959      1.145      1.661    15.0547   999.1158 0.0000e+00
      1.187      0.070     6.9621     97.382     40.335  32.239889     4.5743      7.283   274.7909 2.4892e+00    14.2152      1.166      1.691    15.0298   999.1197 0.0000e+00
      1.203      0.065     6.9497     96.735     40.325  32.220999     4.6228      7.281   274.7812 2.3864e+00    14.2552      1.180      1.710    15.0084   999.1229 0.0000e+00
      1.218      0.058     6.9388     96.108     40.315  32.203692     4.7129      7.279   274.8288 2.2852e+00    14.2527      1.194      1.731    14.9902   999.1258 0.0000e+00
      1.234      0.052     6.9191     95.585     40.348  32.220999     4.7538      7.276   274.9356 2.2032e+00    14.2183      1.211      1.757    14.9745   999.1282 0.0000e+00
      1.247      0.049     6.8787     95.219     40.382  32.239866     4.7527      7.274   274.9544 2.1480e+00    14.2005      1.225      1.776    14.9609   999.1303 0.0000e+00
      1.255      0.048     6.8319     95.022     40.394  32.241426     4.7176      7.272   274.9697 2.1056e+00    14.0704      1.231      1.786    14.9481   999.1323 0.0000e+00
      1.264      0.049     6.7873     94.965     40.402  32.239853     4.6406      7.271   275.1207 2.0586e+00    13.8569      1.238      1.796    14.9358   999.1341 0.0000e+00
      1.276      0.051     6.7510     95.039     40.389  32.220830     4.6021      7.270   275.2318 1.9945e+00    13.7497      1.250      1.812    14.9256   999.1357 0.0000e+00
      1.291      0.054     6.7253     95.206     40.376  32.201794     4.5816      7.268   275.2810 1.9223e+00    13.6919      1.265      1.835    14.9153   999.1374 0.0000e+00
      1.307      0.059     6.7151     95.392     40.384  32.200064     4.3933      7.266   275.4567 1.8544e+00    13.1581      1.282      1.859    14.9056   999.1388 0.0000e+00
      1.322      0.064     6.7114     95.559     40.392  32.199896     4.0681      7.264   275.6356 1.7842e+00    12.1457      1.297      1.881    14.8963   999.1403 0.0000e+00
      1.338      0.068     6.7193     95.678     40.400  32.199752     3.8922      7.261   275.7229 1.7232e+00    11.5449      1.312      1.903    14.8853   999.1421 0.0000e+00
      1.354      0.070     6.7356     95.708     40.414  32.198326     3.8790      7.260   275.8240 1.6779e+00    11.4319      1.328      1.926    14.8738   999.1438 0.0000e+00
      1.373      0.072     6.7507     95.618     40.416  32.182638     3.8830      7.257   275.9116 1.6256e+00    11.3367      1.345      1.952    14.8625   999.1456 0.0000e+00
      1.394      0.074     6.7641     95.403     40.386  32.136971     3.9052      7.254   276.0080 1.5710e+00    10.5581      1.368      1.984    14.8550   999.1468 0.0000e+00
      1.414      0.076     6.7748     95.105     40.356  32.090362     3.9563      7.252   276.1288 1.5288e+00     9.1298      1.388      2.012    14.8500   999.1477 0.0000e+00
      1.432      0.076     6.7794     94.777     40.352  32.063292     3.9888      7.250   276.1677 1.4820e+00     8.3554      1.403      2.035    14.8358   999.1499 0.0000e+00
      1.452      0.075     6.7771     94.402     40.382  32.063482     4.0038      7.248   276.1341 1.4278e+00     8.2740      1.423      2.064    14.8115   999.1536 0.0000e+00
      1.472      0.073     6.7646     93.959     40.447  32.092621     4.0605      7.245   276.2393 1.3840e+00     8.2115      1.444      2.096    14.7852   999.1575 0.0000e+00
      1.491      0.072     6.7451     93.470     40.481  32.098286     4.1457      7.243   276.4932 1.3418e+00     8.1237      1.463      2.122    14.7569   999.1618 0.0000e+00
      1.509      0.073     6.7277     92.960     40.467  32.068488     4.1929      7.241   276.6235 1.3028e+00     8.0975      1.480      2.146    14.7266   999.1664 0.0000e+00
      1.524      0.073     6.7064     92.395     40.465  32.049613     4.1886      7.239   276.6950 1.2702e+00     8.1245      1.494      2.167    14.6968   999.1708 0.0000e+00
      1.542      0.073     6.6780     91.720     40.498  32.060434     4.1023      7.237   276.8425 1.2322e+00     8.0889      1.510      2.191    14.6684   999.1751 0.0000e+00
      1.562      0.072     6.6456     90.905     40.530  32.072381     3.9558      7.236   276.9444 1.1961e+00     7.9953      1.532      2.222    14.6425   999.1790 0.0000e+00
      1.584      0.070     6.6145     89.950     40.537  32.067121     3.8815      7.233   276.9803 1.1505e+00     7.9094      1.554      2.254    14.6181   999.1827 0.0000e+00
      1.604      0.067     6.5789     88.968     40.541  32.060293     3.8815      7.230   277.0175 1.1000e+00     7.8378      1.574      2.283    14.5967   999.1859 0.0000e+00
      1.619      0.062     6.5338     88.099     40.541  32.053277     3.8084      7.228   277.0508 1.0677e+00     7.7513      1.589      2.304    14.5782   999.1886 0.0000e+00
      1.632      0.058     6.4794     87.341     40.538  32.045742     3.6569      7.226   277.0391 1.0426e+00     7.6505      1.600      2.321    14.5622   999.1910 0.0000e+00
      1.644      0.057     6.4096     86.654     40.531  32.032636     3.5759      7.224   277.1342 1.0202e+00     7.6027      1.612      2.338    14.5492   999.1929 0.0000e+00
      1.657      0.059     6.3361     86.102     40.526  32.021722     3.5652      7.223   277.3395 1.0055e+00     7.5991      1.625      2.357    14.5362   999.1950 0.0000e+00
      1.671      0.063     6.2763     85.729     40.560  32.040694     3.4753      7.220   277.4561 9.8864e-01     7.4108      1.637      2.376    14.5278   999.1962 0.0000e+00
      1.688      0.067     6.2262     85.512     40.610  32.071638     3.3039      7.218   277.5119 9.6064e-01     7.0295      1.652      2.397    14.5225   999.1970 0.0000e+00
      1.708      0.069     6.1747     85.431     40.629  32.078553     3.2095      7.215   277.5845 9.2490e-01     6.7911      1.674      2.428    14.5132   999.1985 0.0000e+00
      1.729      0.069     6.1353     85.423     40.616  32.060832     3.2095      7.212   277.7313 8.9943e-01     6.7567      1.697      2.461    14.5037   999.1999 0.0000e+00
      1.748      0.068     6.1120     85.424     40.607  32.047744     3.2177      7.211   277.8243 8.8025e-01     6.7445      1.715      2.487    14.4944   999.2014 0.0000e+00
      1.764      0.065     6.0967     85.405     40.612  32.047226     3.2125      7.210   277.8477 8.4922e-01     6.5451      1.731      2.510    14.4837   999.2031 0.0000e+00
      1.778      0.061     6.0950     85.328     40.627  32.054555     3.2074      7.208   277.9283 8.2021e-01     6.2139      1.744      2.529    14.4735   999.2046 0.0000e+00
      1.793      0.059     6.0973     85.183     40.655  32.072892     3.2085      7.207   278.0258 8.0466e-01     6.0497      1.757      2.549    14.4648   999.2058 0.0000e+00
      1.807      0.058     6.0983     84.978     40.666  32.078558     3.1996      7.206   278.1658 7.9708e-01     6.0019      1.773      2.570    14.4576   999.2070 0.0000e+00
      1.822      0.059     6.0995     84.718     40.644  32.059596     3.1258      7.205   278.3297 7.8729e-01     5.8657      1.785      2.589    14.4514   999.2080 0.0000e+00
      1.837      0.061     6.0946     84.424     40.613  32.034006     2.9926      7.203   278.4596 7.6854e-01     5.6805      1.800      2.611    14.4462   999.2088 0.0000e+00
      1.852      0.064     6.0845     84.131     40.602  32.022989     2.9152      7.200   278.5310 7.4443e-01     5.5982      1.817      2.635    14.4414   999.2096 0.0000e+00
      1.868      0.067     6.0705     83.867     40.648  32.053309     2.8925      7.197   278.5914 7.2171e-01     5.5922      1.831      2.655    14.4377   999.2102 0.0000e+00
      1.885      0.071     6.0516     83.653     40.700  32.083299     2.7526      7.195   278.6736 6.9765e-01     5.4772      1.847      2.680    14.4365   999.2104 0.0000e+00
      1.904      0.073     6.0297     83.493     40.700  32.068282     2.4984      7.193   278.7497 6.7063e-01     5.2554      1.867      2.708    14.4350   999.2106 0.0000e+00
      1.924      0.073     6.0085     83.342     40.710  32.062100     2.3592      7.190   278.8234 6.5129e-01     5.1062      1.886      2.735    14.4324   999.2112 0.0000e+00
      1.944      0.073     5.9898     83.152     40.736  32.071985     2.3523      7.188   278.9626 6.3199e-01     5.0821      1.907      2.766    14.4269   999.2122 0.0000e+00
      1.964      0.071     5.9758     82.918     40.734  32.060865     2.3287      7.186   279.1424 6.1066e-01     4.9638      1.927      2.795    14.4120   999.2144 0.0000e+00
      1.981      0.068     5.9687     82.615     40.735  32.054558     2.2735      7.184   279.2763 6.0398e-01     4.6596      1.943      2.818    14.3915   999.2173 0.0000e+00
      1.998      0.063     5.9622     82.231     40.749  32.059182     2.2392      7.183   279.3767 6.0677e-01     4.4517      1.961      2.843    14.3742   999.2199 0.0000e+00
      2.014      0.058     5.9489     81.790     40.749  32.053311     2.2266      7.183   279.4105 5.9689e-01     4.3839      1.976      2.865    14.3608   999.2220 0.0000e+00
      2.028      0.054     5.9352     81.316     40.744  32.047023     2.1986      7.182   279.4263 5.7305e-01     4.2980      1.989      2.885    14.3498   999.2236 0.0000e+00
      2.040      0.051     5.9153     80.875     40.742  32.046607     2.1523      7.180   279.4818 5.5618e-01     4.2325      2.001      2.903    14.3410   999.2248 0.0000e+00
      2.052      0.050     5.8869     80.516     40.741  32.048281     2.1181      7.176   279.5659 5.5296e-01     4.2150      2.012      2.918    14.3334   999.2260 0.0000e+00
      2.062      0.052     5.8571     80.250     40.766  32.067271     2.1052      7.174   279.6688 5.5719e-01     4.2181      2.022      2.932    14.3269   999.2270 0.0000e+00
      2.074      0.056     5.8208     80.065     40.796  32.085837     2.1096      7.173   279.7790 5.4966e-01     4.3026      2.033      2.948    14.3224   999.2277 0.0000e+00
      2.088      0.061     5.7882     79.955     40.799  32.082367     2.1278      7.171   279.9520 5.2294e-01     4.4176      2.047      2.969    14.3236   999.2276 0.0000e+00
      2.105      0.064     5.7614     79.908     40.814  32.088772     2.1522      7.168   280.2119 5.0105e-01     4.4286      2.063      2.992    14.3295   999.2268 0.0000e+00
      2.125      0.065     5.7429     79.890     40.835  32.099810     2.1705      7.166   280.4267 4.8719e-01     4.4030      2.083      3.020    14.3298   999.2269 0.0000e+00
      2.146      0.064     5.7308     79.835     40.829  32.088898     2.1753      7.164   280.4842 4.8078e-01     4.4030      2.106      3.054    14.3216   999.2282 0.0000e+00
      2.164      0.061     5.7238     79.667     40.831  32.083756     2.1324      7.163   280.4765 4.7295e-01     4.3622      2.125      3.081    14.3138   999.2294 0.0000e+00
      2.175      0.057     5.7225     79.415     40.861  32.101083     2.0505      7.162   280.5057 4.5878e-01     4.3035      2.133      3.094    14.3081   999.2302 0.0000e+00
      2.185      0.055     5.7228     79.132     40.874  32.108018     2.0087      7.160   280.5796 4.5568e-01     4.2502      2.141      3.105    14.3006   999.2313 0.0000e+00
      2.198      0.055     5.7241     78.806     40.872  32.104135     1.9992      7.159   280.6815 4.5296e-01     4.1767      2.156      3.127    14.2933   999.2324 0.0000e+00
      2.212      0.057     5.7110     78.440     40.896  32.117590     2.0059      7.158   280.7910 4.3985e-01     4.1689      2.169      3.146    14.2844   999.2338 0.0000e+00
      2.227      0.061     5.6914     78.071     40.941  32.143780     2.0371      7.156   280.8706 4.2226e-01     4.2208      2.182      3.165    14.2758   999.2351 0.0000e+00
      2.244      0.063     5.6734     77.725     40.984  32.166949     2.0566      7.154   280.9563 4.1756e-01     4.2473      2.201      3.192    14.2737   999.2355 0.0000e+00
      2.262      0.062     5.6499     77.407     41.048  32.207321     2.0506      7.152   281.1386 4.2026e-01     4.2598      2.219      3.218    14.2723   999.2358 0.0000e+00
      2.280      0.062     5.6229     77.105     41.113  32.251136     1.9989      7.150   281.2681 4.0649e-01     4.2080      2.236      3.244    14.2649   999.2369 0.0000e+00
      2.296      0.062     5.5977     76.807     41.122  32.252482     1.9166      7.147   281.3171 3.8730e-01     4.0791      2.254      3.268    14.2538   999.2385 0.0000e+00
      2.309      0.063     5.5740     76.496     41.092  32.223590     1.8705      7.143   281.4740 3.7527e-01     4.0133      2.264      3.282    14.2395   999.2406 0.0000e+00
      2.322      0.066     5.5537     76.164     41.091  32.219104     1.8578      7.140   281.6165 3.6684e-01     4.0021      2.275      3.299    14.2259   999.2426 0.0000e+00
      2.337      0.069     5.5330     75.846     41.151  32.261704     1.8410      7.137   281.6626 3.5941e-01     3.9759      2.291      3.323    14.2183   999.2438 0.0000e+00
      2.357      0.071     5.5126     75.546     41.203  32.294425     1.8237      7.133   281.7741 3.5487e-01     3.9910      2.310      3.351    14.2118   999.2449 0.0000e+00
      2.380      0.072     5.4927     75.264     41.219  32.297411     1.8219      7.132   281.9311 3.4911e-01     4.0214      2.334      3.386    14.2048   999.2459 0.0000e+00
      2.401      0.071     5.4664     75.033     41.231  32.297796     1.8198      7.131   282.0128 3.4819e-01     4.0162      2.356      3.417    14.2020   999.2464 0.0000e+00
      2.419      0.069     5.4449     74.868     41.241  32.299080     1.8059      7.128   282.1604 3.5224e-01     3.9937      2.372      3.441    14.1980   999.2470 0.0000e+00
      2.434      0.064     5.4248     74.685     41.263  32.312930     1.7843      7.126   282.3390 3.4438e-01     3.9131      2.387      3.462    14.1870   999.2487 0.0000e+00
      2.449      0.059     5.4052     74.420     41.298  32.338325     1.7587      7.123   282.4506 3.3293e-01     3.7947      2.401      3.483    14.1734   999.2507 0.0000e+00
      2.463      0.057     5.3887     74.149     41.318  32.352285     1.7476      7.121   282.6497 3.3294e-01     3.7752      2.415      3.503    14.1623   999.2523 0.0000e+00
      2.477      0.058     5.3801     73.902     41.323  32.354794     1.7539      7.120   282.8527 3.2919e-01     3.8083      2.429      3.523    14.1551   999.2534 0.0000e+00
      2.490      0.060     5.3720     73.667     41.346  32.368652     1.7479      7.119   283.0126 3.0971e-01     3.7691      2.441      3.541    14.1498   999.2542 0.0000e+00
      2.504      0.064     5.3475     73.464     41.386  32.392913     1.7180      7.116   283.1209 3.0205e-01     3.7275      2.454      3.561    14.1476   999.2546 0.0000e+00
      2.521      0.068     5.3285     73.282     41.398  32.394290     1.6970      7.114   283.0429 2.9875e-01     3.7639      2.472      3.585    14.1482   999.2546 0.0000e+00
      2.540      0.069     5.3121     73.121     41.394  32.385280     1.6841      7.112   282.9309 2.7913e-01     3.7833      2.490      3.612    14.1470   999.2549 0.0000e+00
      2.560      0.068     5.2939     73.003     41.434  32.410895     1.5963      7.109   282.9709 2.6685e-01     3.6344      2.510      3.640    14.1420   999.2556 0.0000e+00
      2.580      0.065     5.2816     72.917     41.493  32.450146     1.4512      7.107   283.0958 2.6023e-01     3.4051      2.532      3.671    14.1321   999.2572 0.0000e+00
      2.597      0.061     5.2699     72.831     41.539  32.479090     1.3857      7.106   283.2366 2.5080e-01     3.3381      2.550      3.699    14.1219   999.2587 0.0000e+00
      2.610      0.058     5.2574     72.725     41.583  32.506998     1.3934      7.105   283.3822 2.5000e-01     3.3820      2.561      3.714    14.1152   999.2596 0.0000e+00
      2.620      0.057     5.2507     72.600     41.624  32.533724     1.4064      7.103   283.5659 2.5865e-01     3.4115      2.569      3.726    14.1086   999.2606 0.0000e+00
      2.631      0.059     5.2464     72.478     41.649  32.548376     1.4219      7.101   283.7377 2.6507e-01     3.4648      2.580      3.741    14.1001   999.2619 0.0000e+00
      2.646      0.063     5.2414     72.351     41.665  32.557223     1.4326      7.099   283.8239 2.5431e-01     3.5023      2.594      3.762    14.0914   999.2633 0.0000e+00
      2.664      0.068     5.2352     72.216     41.694  32.577231     1.4403      7.096   283.9203 2.3501e-01     3.5042      2.612      3.788    14.0837   999.2644 0.0000e+00
      2.686      0.072     5.2253     72.087     41.727  32.599901     1.4457      7.094   284.0424 2.2748e-01     3.4878      2.634      3.822    14.0767   999.2655 0.0000e+00
      2.708      0.073     5.2188     71.965     41.786  32.640927     1.4368      7.091   284.1820 2.2561e-01     3.4350      2.658      3.855    14.0702   999.2665 0.0000e+00
      2.725      0.073     5.2093     71.819     41.860  32.692499     1.4285      7.089   284.3177 2.2211e-01     3.3899      2.673      3.877    14.0664   999.2672 0.0000e+00
      2.742      0.072     5.2000     71.646     41.895  32.715754     1.4322      7.088   284.3934 2.2567e-01     3.3687      2.688      3.899    14.0642   999.2675 0.0000e+00
      2.760      0.070     5.1901     71.453     41.919  32.731717     1.4386      7.085   284.4940 2.2428e-01     3.3437      2.707      3.926    14.0603   999.2681 0.0000e+00
      2.777      0.069     5.1840     71.208     41.955  32.758576     1.4448      7.083   284.5878 2.1030e-01     3.3160      2.723      3.950    14.0539   999.2692 0.0000e+00
      2.795      0.068     5.1743     70.919     41.990  32.786651     1.4380      7.081   284.5815 2.0036e-01     3.2965      2.740      3.974    14.0467   999.2703 0.0000e+00
      2.815      0.065     5.1608     70.614     42.028  32.817322     1.4254      7.079   284.5898 1.8795e-01     3.3042      2.761      4.004    14.0406   999.2712 0.0000e+00
      2.832      0.064     5.1504     70.318     42.103  32.875564     1.4310      7.077   284.6883 1.6835e-01     3.3431      2.779      4.030    14.0370   999.2717 0.0000e+00
      2.847      0.064     5.1311     70.043     42.244  32.983142     1.4453      7.074   284.8249 1.6427e-01     3.3084      2.792      4.050    14.0365   999.2719 0.0000e+00
      2.859      0.066     5.1101     69.815     42.403  33.102631     1.4517      7.072   285.0376 1.7017e-01     3.1798      2.804      4.067    14.0379   999.2718 0.0000e+00
      2.873      0.070     5.0865     69.639     42.506  33.177959     1.4559      7.069   285.2814 1.6840e-01     3.0992      2.817      4.086    14.0399   999.2716 0.0000e+00
      2.891      0.072     5.0659     69.494     42.534  33.195822     1.4524      7.065   285.3631 1.6088e-01     3.0870      2.834      4.110    14.0401   999.2717 0.0000e+00
      2.914      0.073     5.0450     69.369     42.533  33.191672     1.4004      7.062   285.4235 1.5545e-01     3.1306      2.856      4.142    14.0363   999.2724 0.0000e+00
      2.939      0.073     5.0290     69.216     42.534  33.191254     1.3049      7.059   285.5812 1.6015e-01     3.2337      2.883      4.181    14.0301   999.2734 0.0000e+00
      2.959      0.071     5.0187     69.002     42.535  33.190764     1.2505      7.058   285.7213 1.6780e-01     3.3181      2.905      4.213    14.0241   999.2744 0.0000e+00
      2.974      0.067     5.0073     68.719     42.530  33.185735     1.2542      7.057   285.9132 1.6185e-01     3.3308      2.917      4.231    14.0189   999.2752 0.0000e+00
      2.987      0.063     5.0016     68.372     42.541  33.193917     1.2633      7.054   286.0940 1.4538e-01     3.2890      2.928      4.247    14.0153   999.2757 0.0000e+00
      3.000      0.060     4.9908     67.998     42.583  33.226228     1.2657      7.053   286.1860 1.3987e-01     3.2058      2.942      4.266    14.0137   999.2760 0.0000e+00
      3.015      0.059     4.9759     67.634     42.628  33.259086     1.2567      7.052   286.2513 1.4432e-01     3.1118      2.957      4.288    14.0121   999.2763 0.0000e+00
      3.031      0.059     4.9559     67.314     42.650  33.273881     1.2417      7.050   286.2815 1.4151e-01     3.0696      2.973      4.311    14.0111   999.2765 0.0000e+00
      3.049      0.058     4.9293     67.074     42.659  33.278176     1.2317      7.047   286.2940 1.3629e-01     3.0566      2.989      4.336    14.0111   999.2766 0.0000e+00
      3.065      0.056     4.9016     66.918     42.704  33.311015     1.2130      7.045   286.3160 1.4029e-01     3.0525      3.007      4.362    14.0102   999.2768 0.0000e+00
      3.078      0.054     4.8750     66.833     42.761  33.353606     1.1981      7.044   286.3752 1.4646e-01     3.0857      3.020      4.379    14.0077   999.2771 0.0000e+00
      3.089      0.053     4.8510     66.810     42.756  33.348887     1.1988      7.041   286.5793 1.4520e-01     3.0979      3.027      4.392    14.0044   999.2777 0.0000e+00
      3.101      0.050     4.8341     66.844     42.717  33.317422     1.1959      7.039   286.8058 1.3885e-01     3.1017      3.041      4.410    14.0009   999.2783 0.0000e+00
      3.114      0.046     4.8237     66.930     42.683  33.290487     1.1894      7.038   286.8762 1.3405e-01     3.1310      3.054      4.429    13.9988   999.2786 0.0000e+00
      3.129      0.044     4.8176     67.058     42.665  33.277086     1.1896      7.037   286.9146 1.3094e-01     3.1242      3.068      4.449    13.9972   999.2790 0.0000e+00
      3.141      0.043     4.8166     67.187     42.670  33.282318     1.1977      7.035   286.9257 1.2677e-01     3.0848      3.083      4.470    13.9951   999.2793 0.0000e+00
      3.149      0.044     4.8191     67.285     42.678  33.290282     1.2002      7.034   286.9237 1.2574e-01     3.0481      3.089      4.480    13.9939   999.2795 0.0000e+00
      3.155      0.049     4.8253     67.362     42.703  33.309902     1.2122      7.031   287.0627 1.2760e-01     3.0411      3.093      4.486    13.9937   999.2795 0.0000e+00
      3.164      0.055     4.8359     67.425     42.730  33.329161     1.2469      7.029   287.3166 1.3438e-01     3.0664      3.102      4.499    13.9942   999.2795 0.0000e+00
      3.178      0.062     4.8463     67.455     42.738  33.332737     1.2553      7.026   287.4977 1.4038e-01     3.0917      3.114      4.515    13.9963   999.2793 0.0000e+00
      3.199      0.068     4.8519     67.426     42.767  33.353140     1.2443      7.024   287.5310 1.3272e-01     3.0849      3.135      4.547    13.9992   999.2790 0.0000e+00
      3.224      0.070     4.8575     67.368     42.812  33.385454     1.2353      7.022   287.5482 1.2449e-01     3.1154      3.163      4.589    14.0000   999.2790 0.0000e+00
      3.246      0.067     4.8624     67.323     42.840  33.406122     1.2163      7.021   287.6201 1.2371e-01     3.2309      3.185      4.619    13.9973   999.2795 0.0000e+00
      3.263      0.062     4.8665     67.259     42.849  33.412646     1.2139      7.021   287.7118 1.2368e-01     3.3020      3.201      4.642    13.9931   999.2801 0.0000e+00
      3.275      0.055     4.8641     67.158     42.835  33.400859     1.2151      7.020   287.7960 1.2376e-01     3.2864      3.213      4.659    13.9898   999.2807 0.0000e+00
      3.285      0.049     4.8574     67.052     42.824  33.390538     1.1702      7.017   287.8630 1.2384e-01     3.2717      3.220      4.670    13.9873   999.2811 0.0000e+00
      3.295      0.047     4.8570     66.948     42.856  33.414787     1.1044      7.014   287.9202 1.2384e-01     3.2888      3.230      4.686    13.9859   999.2813 0.0000e+00
      3.306      0.048     4.8527     66.837     42.891  33.440197     1.0779      7.013   287.9709 1.2379e-01     3.2964      3.243      4.704    13.9850   999.2815 0.0000e+00
      3.318      0.051     4.8440     66.722     42.898  33.443906     1.0849      7.012   288.0463 1.2371e-01     3.2976      3.254      4.719    13.9839   999.2817 0.0000e+00
      3.331      0.056     4.8364     66.614     42.920  33.459618     1.1018      7.011   288.1435 1.2366e-01     3.3681      3.267      4.738    13.9827   999.2819 0.0000e+00
      3.346      0.061     4.8298     66.524     42.979  33.503234     1.1170      7.009   288.1999 1.2370e-01     3.4940      3.281      4.759    13.9815   999.2822 0.0000e+00
      3.362      0.067     4.8216     66.466     43.094  33.590477     1.1215      7.007   288.2978 1.2375e-01     3.5741      3.295      4.780    13.9799   999.2825 0.0000e+00
      3.379      0.072     4.8131     66.425     43.224  33.689421     1.1217      7.006   288.4669 1.2378e-01     3.5838      3.314      4.806    13.9780   999.2828 0.0000e+00
      3.399      0.074     4.8056     66.381     43.303  33.747578     1.1108      7.002   288.5240 1.2377e-01     3.5453      3.332      4.832    13.9761   999.2832 0.0000e+00
      3.419      0.074     4.7983     66.317     43.356  33.785933     1.0853      6.999   288.4723 1.2375e-01     3.5015      3.351      4.861    13.9738   999.2836 0.0000e+00
      3.443      0.071     4.7955     66.220     43.423  33.835831     1.0643      6.997   288.5302 1.2379e-01     3.5134      3.376      4.897    13.9706   999.2842 0.0000e+00
      3.463      0.066     4.7932     66.084     43.517  33.906633     1.0652      6.996   288.7068 1.2380e-01     3.5575      3.399      4.930    13.9669   999.2849 0.0000e+00
      3.478      0.061     4.7907     65.884     43.650  34.007331     1.0706      6.994   288.8010 1.2373e-01     3.5763      3.412      4.949    13.9630   999.2855 0.0000e+00
      3.488      0.056     4.7872     65.621     43.775  34.101359     1.0766      6.992   288.8089 1.2368e-01     3.5445      3.420      4.961    13.9596   999.2860 0.0000e+00
      3.499      0.054     4.7798     65.331     43.849  34.154984     1.1041      6.990   288.8885 1.2373e-01     3.5003      3.431      4.977    13.9573   999.2864 0.0000e+00
      3.511      0.054     4.7717     65.039     43.926  34.211445     1.1256      6.989   288.9887 1.2375e-01     3.5008      3.442      4.993    13.9543   999.2869 0.0000e+00
      3.525      0.057     4.7578     64.764     44.013  34.276278     1.1282      6.988   289.0740 1.2370e-01     3.5499      3.456      5.012    13.9509   999.2875 0.0000e+00
      3.541      0.059     4.7374     64.506     44.053  34.304201     1.1263      6.986   289.2314 1.2369e-01     3.5703      3.473      5.037    13.9476   999.2881 0.0000e+00
      3.559      0.059     4.7168     64.238     44.043  34.295190     1.1206      6.985   289.2564 1.2366e-01     3.5183      3.489      5.061    13.9435   999.2887 0.0000e+00
      3.577      0.058     4.6954     63.968     44.041  34.294257     1.1193      6.983   289.1188 1.2361e-01     3.5108      3.507      5.087    13.9390   999.2895 0.0000e+00
      3.592      0.055     4.6757     63.728     44.117  34.356394     1.1282      6.981   289.2026 1.2366e-01     3.5452      3.524      5.110    13.9347   999.2902 0.0000e+00
      3.604      0.051     4.6587     63.484     44.269  34.475274     1.1412      6.980   289.4956 1.2369e-01     3.5407      3.535      5.128    13.9314   999.2907 0.0000e+00
      3.614      0.048     4.6397     63.199     44.419  34.589211     1.1379      6.978   289.6496 1.2366e-01     3.5226      3.544      5.140    13.9293   999.2910 0.0000e+00
      3.624      0.047     4.6179     62.918     44.509  34.655043     1.1230      6.976   289.6021 1.2366e-01     3.5217      3.553      5.153    13.9307   999.2909 0.0000e+00
      3.635      0.049     4.6014     62.674     44.573  34.700024     1.1266      6.974   289.6106 1.2368e-01     3.5634      3.566      5.171    13.9355   999.2903 0.0000e+00
      3.647      0.052     4.5862     62.444     44.647  34.752259     1.1119      6.972   289.8375 1.2368e-01     3.6004      3.576      5.187    13.9368   999.2903 0.0000e+00
      3.661      0.057     4.5633     62.225     44.686  34.778851     1.0576      6.970   290.1088 1.2368e-01     3.5764      3.588      5.205    13.9329   999.2909 0.0000e+00
      3.678      0.061     4.5424     62.052     44.674  34.767671     1.0158      6.968   290.2236 1.2369e-01     3.5350      3.608      5.233    13.9273   999.2917 0.0000e+00
      3.695      0.063     4.5271     61.927     44.646  34.744015     0.9970      6.966   290.1926 1.2368e-01     3.5258      3.625      5.258    13.9207   999.2927 0.0000e+00
      3.710      0.063     4.5110     61.834     44.651  34.746700     1.0218      6.964   290.1651 1.2370e-01     3.5309      3.637      5.275    13.9150   999.2936 0.0000e+00
      3.728      0.062     4.4940     61.768     44.721  34.800129     1.0894      6.961   290.2347 1.2371e-01     3.5306      3.656      5.302    13.9112   999.2943 0.0000e+00
      3.745      0.059     4.4817     61.694     44.828  34.882267     1.1294      6.959   290.3467 1.2364e-01     3.5223      3.675      5.329    13.9088   999.2947 0.0000e+00
      3.760      0.055     4.4740     61.609     44.871  34.914725     1.1334      6.957   290.4860 1.2359e-01     3.5291      3.687      5.347    13.9070   999.2949 0.0000e+00
      3.774      0.053     4.4666     61.572     44.821  34.875237     1.1283      6.956   290.7148 1.2366e-01     3.5473      3.702      5.369    13.9057   999.2952 0.0000e+00
      3.787      0.051     4.4634     61.574     44.788  34.849108     1.1111      6.955   290.9622 1.2372e-01     3.5456      3.715      5.388    13.9048   999.2954 0.0000e+00
      3.797      0.051     4.4593     61.559     44.876  34.916139     1.0903      6.952   291.0678 1.2375e-01     3.5413      3.722      5.399    13.9035   999.2958 0.0000e+00
      3.808      0.053     4.4497     61.524     45.135  35.114480     1.0847      6.949   291.0448 1.2373e-01     3.5286      3.733      5.414    13.9020   999.2960 0.0000e+00
      3.821      0.056     4.4478     61.489     45.433  35.343145     1.0790      6.946   291.1145 1.2369e-01     3.5227      3.747      5.434    13.9016   999.2960 0.0000e+00
      3.836      0.058     4.4509     61.502     45.588  35.459450     1.0385      6.945   291.3080 1.2373e-01     3.6016      3.761      5.454    13.9014   999.2961 0.0000e+00
      3.853      0.058     4.4486     61.573     45.651  35.505176     0.9848      6.943   291.4925 1.2377e-01     3.7276      3.779      5.480    13.9002   999.2964 0.0000e+00
      3.872      0.057     4.4466     61.645     45.749  35.578665     0.9588      6.941   291.6242 1.2372e-01     3.7689      3.798      5.509    13.8969   999.2970 0.0000e+00
      3.887      0.055     4.4430     61.671     45.925  35.713278     0.9489      6.940   291.6960 1.2370e-01     3.7407      3.814      5.531    13.8916   999.2980 0.0000e+00
      3.899      0.053     4.4431     61.624     46.205  35.926803     0.9429      6.938   291.7579 1.2366e-01     3.7145      3.825      5.547    13.8874   999.2986 0.0000e+00
      3.909      0.052     4.4518     61.511     46.476  36.129278     0.9473      6.935   291.8570 1.2367e-01     3.7144      3.833      5.560    13.8840   999.2991 0.0000e+00
      3.919      0.052     4.4574     61.337     46.569  36.193732     0.9590      6.932   292.0340 1.2376e-01     3.7721      3.842      5.573    13.8813   999.2996 0.0000e+00
      3.933      0.053     4.4609     61.072     46.583  36.198322     0.9710      6.930   292.1766 1.2378e-01     3.8215      3.855      5.592    13.8804   999.2998 0.0000e+00
      3.949      0.056     4.4572     60.735     46.650  36.248235     1.0155      6.927   292.1181 1.2376e-01     3.8532      3.873      5.618    13.8761   999.3007 0.0000e+00
      3.965      0.057     4.4490     60.365     46.705  36.289428     1.0893      6.924   292.1004 1.2380e-01     3.9256      3.890      5.642    13.8662   999.3022 0.0000e+00
      3.979      0.056     4.4399     59.956     46.742  36.315543     1.1254      6.922   292.3070 1.2377e-01     3.9756      3.902      5.660    13.8554   999.3037 0.0000e+00
      3.994      0.055     4.4201     59.525     46.821  36.373573     1.1224      6.919   292.5520 1.2372e-01     3.9995      3.916      5.679    13.8485   999.3047 0.0000e+00
      4.009      0.053     4.3944     59.157     46.886  36.419791     1.0798      6.917   292.6535 1.2373e-01     4.0178      3.933      5.704    13.8469   999.3050 0.0000e+00
      4.022      0.052     4.3681     58.902     46.904  36.430037     1.0003      6.914   292.5873 1.2373e-01     4.0332      3.946      5.723    13.8467   999.3051 0.0000e+00
      4.033      0.054     4.3396     58.752     46.913  36.433987     0.9589      6.911   292.6123 1.2375e-01     4.0552      3.954      5.734    13.8441   999.3055 0.0000e+00
      4.045      0.056     4.3049     58.690     46.959  36.467537     0.9611      6.908   292.7836 1.2377e-01     4.0544      3.966      5.752    13.8396   999.3063 0.0000e+00
      4.059      0.059     4.2776     58.694     47.026  36.518315     0.9569      6.905   292.8511 1.2374e-01     4.0232      3.979      5.772    13.8348   999.3070 0.0000e+00
      4.075      0.062     4.2605     58.760     47.055  36.540150     0.9344      6.902   292.9126 1.2375e-01     4.0379      3.994      5.793    13.8311   999.3076 0.0000e+00
      4.095      0.064     4.2497     58.858     47.057  36.541119     0.9057      6.901   293.0969 1.2381e-01     4.1668      4.017      5.825    13.8283   999.3080 0.0000e+00
      4.112      0.064     4.2471     58.947     47.043  36.530030     0.8961      6.898   293.1865 1.2381e-01     4.2711      4.033      5.850    13.8263   999.3084 0.0000e+00
      4.128      0.063     4.2463     59.007     47.048  36.533025     0.8964      6.894   293.2213 1.2376e-01     4.2829      4.046      5.869    13.8248   999.3087 0.0000e+00
      4.143      0.060     4.2523     59.025     47.105  36.577323     0.8749      6.890   293.3457 1.2372e-01     4.3095      4.064      5.894    13.8238   999.3089 0.0000e+00
      4.158      0.056     4.2612     59.010     47.162  36.621312     0.8359      6.888   293.5723 1.2368e-01     4.3634      4.078      5.915    13.8231   999.3091 0.0000e+00
      4.172      0.053     4.2674     58.995     47.160  36.620573     0.8139      6.886   293.9825 1.2366e-01     4.4101      4.092      5.934    13.8225   999.3092 0.0000e+00
      4.186      0.052     4.2727     58.980     47.173  36.631860     0.8266      6.885   294.3480 1.2366e-01     4.4484      4.106      5.956    13.8223   999.3093 0.0000e+00
      4.197      0.050     4.2739     58.945     47.252  36.694305     0.8597      6.883   294.4631 1.2369e-01     4.4979      4.116      5.970    13.8223   999.3094 0.0000e+00
      4.208      0.048     4.2711     58.888     47.312  36.740848     0.8845      6.880   294.5139 1.2372e-01     4.5839      4.125      5.983    13.8221   999.3095 0.0000e+00
      4.222      0.048     4.2704     58.826     47.326  36.750279     0.8829      6.878   294.6182 1.2375e-01     4.6354      4.140      6.005    13.8222   999.3096 0.0000e+00
      4.235      0.048     4.2700     58.753     47.322  36.744864     0.8750      6.876   294.6922 1.2375e-01     4.6289      4.154      6.025    13.8240   999.3094 0.0000e+00
      4.246      0.048     4.2673     58.658     47.316  36.738841     0.8765      6.874   294.7192 1.2371e-01     4.6359      4.164      6.039    13.8262   999.3092 0.0000e+00
      4.257      0.049     4.2622     58.543     47.318  36.740936     0.8837      6.873   294.7734 1.2368e-01     4.6544      4.175      6.055    13.8258   999.3093 0.0000e+00
      4.269      0.051     4.2584     58.410     47.356  36.770196     0.8922      6.870   294.8314 1.2365e-01     4.6565      4.188      6.074    13.8234   999.3097 0.0000e+00
      4.281      0.055     4.2539     58.278     47.446  36.838723     0.8929      6.867   294.9898 1.2363e-01     4.6615      4.198      6.088    13.8207   999.3102 0.0000e+00
      4.295      0.061     4.2467     58.152     47.492  36.871256     0.8839      6.864   295.3113 1.2366e-01     4.9441      4.210      6.106    13.8198   999.3103 0.0000e+00
      4.310      0.066     4.2390     58.043     47.464  36.846173     0.8779      6.862   295.5360 1.2367e-01     5.4850      4.227      6.131    13.8204   999.3102 0.0000e+00
      4.329      0.070     4.2277     57.958     47.475  36.852809     0.8813      6.860   295.5558 1.2368e-01     5.7615      4.245      6.156    13.8205   999.3103 0.0000e+00
      4.350      0.072     4.2192     57.881     47.522  36.888017     0.8808      6.859   295.6372 1.2372e-01     5.7636      4.265      6.186    13.8193   999.3107 0.0000e+00
      4.372      0.071     4.2095     57.804     47.527  36.891022     0.8733      6.857   295.8309 1.2372e-01     5.7726      4.289      6.221    13.8154   999.3113 0.0000e+00
      4.391      0.070     4.2018     57.746     47.525  36.889139     0.8596      6.855   295.9186 1.2369e-01     5.8367      4.309      6.250    13.8110   999.3120 0.0000e+00
      4.406      0.069     4.1967     57.750     47.575  36.928722     0.8450      6.853   296.0098 1.2365e-01     5.8827      4.321      6.268    13.8086   999.3124 0.0000e+00
      4.421      0.069     4.1910     57.789     47.652  36.988757     0.8360      6.851   296.1588 1.2367e-01     5.8375      4.334      6.286    13.8075   999.3126 0.0000e+00
      4.437      0.070     4.1860     57.793     47.725  37.043745     0.8280      6.849   296.3438 1.2372e-01     5.8141      4.350      6.310    13.8067   999.3128 0.0000e+00
      4.455      0.071     4.1790     57.765     47.781  37.085769     0.8009      6.847   296.5264 1.2372e-01     5.9611      4.368      6.336    13.8070   999.3128 0.0000e+00
      4.476      0.073     4.1803     57.752     47.822  37.116000     0.7503      6.844   296.5602 1.2369e-01     6.1726      4.389      6.366    13.8081   999.3128 0.0000e+00
      4.496      0.075     4.1863     57.768     47.876  37.155366     0.7195      6.843   296.5803 1.2368e-01     6.2413      4.410      6.396    13.8082   999.3129 0.0000e+00
      4.515      0.076     4.1858     57.823     47.913  37.180883     0.7140      6.840   296.6823 1.2373e-01     6.2357      4.429      6.423    13.8070   999.3132 0.0000e+00
      4.533      0.078     4.1819     57.906     47.903  37.170613     0.7272      6.838   296.8478 1.2375e-01     6.2687      4.446      6.448    13.8056   999.3135 0.0000e+00
      4.552      0.079     4.1818     57.989     47.890  37.158140     0.7579      6.836   297.1187 1.2370e-01     6.2788      4.462      6.471    13.8035   999.3139 0.0000e+00
      4.572      0.078     4.1824     58.089     47.891  37.157017     0.7732      6.833   297.3761 1.2361e-01     6.2598      4.483      6.501    13.8005   999.3144 0.0000e+00
      4.595      0.076     4.1867     58.224     47.892  37.157040     0.7733      6.831   297.4645 1.2362e-01     6.2680      4.506      6.535    13.7973   999.3149 0.0000e+00
      4.618      0.073     4.1952     58.404     47.895  37.158415     0.7858      6.828   297.4134 1.2374e-01     6.2797      4.529      6.569    13.7943   999.3154 0.0000e+00
      4.637      0.071     4.1997     58.618     47.916  37.173637     0.8111      6.826   297.3608 1.2380e-01     6.2702      4.550      6.600    13.7918   999.3159 0.0000e+00
      4.652      0.070     4.2070     58.835     47.970  37.214136     0.8286      6.824   297.4313 1.2377e-01     6.2518      4.563      6.618    13.7901   999.3162 0.0000e+00
      4.663      0.070     4.2166     59.048     48.040  37.267226     0.8326      6.821   297.5765 1.2371e-01     6.2543      4.571      6.631    13.7890   999.3164 0.0000e+00
      4.679      0.071     4.2297     59.254     48.094  37.307725     0.8236      6.819   297.7402 1.2368e-01     6.3650      4.585      6.650    13.7882   999.3165 0.0000e+00
      4.700      0.073     4.2468     59.444     48.115  37.322948     0.8156      6.817   297.8612 1.2368e-01     6.5746      4.609      6.684    13.7875   999.3167 0.0000e+00
      4.724      0.074     4.2625     59.636     48.120  37.324334     0.8224      6.815   297.9214 1.2370e-01     6.7246      4.635      6.722    13.7859   999.3171 0.0000e+00
      4.746      0.072     4.2778     59.844     48.124  37.324470     0.8278      6.814   298.0382 1.2378e-01     6.7688      4.654      6.751    13.7836   999.3176 0.0000e+00
      4.765      0.068     4.2938     60.071     48.126  37.324595     0.8199      6.813   298.1551 1.2379e-01     6.7482      4.672      6.776    13.7827   999.3178 0.0000e+00
      4.781      0.064     4.3065     60.331     48.130  37.325845     0.7972      6.812   298.2168 1.2374e-01     6.7049      4.691      6.803    13.7824   999.3179 0.0000e+00
      4.793      0.064     4.3203     60.604     48.150  37.339581     0.7702      6.809   298.3541 1.2370e-01     6.7046      4.702      6.819    13.7795   999.3183 0.0000e+00
      4.804      0.066     4.3365     60.887     48.183  37.363713     0.7523      6.806   298.6104 1.2368e-01     6.7449      4.709      6.830    13.7760   999.3189 0.0000e+00
      4.819      0.071     4.3512     61.222     48.183  37.363723     0.7458      6.804   298.8201 1.2369e-01     6.7981      4.724      6.850    13.7746   999.3191 0.0000e+00
      4.839      0.077     4.3717     61.565     48.153  37.339696     0.7355      6.802   298.9107 1.2375e-01     6.8561      4.745      6.881    13.7732   999.3194 0.0000e+00
      4.864      0.082     4.3926     61.854     48.137  37.327116     0.7149      6.800   299.0172 1.2380e-01     6.9217      4.771      6.919    13.7713   999.3198 0.0000e+00
      4.888      0.087     4.4099     62.105     48.152  37.338563     0.7133      6.798   299.1618 1.2377e-01     6.9690      4.795      6.954    13.7700   999.3201 0.0000e+00
      4.909      0.089     4.4364     62.322     48.169  37.351144     0.7242      6.795   299.2825 1.2375e-01     6.9700      4.813      6.981    13.7693   999.3203 0.0000e+00
      4.932      0.088     4.4645     62.499     48.171  37.352289     0.7347      6.794   299.3579 1.2381e-01     6.9983      4.836      7.013    13.7690   999.3204 0.0000e+00
      4.956      0.085     4.4828     62.625     48.171  37.352394     0.7530      6.794   299.3854 1.2384e-01     7.0819      4.862      7.051    13.7685   999.3206 0.0000e+00
      4.978      0.082     4.5020     62.697     48.171  37.352414     0.7636      6.792   299.4424 1.2379e-01     7.1292      4.883      7.083    13.7682   999.3207 0.0000e+00
      4.998      0.079     4.5176     62.727     48.171  37.352534     0.7589      6.790   299.5312 1.2373e-01     7.1437      4.902      7.110    13.7679   999.3209 0.0000e+00
      5.017      0.077     4.5307     62.706     48.173  37.353844     0.7305      6.789   299.5983 1.2374e-01     7.2573      4.920      7.136    13.7677   999.3210 0.0000e+00
      5.036      0.077     4.5406     62.661     48.193  37.368257     0.6891      6.787   299.7381 1.2380e-01     7.4540      4.938      7.163    13.7675   999.3211 0.0000e+00
      5.053      0.080     4.5442     62.622     48.233  37.399843     0.6660      6.785   299.9301 1.2382e-01     7.5555      4.956      7.187    13.7673   999.3212 0.0000e+00
      5.071      0.085     4.5484     62.573     48.257  37.418363     0.6598      6.784   300.0276 1.2379e-01     7.5669      4.971      7.209    13.7671   999.3213 0.0000e+00
      5.094      0.088     4.5451     62.510     48.237  37.401742     0.6744      6.783   300.0563 1.2376e-01     7.5917      4.993      7.242    13.7666   999.3215 0.0000e+00
      5.121      0.090     4.5408     62.467     48.222  37.389319     0.7029      6.780   300.1052 1.2372e-01     7.6270      5.023      7.285    13.7664   999.3217 0.0000e+00
      5.148      0.090     4.5390     62.446     48.231  37.395107     0.7101      6.778   300.1882 1.2365e-01     7.6321      5.049      7.324    13.7666   999.3218 0.0000e+00
      5.171      0.087     4.5358     62.396     48.248  37.408238     0.6928      6.777   300.1994 1.2358e-01     7.6212      5.072      7.357    13.7665   999.3219 0.0000e+00
      5.191      0.080     4.5300     62.299     48.265  37.421128     0.6580      6.776   300.1545 1.2365e-01     7.6267      5.092      7.385    13.7655   999.3221 0.0000e+00
      5.210      0.071     4.5262     62.175     48.268  37.424017     0.6184      6.775   300.1625 1.2377e-01     7.6325      5.110      7.411    13.7643   999.3224 0.0000e+00
      5.229      0.065     4.5277     62.054     48.293  37.443165     0.5963      6.774   300.2095 1.2377e-01     7.6251      5.129      7.438    13.7633   999.3226 0.0000e+00
      5.244      0.062     4.5236     61.943     48.317  37.462215     0.5901      6.773   300.2927 1.2370e-01     7.6026      5.144      7.461    13.7628   999.3227 0.0000e+00
      5.255      0.062     4.5165     61.828     48.317  37.463924     0.5950      6.772   300.3952 1.2370e-01     7.5902      5.153      7.474    13.7631   999.3228 0.0000e+00
      5.268      0.065     4.5062     61.729     48.317  37.463822     0.6215      6.770   300.5015 1.2376e-01     7.6727      5.164      7.489    13.7635   999.3227 0.0000e+00
      5.284      0.071     4.4971     61.667     48.314  37.460973     0.6587      6.769   300.6317 1.2378e-01     7.8122      5.181      7.515    13.7635   999.3228 0.0000e+00
      5.303      0.079     4.4904     61.649     48.274  37.429483     0.6719      6.768   300.7641 1.2374e-01     7.8687      5.200      7.542    13.7642   999.3228 0.0000e+00
      5.325      0.085     4.4805     61.672     48.238  37.400458     0.6684      6.767   300.8114 1.2375e-01     7.8643      5.221      7.572    13.7655   999.3227 0.0000e+00
      5.351      0.087     4.4730     61.702     48.273  37.427423     0.6601      6.766   300.7735 1.2381e-01     7.8575      5.247      7.610    13.7656   999.3229 0.0000e+00
      5.378      0.087     4.4685     61.709     48.287  37.438127     0.6406      6.765   300.8229 1.2381e-01     7.8515      5.275      7.650    13.7647   999.3231 0.0000e+00
      5.402      0.084     4.4669     61.705     48.242  37.402918     0.6238      6.764   300.9780 1.2375e-01     7.8580      5.298      7.686    13.7640   999.3233 0.0000e+00
      5.422      0.079     4.4698     61.692     48.216  37.382574     0.6132      6.763   301.0999 1.2374e-01     7.8704      5.317      7.712    13.7634   999.3234 0.0000e+00
      5.439      0.074     4.4734     61.673     48.216  37.382583     0.6074      6.763   301.1784 1.2378e-01     7.8702      5.334      7.736    13.7631   999.3236 0.0000e+00
      5.455      0.071     4.4727     61.660     48.242  37.403030     0.6051      6.762   301.2385 1.2376e-01     7.8553      5.350      7.759    13.7628   999.3237 0.0000e+00
      5.471      0.070     4.4728     61.640     48.289  37.439369     0.6028      6.760   301.3110 1.2368e-01     7.8217      5.365      7.782    13.7625   999.3238 0.0000e+00
      5.489      0.070     4.4720     61.601     48.290  37.441091     0.6063      6.759   301.3666 1.2365e-01     7.7920      5.383      7.807    13.7624   999.3239 0.0000e+00
      5.508      0.071     4.4696     61.557     48.268  37.423845     0.6205      6.758   301.3947 1.2367e-01     7.7906      5.401      7.834    13.7625   999.3240 0.0000e+00
      5.527      0.072     4.4696     61.537     48.265  37.421283     0.6452      6.757   301.4785 1.2368e-01     7.8046      5.420      7.862    13.7626   999.3240 0.0000e+00
      5.546      0.072     4.4682     61.528     48.251  37.410110     0.6614      6.756   301.5189 1.2364e-01     7.8310      5.439      7.888    13.7626   999.3242 0.0000e+00
      5.564      0.071     4.4654     61.523     48.258  37.415712     0.6695      6.755   301.5396 1.2363e-01     7.8470      5.457      7.914    13.7630   999.3242 0.0000e+00
      5.582      0.070     4.4604     61.536     48.271  37.425536     0.6653      6.754   301.6428 1.2367e-01     7.8345      5.475      7.940    13.7634   999.3242 0.0000e+00
      5.601      0.068     4.4601     61.547     48.241  37.401943     0.6362      6.753   301.7341 1.2372e-01     7.8115      5.492      7.966    13.7630   999.3244 0.0000e+00
      5.618      0.066     4.4603     61.548     48.218  37.384360     0.6214      6.751   301.7828 1.2373e-01     7.8297      5.511      7.993    13.7627   999.3245 0.0000e+00
      5.634      0.064     4.4579     61.548     48.242  37.403375     0.6248      6.751   301.8028 1.2366e-01     7.8577      5.526      8.015    13.7627   999.3245 0.0000e+00
      5.649      0.062     4.4609     61.553     48.291  37.441405     0.6170      6.750   301.8889 1.2365e-01     7.8233      5.539      8.033    13.7625   999.3246 0.0000e+00
      5.665      0.061     4.4612     61.550     48.319  37.463321     0.6040      6.750   302.0495 1.2373e-01     7.8071      5.555      8.057    13.7623   999.3247 0.0000e+00
      5.680      0.062     4.4615     61.543     48.339  37.477923     0.5989      6.749   302.1099 1.2379e-01     7.8579      5.572      8.082    13.7623   999.3248 0.0000e+00
      5.695      0.066     4.4605     61.530     48.357  37.490999     0.6071      6.749   302.1027 1.2379e-01     7.9132      5.584      8.099    13.7627   999.3248 0.0000e+00
      5.710      0.071     4.4619     61.482     48.362  37.494468     0.6166      6.747   302.1354 1.2377e-01     7.9522      5.597      8.118    13.7637   999.3248 0.0000e+00
      5.728      0.077     4.4615     61.430     48.397  37.519860     0.6270      6.745   302.2470 1.2376e-01     8.0016      5.617      8.147    13.7638   999.3248 0.0000e+00
      5.749      0.083     4.4599     61.402     48.430  37.544107     0.6450      6.743   302.4186 1.2378e-01     8.0508      5.637      8.176    13.7629   999.3251 0.0000e+00
      5.772      0.089     4.4621     61.383     48.418  37.533722     0.6529      6.742   302.4896 1.2377e-01     8.0559      5.660      8.210    13.7623   999.3253 0.0000e+00
      5.797      0.093     4.4560     61.358     48.403  37.521247     0.6622      6.740   302.5034 1.2371e-01     8.0639      5.685      8.246    13.7613   999.3255 0.0000e+00
      5.822      0.093     4.4520     61.338     48.403  37.520228     0.6615      6.738   302.5854 1.2368e-01     8.0823      5.710      8.281    13.7598   999.3258 0.0000e+00
      5.847      0.090     4.4508     61.337     48.405  37.521393     0.6276      6.737   302.7067 1.2372e-01     8.0808      5.734      8.316    13.7581   999.3262 0.0000e+00
      5.872      0.084     4.4502     61.355     48.423  37.535338     0.5990      6.737   302.7648 1.2373e-01     8.1115      5.759      8.353    13.7565   999.3265 0.0000e+00
      5.894      0.078     4.4482     61.394     48.457  37.561882     0.5924      6.736   302.7713 1.2373e-01     8.1264      5.781      8.385    13.7558   999.3267 0.0000e+00
      5.912      0.072     4.4458     61.440     48.491  37.588427     0.5915      6.734   302.7862 1.2376e-01     8.0964      5.798      8.410    13.7551   999.3269 0.0000e+00
      5.928      0.067     4.4466     61.491     48.509  37.602381     0.5969      6.734   302.8587 1.2376e-01     8.0769      5.813      8.431    13.7541   999.3271 0.0000e+00
      5.942      0.064     4.4472     61.554     48.512  37.603649     0.6060      6.733   303.0462 1.2375e-01     8.0542      5.826      8.451    13.7539   999.3272 0.0000e+00
      5.957      0.063     4.4508     61.610     48.513  37.603757     0.6055      6.733   303.1604 1.2382e-01     8.0517      5.841      8.472    13.7544   999.3272 0.0000e+00
      5.973      0.065     4.4539     61.659     48.513  37.603672     0.6179      6.733   303.2077 1.2383e-01     8.0787      5.858      8.495    13.7550   999.3272 0.0000e+00
      5.989      0.069     4.4570     61.700     48.513  37.602624     0.6519      6.732   303.2735 1.2373e-01     8.0860      5.873      8.517    13.7550   999.3273 0.0000e+00
      6.007      0.071     4.4629     61.721     48.500  37.591083     0.6694      6.730   303.2670 1.2366e-01     8.0745      5.890      8.542    13.7540   999.3276 0.0000e+00
      6.027      0.071     4.4668     61.729     48.501  37.591093     0.6654      6.729   303.3014 1.2370e-01     8.0705      5.910      8.572    13.7528   999.3278 0.0000e+00
      6.048      0.070     4.4700     61.746     48.516  37.602738     0.6633      6.728   303.4323 1.2374e-01     8.0697      5.932      8.604    13.7523   999.3279 0.0000e+00
      6.067      0.069     4.4739     61.784     48.519  37.604932     0.6529      6.728   303.4726 1.2373e-01     8.0978      5.951      8.631    13.7517   999.3281 0.0000e+00
      6.082      0.066     4.4754     61.842     48.535  37.617619     0.6262      6.727   303.4438 1.2376e-01     8.1161      5.964      8.650    13.7505   999.3283 0.0000e+00
      6.097      0.063     4.4751     61.913     48.550  37.629179     0.6094      6.725   303.5142 1.2379e-01     8.0607      5.979      8.671    13.7498   999.3285 0.0000e+00
      6.112      0.062     4.4761     61.955     48.536  37.617744     0.6053      6.723   303.5502 1.2374e-01     8.0187      5.995      8.694    13.7499   999.3286 0.0000e+00
      6.127      0.063     4.4793     61.957     48.522  37.606308     0.6027      6.722   303.5338 1.2369e-01     8.0340      6.009      8.715    13.7498   999.3286 0.0000e+00
      6.143      0.067     4.4827     61.967     48.537  37.617859     0.6038      6.721   303.5742 1.2372e-01     8.0825      6.024      8.737    13.7499   999.3287 0.0000e+00
      6.159      0.073     4.4898     61.973     48.555  37.630450     0.6098      6.721   303.6082 1.2374e-01     8.1128      6.040      8.760    13.7497   999.3288 0.0000e+00
      6.178      0.080     4.4942     61.945     48.558  37.631596     0.6069      6.720   303.6882 1.2364e-01     8.1060      6.057      8.786    13.7490   999.3290 0.0000e+00
      6.198      0.085     4.4905     61.893     48.559  37.631710     0.5944      6.718   303.7663 1.2359e-01     8.1638      6.077      8.814    13.7486   999.3291 0.0000e+00
      6.223      0.087     4.4932     61.839     48.560  37.631824     0.5975      6.717   303.7774 1.2363e-01     8.2873      6.101      8.849    13.7487   999.3292 0.0000e+00
      6.250      0.087     4.4946     61.809     48.562  37.632969     0.6099      6.717   303.8227 1.2368e-01     8.3537      6.129      8.890    13.7477   999.3295 0.0000e+00
      6.277      0.086     4.4921     61.781     48.578  37.645561     0.6148      6.716   303.8845 1.2372e-01     8.3437      6.158      8.931    13.7462   999.3299 0.0000e+00
      6.297      0.085     4.4882     61.721     48.593  37.657111     0.6130      6.715   303.9225 1.2367e-01     8.3641      6.176      8.959    13.7452   999.3301 0.0000e+00
      6.313      0.084     4.4828     61.642     48.578  37.645674     0.6058      6.714   303.9380 1.2366e-01     8.4356      6.190      8.977    13.7446   999.3302 0.0000e+00
      6.331      0.082     4.4818     61.567     48.563  37.634228     0.6049      6.713   303.9859 1.2375e-01     8.4877      6.206      9.001    13.7442   999.3304 0.0000e+00
      6.353      0.081     4.4812     61.475     48.578  37.645674     0.6113      6.711   304.0704 1.2380e-01     8.5349      6.229      9.034    13.7439   999.3305 0.0000e+00
      6.378      0.081     4.4763     61.367     48.593  37.657111     0.6137      6.709   304.0143 1.2381e-01     8.5794      6.255      9.071    13.7439   999.3306 0.0000e+00
      6.400      0.081     4.4687     61.255     48.578  37.645551     0.6168      6.709   303.8229 1.2384e-01     8.5675      6.277      9.104    13.7444   999.3307 0.0000e+00
      6.420      0.079     4.4654     61.151     48.562  37.632866     0.6138      6.708   303.6499 1.2388e-01     8.5548      6.296      9.132    13.7444   999.3307 0.0000e+00
      6.439      0.075     4.4579     61.086     48.560  37.630692     0.6029      6.708   303.5565 1.2387e-01     8.5908      6.315      9.159    13.7442   999.3309 0.0000e+00
      6.456      0.072     4.4498     61.059     48.545  37.619256     0.5981      6.708   303.5550 1.2381e-01     8.6093      6.332      9.184    13.7444   999.3309 0.0000e+00
      6.473      0.070     4.4421     61.047     48.547  37.621544     0.5820      6.707   303.5447 1.2381e-01     8.5811      6.348      9.207    13.7443   999.3310 0.0000e+00
      6.490      0.068     4.4325     61.042     48.594  37.658362     0.5559      6.706   303.4326 1.2381e-01     8.5449      6.365      9.231    13.7440   999.3311 0.0000e+00
      6.508      0.068     4.4285     61.055     48.627  37.683554     0.5421      6.705   303.3182 1.2376e-01     8.5325      6.382      9.256    13.7438   999.3312 0.0000e+00
      6.526      0.068     4.4272     61.082     48.613  37.672233     0.5366      6.704   303.2803 1.2369e-01     8.5297      6.400      9.284    13.7439   999.3313 0.0000e+00
      6.544      0.066     4.4267     61.110     48.583  37.648434     0.5407      6.702   303.2319 1.2367e-01     8.5112      6.418      9.308    13.7441   999.3313 0.0000e+00
      6.560      0.061     4.4256     61.121     48.585  37.649714     0.5496      6.701   303.1639 1.2371e-01     8.4720      6.433      9.328    13.7442   999.3314 0.0000e+00
      6.577      0.055     4.4267     61.101     48.634  37.687707     0.5480      6.701   303.1467 1.2369e-01     8.4491      6.450      9.354    13.7441   999.3315 0.0000e+00
      6.593      0.048     4.4293     61.080     48.685  37.726940     0.5387      6.700   303.1093 1.2366e-01     8.4965      6.468      9.381    13.7441   999.3316 0.0000e+00
      6.605      0.042     4.4313     61.078     48.707  37.743209     0.5506      6.699   302.9705 1.2368e-01     8.6190      6.479      9.397    13.7438   999.3317 0.0000e+00
      6.610      0.036     4.4336     61.067     48.727  37.757451     0.5880      6.699   302.7582 1.2368e-01     8.7180      6.482      9.402    13.7432   999.3318 0.0000e+00
      6.615      0.031     4.4305     61.031     48.748  37.772187     0.6093      6.700   302.6069 1.2368e-01     8.7435      6.486      9.406    13.7428   999.3319 0.0000e+00
      6.623      0.027     4.4281     60.958     48.779  37.794414     0.6081      6.698   302.6038 1.2367e-01     8.7623      6.494      9.419    13.7427   999.3319 0.0000e+00
      6.632      0.023     4.4298     60.815     48.836  37.835755     0.5998      6.695   302.5490 1.2368e-01     8.7163      6.505      9.434    13.7424   999.3321 0.0000e+00
      6.639      0.021     4.4288     60.577     48.828  37.827685     0.5786      6.695   302.3741 1.2374e-01     8.5798      6.513      9.444    13.7414   999.3322 0.0000e+00
      6.643      0.018     4.4268     60.275     48.743  37.760316     0.5507      6.695   302.2971 1.2381e-01     8.4895      6.516      9.450    13.7392   999.3326 0.0000e+00
      6.646      0.013     4.4223     59.884     48.692  37.719462     0.5400      6.695   302.3916 1.2381e-01     8.4768      6.518      9.453    13.7369   999.3328 0.0000e+00
      6.648      0.009     4.4141     59.358     48.685  37.714594     0.5447      6.694   302.3982 1.2373e-01     8.4583      6.520      9.455    13.7346   999.3332 0.0000e+00
      6.650      0.006     4.3947     58.801     48.665  37.701456     0.5467      6.693   302.2910 1.2368e-01     8.3975      6.521      9.458    13.7325   999.3335 0.0000e+00
      6.651      0.004     4.3729     58.346     48.643  37.687575     0.5465      6.693   302.2995 1.2366e-01     8.3305      6.523      9.460    13.7304   999.3338 0.0000e+00
      6.652      0.003     4.3497     58.069     48.621  37.673722     0.5424      6.692   302.3302 1.2369e-01     8.3037      6.523      9.461    13.7287   999.3340 0.0000e+00
      6.653      0.002     4.3056     57.981     48.600  37.660922     0.5316      6.692   302.3173 1.2374e-01     8.3027      6.524      9.462    13.7296   999.3339 0.0000e+00
      6.653      0.002     4.2621     58.035     48.595  37.659758     0.5457      6.691   302.3162 1.2378e-01     8.3189      6.524      9.462    13.7323   999.3335 0.0000e+00
      6.654      0.002     4.2267     58.090     48.593  37.659662     0.5662      6.691   302.3161 1.2377e-01     8.3365      6.525      9.464    13.7351   999.3331 0.0000e+00
      6.654 -9.990e-29     4.2061 -9.990e-29 -9.990e-29 -9.990e-29 -9.990e-29 -9.990e-29 -9.990e-29 1.2373e-01 -9.990e-29      6.525      9.464    13.7390   999.3326 0.0000e+00
      6.654 -9.990e-29     4.2005 -9.990e-29 -9.990e-29 -9.990e-29 -9.990e-29 -9.990e-29 -9.990e-29 1.2370e-01 -9.990e-29      6.525      9.464    13.7429   999.3320 0.0000e+00
      6.654 -9.990e-29     4.2069 -9.990e-29 -9.990e-29 -9.990e-29 -9.990e-29 -9.990e-29 -9.990e-29 1.2371e-01 -9.990e-29      6.525      9.463    13.7460   999.3315 0.0000e+00
      6.654 -9.990e-29     4.2181 -9.990e-29 -9.990e-29 -9.990e-29 -9.990e-29 -9.990e-29 -9.990e-29 1.2372e-01 -9.990e-29      6.526      9.464    13.7479   999.3313 0.0000e+00
